Wavelength;Intensity_Meas;Intensity_Ref;Difference_dB
1200.0000;-61.2600;-57.3300;-3.9300
1200.1990;-61.1800;-57.3100;-3.8700
1200.3980;-61.1800;-57.2900;-3.8900
1200.5970;-61.1700;-57.2600;-3.9100
1200.7970;-61.1200;-57.2100;-3.9100
1200.9960;-61.0500;-57.2000;-3.8500
1201.1950;-61.0200;-57.1800;-3.8400
1201.3940;-61.0100;-57.1100;-3.9000
1201.5930;-60.9700;-57.0700;-3.9000
1201.7920;-60.9400;-57.0200;-3.9200
1201.9910;-60.9300;-56.9800;-3.9500
1202.1900;-60.8900;-56.9500;-3.9400
1202.3890;-60.8900;-56.8700;-4.0200
1202.5890;-60.9000;-56.8000;-4.1000
1202.7880;-60.8300;-56.7800;-4.0500
1202.9870;-60.8000;-56.7300;-4.0700
1203.1860;-60.8200;-56.6800;-4.1400
1203.3850;-60.7900;-56.6000;-4.1900
1203.5840;-60.7500;-56.5700;-4.1800
1203.7830;-60.7100;-56.5400;-4.1700
1203.9820;-60.7400;-56.4900;-4.2500
1204.1810;-60.7200;-56.4500;-4.2700
1204.3810;-60.6700;-56.3900;-4.2800
1204.5800;-60.6500;-56.3900;-4.2600
1204.7790;-60.6400;-56.3700;-4.2700
1204.9780;-60.6400;-56.3100;-4.3300
1205.1770;-60.6300;-56.2800;-4.3500
1205.3760;-60.5700;-56.2700;-4.3000
1205.5750;-60.6000;-56.2500;-4.3500
1205.7740;-60.5800;-56.2300;-4.3500
1205.9740;-60.5900;-56.2100;-4.3800
1206.1730;-60.5300;-56.2000;-4.3300
1206.3720;-60.5100;-56.1800;-4.3300
1206.5710;-60.4900;-56.1600;-4.3300
1206.7700;-60.4600;-56.1400;-4.3200
1206.9690;-60.4100;-56.1000;-4.3100
1207.1680;-60.3500;-56.1000;-4.2500
1207.3670;-60.3100;-56.0800;-4.2300
1207.5660;-60.2600;-56.0200;-4.2400
1207.7660;-60.1800;-56.0100;-4.1700
1207.9650;-60.1200;-55.9800;-4.1400
1208.1640;-60.0500;-55.9400;-4.1100
1208.3630;-60.0000;-55.8900;-4.1100
1208.5620;-59.9400;-55.8600;-4.0800
1208.7610;-59.8300;-55.8300;-4.0000
1208.9600;-59.7600;-55.7800;-3.9800
1209.1590;-59.7000;-55.7300;-3.9700
1209.3580;-59.6500;-55.6600;-3.9900
1209.5580;-59.5600;-55.6200;-3.9400
1209.7570;-59.4900;-55.6000;-3.8900
1209.9560;-59.4600;-55.5300;-3.9300
1210.1550;-59.3900;-55.4600;-3.9300
1210.3540;-59.3000;-55.4200;-3.8800
1210.5530;-59.2400;-55.3900;-3.8500
1210.7520;-59.2200;-55.3400;-3.8800
1210.9510;-59.1900;-55.2800;-3.9100
1211.1500;-59.1100;-55.2400;-3.8700
1211.3500;-59.0200;-55.2000;-3.8200
1211.5490;-59.0200;-55.1800;-3.8400
1211.7480;-58.9900;-55.1500;-3.8400
1211.9470;-58.9500;-55.0800;-3.8700
1212.1460;-58.8600;-55.0700;-3.7900
1212.3450;-58.8500;-55.0500;-3.8000
1212.5440;-58.8700;-55.0100;-3.8600
1212.7430;-58.8300;-54.9800;-3.8500
1212.9430;-58.7700;-54.9500;-3.8200
1213.1420;-58.7500;-54.9200;-3.8300
1213.3410;-58.7600;-54.8900;-3.8700
1213.5400;-58.7500;-54.8700;-3.8800
1213.7390;-58.7000;-54.8500;-3.8500
1213.9380;-58.6700;-54.8000;-3.8700
1214.1370;-58.6900;-54.7900;-3.9000
1214.3360;-58.6600;-54.7300;-3.9300
1214.5350;-58.6200;-54.7000;-3.9200
1214.7350;-58.5900;-54.6800;-3.9100
1214.9340;-58.6100;-54.6300;-3.9800
1215.1330;-58.5800;-54.5800;-4.0000
1215.3320;-58.5100;-54.5300;-3.9800
1215.5310;-58.4800;-54.4900;-3.9900
1215.7300;-58.4800;-54.4500;-4.0300
1215.9290;-58.4700;-54.3900;-4.0800
1216.1280;-58.4000;-54.3300;-4.0700
1216.3270;-58.3500;-54.2600;-4.0900
1216.5270;-58.3500;-54.2300;-4.1200
1216.7260;-58.3300;-54.1800;-4.1500
1216.9250;-58.2900;-54.1000;-4.1900
1217.1240;-58.2300;-54.0500;-4.1800
1217.3230;-58.2200;-53.9900;-4.2300
1217.5220;-58.2300;-53.9400;-4.2900
1217.7210;-58.2000;-53.9000;-4.3000
1217.9200;-58.1400;-53.8400;-4.3000
1218.1200;-58.1300;-53.8000;-4.3300
1218.3190;-58.1500;-53.7500;-4.4000
1218.5180;-58.1400;-53.7100;-4.4300
1218.7170;-58.0800;-53.6600;-4.4200
1218.9160;-58.0900;-53.6300;-4.4600
1219.1150;-58.0900;-53.6100;-4.4800
1219.3140;-58.0800;-53.5500;-4.5300
1219.5130;-58.0500;-53.5300;-4.5200
1219.7120;-58.0400;-53.5100;-4.5300
1219.9120;-58.0600;-53.4600;-4.6000
1220.1110;-58.0300;-53.4300;-4.6000
1220.3100;-57.9800;-53.3900;-4.5900
1220.5090;-57.9400;-53.3500;-4.5900
1220.7080;-57.9400;-53.3300;-4.6100
1220.9070;-57.9300;-53.2800;-4.6500
1221.1060;-57.8300;-53.2200;-4.6100
1221.3050;-57.7800;-53.1900;-4.5900
1221.5040;-57.7500;-53.1400;-4.6100
1221.7040;-57.7000;-53.0800;-4.6200
1221.9030;-57.6200;-53.0300;-4.5900
1222.1020;-57.5100;-52.9700;-4.5400
1222.3010;-57.4500;-52.9100;-4.5400
1222.5000;-57.3800;-52.8400;-4.5400
1222.6990;-57.2700;-52.7900;-4.4800
1222.8980;-57.1700;-52.7100;-4.4600
1223.0970;-57.0700;-52.6500;-4.4200
1223.2970;-56.9900;-52.5800;-4.4100
1223.4960;-56.8600;-52.5000;-4.3600
1223.6950;-56.7500;-52.4500;-4.3000
1223.8940;-56.6700;-52.3800;-4.2900
1224.0930;-56.5500;-52.3100;-4.2400
1224.2920;-56.4300;-52.2400;-4.1900
1224.4910;-56.3000;-52.1800;-4.1200
1224.6900;-56.1900;-52.1300;-4.0600
1224.8890;-56.0900;-52.0500;-4.0400
1225.0890;-55.9400;-52.0100;-3.9300
1225.2880;-55.7600;-51.9300;-3.8300
1225.4870;-55.6600;-51.8700;-3.7900
1225.6860;-55.5700;-51.8400;-3.7300
1225.8850;-55.4300;-51.7800;-3.6500
1226.0840;-55.2800;-51.7300;-3.5500
1226.2830;-55.2100;-51.6800;-3.5300
1226.4820;-55.0900;-51.6200;-3.4700
1226.6810;-54.9800;-51.5900;-3.3900
1226.8810;-54.8800;-51.5400;-3.3400
1227.0800;-54.8000;-51.4800;-3.3200
1227.2790;-54.7600;-51.4400;-3.3200
1227.4780;-54.6800;-51.3800;-3.3000
1227.6770;-54.6300;-51.3400;-3.2900
1227.8760;-54.6200;-51.2700;-3.3500
1228.0750;-54.6000;-51.2200;-3.3800
1228.2740;-54.6000;-51.1500;-3.4500
1228.4740;-54.5900;-51.0800;-3.5100
1228.6730;-54.6300;-51.0300;-3.6000
1228.8720;-54.6800;-50.9500;-3.7300
1229.0710;-54.6900;-50.8900;-3.8000
1229.2700;-54.7500;-50.8100;-3.9400
1229.4690;-54.7800;-50.7200;-4.0600
1229.6680;-54.8400;-50.6700;-4.1700
1229.8670;-54.8600;-50.5700;-4.2900
1230.0660;-54.8800;-50.4900;-4.3900
1230.2660;-54.9100;-50.4100;-4.5000
1230.4650;-54.9100;-50.3300;-4.5800
1230.6640;-54.8800;-50.2600;-4.6200
1230.8630;-54.8700;-50.1800;-4.6900
1231.0620;-54.8300;-50.1100;-4.7200
1231.2610;-54.7800;-50.0500;-4.7300
1231.4600;-54.6800;-49.9800;-4.7000
1231.6590;-54.5600;-49.9300;-4.6300
1231.8580;-54.4500;-49.8500;-4.6000
1232.0580;-54.3000;-49.8100;-4.4900
1232.2570;-54.1400;-49.7400;-4.4000
1232.4560;-53.9600;-49.6800;-4.2800
1232.6550;-53.7800;-49.6400;-4.1400
1232.8540;-53.6000;-49.5700;-4.0300
1233.0530;-53.4100;-49.5300;-3.8800
1233.2520;-53.2400;-49.4600;-3.7800
1233.4510;-53.0700;-49.4100;-3.6600
1233.6500;-52.9200;-49.3700;-3.5500
1233.8500;-52.7800;-49.3000;-3.4800
1234.0490;-52.6600;-49.2500;-3.4100
1234.2480;-52.5700;-49.1800;-3.3900
1234.4470;-52.4800;-49.1200;-3.3600
1234.6460;-52.4100;-49.0600;-3.3500
1234.8450;-52.3900;-48.9900;-3.4000
1235.0440;-52.3700;-48.9300;-3.4400
1235.2430;-52.3700;-48.8400;-3.5300
1235.4430;-52.3500;-48.7600;-3.5900
1235.6420;-52.3800;-48.6900;-3.6900
1235.8410;-52.4100;-48.6000;-3.8100
1236.0400;-52.4300;-48.5300;-3.9000
1236.2390;-52.4600;-48.4200;-4.0400
1236.4380;-52.4800;-48.3300;-4.1500
1236.6370;-52.5100;-48.2500;-4.2600
1236.8360;-52.5000;-48.1500;-4.3500
1237.0350;-52.4800;-48.0800;-4.4000
1237.2350;-52.4800;-47.9900;-4.4900
1237.4340;-52.4300;-47.9000;-4.5300
1237.6330;-52.3700;-47.8100;-4.5600
1237.8320;-52.3200;-47.7400;-4.5800
1238.0310;-52.2400;-47.6600;-4.5800
1238.2300;-52.1700;-47.5700;-4.6000
1238.4290;-52.0500;-47.5000;-4.5500
1238.6280;-51.9700;-47.4200;-4.5500
1238.8270;-51.8800;-47.3400;-4.5400
1239.0270;-51.7700;-47.2700;-4.5000
1239.2260;-51.6700;-47.1800;-4.4900
1239.4250;-51.5500;-47.1100;-4.4400
1239.6240;-51.4700;-47.0300;-4.4400
1239.8230;-51.3500;-46.9400;-4.4100
1240.0220;-51.2500;-46.8700;-4.3800
1240.2210;-51.1700;-46.7700;-4.4000
1240.4200;-51.0700;-46.6900;-4.3800
1240.6200;-50.9700;-46.5900;-4.3800
1240.8190;-50.8600;-46.4900;-4.3700
1241.0180;-50.7500;-46.3800;-4.3700
1241.2170;-50.6600;-46.2700;-4.3900
1241.4160;-50.5300;-46.1700;-4.3600
1241.6150;-50.4200;-46.0300;-4.3900
1241.8140;-50.3100;-45.9100;-4.4000
1242.0130;-50.1800;-45.8000;-4.3800
1242.2120;-50.0600;-45.6900;-4.3700
1242.4120;-49.9300;-45.5600;-4.3700
1242.6110;-49.8000;-45.4200;-4.3800
1242.8100;-49.6600;-45.3100;-4.3500
1243.0090;-49.5100;-45.1700;-4.3400
1243.2080;-49.4000;-45.0500;-4.3500
1243.4070;-49.2600;-44.9200;-4.3400
1243.6060;-49.1300;-44.7900;-4.3400
1243.8050;-49.0000;-44.6800;-4.3200
1244.0040;-48.8800;-44.5400;-4.3400
1244.2040;-48.7900;-44.4100;-4.3800
1244.4030;-48.6600;-44.2900;-4.3700
1244.6020;-48.5800;-44.1600;-4.4200
1244.8010;-48.4900;-44.0500;-4.4400
1245.0000;-48.4000;-43.9100;-4.4900
1245.1990;-48.3300;-43.7900;-4.5400
1245.3980;-48.2500;-43.6700;-4.5800
1245.5970;-48.1600;-43.5300;-4.6300
1245.7970;-48.0500;-43.4100;-4.6400
1245.9960;-47.9200;-43.2600;-4.6600
1246.1950;-47.8100;-43.1400;-4.6700
1246.3940;-47.6400;-43.0000;-4.6400
1246.5930;-47.4500;-42.8500;-4.6000
1246.7920;-47.2400;-42.7300;-4.5100
1246.9910;-47.0000;-42.5600;-4.4400
1247.1900;-46.7400;-42.4200;-4.3200
1247.3890;-46.4400;-42.2700;-4.1700
1247.5890;-46.1400;-42.1100;-4.0300
1247.7880;-45.7600;-41.9700;-3.7900
1247.9870;-45.4800;-41.8000;-3.6800
1248.1860;-45.1500;-41.6500;-3.5000
1248.3850;-44.8300;-41.5000;-3.3300
1248.5840;-44.5100;-41.3300;-3.1800
1248.7830;-44.1900;-41.1800;-3.0100
1248.9820;-43.9100;-41.0200;-2.8900
1249.1810;-43.6300;-40.8700;-2.7600
1249.3810;-43.3800;-40.7200;-2.6600
1249.5800;-43.1500;-40.5600;-2.5900
1249.7790;-42.9400;-40.4200;-2.5200
1249.9780;-42.7500;-40.2500;-2.5000
1250.1770;-42.5800;-40.1100;-2.4700
1250.3760;-42.4400;-39.9700;-2.4700
1250.5750;-42.3300;-39.8100;-2.5200
1250.7740;-42.2200;-39.6700;-2.5500
1250.9740;-42.1600;-39.5200;-2.6400
1251.1730;-42.1000;-39.3800;-2.7200
1251.3720;-42.0500;-39.2300;-2.8200
1251.5710;-42.0400;-39.0900;-2.9500
1251.7700;-42.0100;-38.9500;-3.0600
1251.9690;-42.0000;-38.7900;-3.2100
1252.1680;-41.9700;-38.6400;-3.3300
1252.3670;-41.9600;-38.4700;-3.4900
1252.5660;-41.9700;-38.3200;-3.6500
1252.7660;-41.9500;-38.1700;-3.7800
1252.9650;-41.9400;-38.0100;-3.9300
1253.1640;-41.9000;-37.8500;-4.0500
1253.3630;-41.8600;-37.6800;-4.1800
1253.5620;-41.8200;-37.5200;-4.3000
1253.7610;-41.7500;-37.3500;-4.4000
1253.9600;-41.7000;-37.1900;-4.5100
1254.1590;-41.6000;-37.0300;-4.5700
1254.3580;-41.5000;-36.8500;-4.6500
1254.5580;-41.4100;-36.7000;-4.7100
1254.7570;-41.2800;-36.5400;-4.7400
1254.9560;-41.1700;-36.3700;-4.8000
1255.1550;-41.0200;-36.2300;-4.7900
1255.3540;-40.8800;-36.0600;-4.8200
1255.5530;-40.7300;-35.9200;-4.8100
1255.7520;-40.5600;-35.7400;-4.8200
1255.9510;-40.4000;-35.6300;-4.7700
1256.1500;-40.2200;-35.4900;-4.7300
1256.3500;-40.0200;-35.3400;-4.6800
1256.5490;-39.8300;-35.2200;-4.6100
1256.7480;-39.6300;-35.0700;-4.5600
1256.9470;-39.4200;-34.9400;-4.4800
1257.1460;-39.1900;-34.8000;-4.3900
1257.3450;-38.9700;-34.6600;-4.3100
1257.5440;-38.7400;-34.5400;-4.2000
1257.7430;-38.5000;-34.3900;-4.1100
1257.9430;-38.2700;-34.2500;-4.0200
1258.1420;-38.0300;-34.1200;-3.9100
1258.3410;-37.7900;-33.9700;-3.8200
1258.5400;-37.5400;-33.8400;-3.7000
1258.7390;-37.3000;-33.6800;-3.6200
1258.9380;-37.0700;-33.5400;-3.5300
1259.1370;-36.8200;-33.3900;-3.4300
1259.3360;-36.6000;-33.2400;-3.3600
1259.5350;-36.3700;-33.1000;-3.2700
1259.7350;-36.1400;-32.9400;-3.2000
1259.9340;-35.8900;-32.8000;-3.0900
1260.1330;-35.7200;-32.6500;-3.0700
1260.3320;-35.5300;-32.4900;-3.0400
1260.5310;-35.3300;-32.3600;-2.9700
1260.7300;-35.1500;-32.2000;-2.9500
1260.9290;-34.9600;-32.0700;-2.8900
1261.1280;-34.7800;-31.9200;-2.8600
1261.3270;-34.6200;-31.7700;-2.8500
1261.5270;-34.4600;-31.6500;-2.8100
1261.7260;-34.3000;-31.5100;-2.7900
1261.9250;-34.1400;-31.3800;-2.7600
1262.1240;-33.9900;-31.2400;-2.7500
1262.3230;-33.8600;-31.1100;-2.7500
1262.5220;-33.7100;-31.0000;-2.7100
1262.7210;-33.5800;-30.8600;-2.7200
1262.9200;-33.4400;-30.7400;-2.7000
1263.1200;-33.2900;-30.6000;-2.6900
1263.3190;-33.1600;-30.4700;-2.6900
1263.5180;-33.0300;-30.3600;-2.6700
1263.7170;-32.9000;-30.2100;-2.6900
1263.9160;-32.7400;-30.0900;-2.6500
1264.1150;-32.6000;-29.9500;-2.6500
1264.3140;-32.4600;-29.8100;-2.6500
1264.5130;-32.3200;-29.6900;-2.6300
1264.7120;-32.1900;-29.5500;-2.6400
1264.9120;-32.0300;-29.4200;-2.6100
1265.1110;-31.8800;-29.2700;-2.6100
1265.3100;-31.7500;-29.1400;-2.6100
1265.5090;-31.6100;-29.0100;-2.6000
1265.7080;-31.4900;-28.8700;-2.6200
1265.9070;-31.3500;-28.7500;-2.6000
1266.1060;-31.2200;-28.6100;-2.6100
1266.3050;-31.1100;-28.4800;-2.6300
1266.5040;-31.0000;-28.3700;-2.6300
1266.7040;-30.9100;-28.2400;-2.6700
1266.9030;-30.8100;-28.1200;-2.6900
1267.1020;-30.7300;-27.9900;-2.7400
1267.3010;-30.6600;-27.8700;-2.7900
1267.5000;-30.6100;-27.7700;-2.8400
1267.6990;-30.5800;-27.6500;-2.9300
1267.8980;-30.5300;-27.5500;-2.9800
1268.0970;-30.5300;-27.4300;-3.1000
1268.2970;-30.5300;-27.3200;-3.2100
1268.4960;-30.5500;-27.2200;-3.3300
1268.6950;-30.5900;-27.1000;-3.4900
1268.8940;-30.6300;-27.0000;-3.6300
1269.0930;-30.6900;-26.8800;-3.8100
1269.2920;-30.7800;-26.7700;-4.0100
1269.4910;-30.9000;-26.6600;-4.2400
1269.6900;-31.0400;-26.5400;-4.5000
1269.8890;-31.1900;-26.4400;-4.7500
1270.0890;-31.3800;-26.3100;-5.0700
1270.2880;-31.5900;-26.2000;-5.3900
1270.4870;-31.8400;-26.0700;-5.7700
1270.6860;-32.1300;-25.9700;-6.1600
1270.8850;-32.4200;-25.8500;-6.5700
1271.0840;-32.7700;-25.7300;-7.0400
1271.2830;-33.1300;-25.6300;-7.5000
1271.4820;-33.5000;-25.5000;-8.0000
1271.6810;-33.9000;-25.3900;-8.5100
1271.8810;-34.2700;-25.2800;-8.9900
1272.0800;-34.6000;-25.1700;-9.4300
1272.2790;-34.8400;-25.0600;-9.7800
1272.4780;-34.9700;-24.9500;-10.0200
1272.6770;-34.9600;-24.8500;-10.1100
1272.8760;-34.7600;-24.7400;-10.0200
1273.0750;-34.4200;-24.6500;-9.7700
1273.2740;-33.9300;-24.5600;-9.3700
1273.4740;-33.3600;-24.4500;-8.9100
1273.6730;-32.7500;-24.3700;-8.3800
1273.8720;-32.1000;-24.2700;-7.8300
1274.0710;-31.4700;-24.1800;-7.2900
1274.2700;-30.8400;-24.0900;-6.7500
1274.4690;-30.2500;-23.9900;-6.2600
1274.6680;-29.7000;-23.9100;-5.7900
1274.8670;-29.1800;-23.8100;-5.3700
1275.0660;-28.7200;-23.7200;-5.0000
1275.2660;-28.2800;-23.6400;-4.6400
1275.4650;-27.8900;-23.5400;-4.3500
1275.6640;-27.5400;-23.4600;-4.0800
1275.8630;-27.2200;-23.3600;-3.8600
1276.0620;-26.9500;-23.2700;-3.6800
1276.2610;-26.7000;-23.1800;-3.5200
1276.4600;-26.4900;-23.0900;-3.4000
1276.6590;-26.3000;-23.0000;-3.3000
1276.8580;-26.1600;-22.9000;-3.2600
1277.0580;-26.0300;-22.8200;-3.2100
1277.2570;-25.9600;-22.7300;-3.2300
1277.4560;-25.9000;-22.6400;-3.2600
1277.6550;-25.8600;-22.5700;-3.2900
1277.8540;-25.8500;-22.4700;-3.3800
1278.0530;-25.8400;-22.4000;-3.4400
1278.2520;-25.8500;-22.3100;-3.5400
1278.4510;-25.8600;-22.2300;-3.6300
1278.6500;-25.8800;-22.1600;-3.7200
1278.8500;-25.9200;-22.0700;-3.8500
1279.0490;-25.9100;-22.0000;-3.9100
1279.2480;-25.9200;-21.9200;-4.0000
1279.4470;-25.9100;-21.8400;-4.0700
1279.6460;-25.8700;-21.7700;-4.1000
1279.8450;-25.8300;-21.6800;-4.1500
1280.0440;-25.7400;-21.6200;-4.1200
1280.2430;-25.6500;-21.5400;-4.1100
1280.4430;-25.5200;-21.4600;-4.0600
1280.6420;-25.3700;-21.3900;-3.9800
1280.8410;-25.2200;-21.3100;-3.9100
1281.0400;-25.0300;-21.2400;-3.7900
1281.2390;-24.8500;-21.1600;-3.6900
1281.4380;-24.6500;-21.0800;-3.5700
1281.6370;-24.4600;-21.0100;-3.4500
1281.8360;-24.2700;-20.9300;-3.3400
1282.0350;-24.0800;-20.8700;-3.2100
1282.2350;-23.9000;-20.7800;-3.1200
1282.4340;-23.7300;-20.7100;-3.0200
1282.6330;-23.5800;-20.6500;-2.9300
1282.8320;-23.4500;-20.5800;-2.8700
1283.0310;-23.3200;-20.5200;-2.8000
1283.2300;-23.2300;-20.4500;-2.7800
1283.4290;-23.1300;-20.3900;-2.7400
1283.6280;-23.0700;-20.3200;-2.7500
1283.8270;-23.0200;-20.2600;-2.7600
1284.0270;-22.9900;-20.2100;-2.7800
1284.2260;-22.9800;-20.1400;-2.8400
1284.4250;-22.9800;-20.0900;-2.8900
1284.6240;-23.0000;-20.0300;-2.9700
1284.8230;-23.0300;-19.9700;-3.0600
1285.0220;-23.0800;-19.9300;-3.1500
1285.2210;-23.1400;-19.8600;-3.2800
1285.4200;-23.2000;-19.8100;-3.3900
1285.6200;-23.2700;-19.7500;-3.5200
1285.8190;-23.3400;-19.6900;-3.6500
1286.0180;-23.4000;-19.6500;-3.7500
1286.2170;-23.4800;-19.5800;-3.9000
1286.4160;-23.5200;-19.5400;-3.9800
1286.6150;-23.5800;-19.4900;-4.0900
1286.8140;-23.5900;-19.4300;-4.1600
1287.0130;-23.5800;-19.3900;-4.1900
1287.2120;-23.5600;-19.3300;-4.2300
1287.4120;-23.4900;-19.2900;-4.2000
1287.6110;-23.4100;-19.2300;-4.1800
1287.8100;-23.2800;-19.1800;-4.1000
1288.0090;-23.1300;-19.1400;-3.9900
1288.2080;-22.9600;-19.0800;-3.8800
1288.4070;-22.7500;-19.0500;-3.7000
1288.6060;-22.5400;-19.0000;-3.5400
1288.8050;-22.2900;-18.9600;-3.3300
1289.0040;-22.0400;-18.9200;-3.1200
1289.2040;-21.7900;-18.8700;-2.9200
1289.4030;-21.5300;-18.8500;-2.6800
1289.6020;-21.2900;-18.8000;-2.4900
1289.8010;-21.0300;-18.7600;-2.2700
1290.0000;-20.8000;-18.7200;-2.0800
1290.1990;-20.5700;-18.6800;-1.8900
1290.3980;-20.3500;-18.6600;-1.6900
1290.5970;-20.1800;-18.6200;-1.5600
1290.7970;-19.9800;-18.5900;-1.3900
1290.9960;-19.8100;-18.5300;-1.2800
1291.1950;-19.6600;-18.5000;-1.1600
1291.3940;-19.5200;-18.4700;-1.0500
1291.5930;-19.4200;-18.4100;-1.0100
1291.7920;-19.3300;-18.3900;-0.9400
1291.9910;-19.2700;-18.3400;-0.9300
1292.1900;-19.2200;-18.3100;-0.9100
1292.3890;-19.2000;-18.2700;-0.9300
1292.5890;-19.2100;-18.2200;-0.9900
1292.7880;-19.2300;-18.2000;-1.0300
1292.9870;-19.3000;-18.1500;-1.1500
1293.1860;-19.3700;-18.1300;-1.2400
1293.3850;-19.4800;-18.0900;-1.3900
1293.5840;-19.6000;-18.0500;-1.5500
1293.7830;-19.7500;-18.0200;-1.7300
1293.9820;-19.9600;-17.9900;-1.9700
1294.1810;-20.1600;-17.9700;-2.1900
1294.3810;-20.4100;-17.9300;-2.4800
1294.5800;-20.6800;-17.8900;-2.7900
1294.7790;-20.9800;-17.8700;-3.1100
1294.9780;-21.3300;-17.8400;-3.4900
1295.1770;-21.7000;-17.8200;-3.8800
1295.3760;-22.1200;-17.7900;-4.3300
1295.5750;-22.5500;-17.7600;-4.7900
1295.7740;-23.0400;-17.7300;-5.3100
1295.9740;-23.5700;-17.6900;-5.8800
1296.1730;-24.1400;-17.6800;-6.4600
1296.3720;-24.7600;-17.6500;-7.1100
1296.5710;-25.3900;-17.6300;-7.7600
1296.7700;-26.0700;-17.6000;-8.4700
1296.9690;-26.7600;-17.5800;-9.1800
1297.1680;-27.4500;-17.5700;-9.8800
1297.3670;-28.2500;-17.5500;-10.7000
1297.5660;-28.7100;-17.5300;-11.1800
1297.7660;-29.1700;-17.5100;-11.6600
1297.9650;-29.4300;-17.4900;-11.9400
1298.1640;-29.4800;-17.4800;-12.0000
1298.3630;-29.2600;-17.4700;-11.7900
1298.5620;-28.8500;-17.4600;-11.3900
1298.7610;-28.3000;-17.4400;-10.8600
1298.9600;-27.6500;-17.4400;-10.2100
1299.1590;-26.9900;-17.4300;-9.5600
1299.3580;-26.2900;-17.4200;-8.8700
1299.5580;-25.5100;-17.4200;-8.0900
1299.7570;-24.9800;-17.4100;-7.5700
1299.9560;-24.3900;-17.4100;-6.9800
1300.1550;-23.8200;-17.4000;-6.4200
1300.3540;-23.3000;-17.4000;-5.9000
1300.5530;-22.8200;-17.4000;-5.4200
1300.7520;-22.3500;-17.3900;-4.9600
1300.9510;-21.9400;-17.4000;-4.5400
1301.1500;-21.5600;-17.4000;-4.1600
1301.3500;-21.2000;-17.4000;-3.8000
1301.5490;-20.9000;-17.4100;-3.4900
1301.7480;-20.6000;-17.4100;-3.1900
1301.9470;-20.3400;-17.4200;-2.9200
1302.1460;-20.1000;-17.4200;-2.6800
1302.3450;-19.8700;-17.4300;-2.4400
1302.5440;-19.7000;-17.4300;-2.2700
1302.7430;-19.5100;-17.4300;-2.0800
1302.9430;-19.3700;-17.4400;-1.9300
1303.1420;-19.2400;-17.4400;-1.8000
1303.3410;-19.1300;-17.4600;-1.6700
1303.5400;-19.0500;-17.4600;-1.5900
1303.7390;-18.9700;-17.4600;-1.5100
1303.9380;-18.9300;-17.4700;-1.4600
1304.1370;-18.9000;-17.4800;-1.4200
1304.3360;-18.8800;-17.5000;-1.3800
1304.5350;-18.9000;-17.5000;-1.4000
1304.7350;-18.9200;-17.5100;-1.4100
1304.9340;-18.9700;-17.5200;-1.4500
1305.1330;-19.0300;-17.5300;-1.5000
1305.3320;-19.1200;-17.5500;-1.5700
1305.5310;-19.2300;-17.5600;-1.6700
1305.7300;-19.3400;-17.5800;-1.7600
1305.9290;-19.4900;-17.5800;-1.9100
1306.1280;-19.6500;-17.6000;-2.0500
1306.3270;-19.8400;-17.6100;-2.2300
1306.5270;-20.0500;-17.6300;-2.4200
1306.7260;-20.2700;-17.6500;-2.6200
1306.9250;-20.5300;-17.6500;-2.8800
1307.1240;-20.8000;-17.6800;-3.1200
1307.3230;-21.1000;-17.6900;-3.4100
1307.5220;-21.4200;-17.7100;-3.7100
1307.7210;-21.7600;-17.7400;-4.0200
1307.9200;-22.1400;-17.7500;-4.3900
1308.1200;-22.5400;-17.7900;-4.7500
1308.3190;-22.9800;-17.8000;-5.1800
1308.5180;-23.4300;-17.8400;-5.5900
1308.7170;-23.9000;-17.8800;-6.0200
1308.9160;-24.4100;-17.8900;-6.5200
1309.1150;-24.9200;-17.9400;-6.9800
1309.3140;-25.4500;-17.9600;-7.4900
1309.5130;-25.9600;-18.0100;-7.9500
1309.7120;-26.4500;-18.0500;-8.4000
1309.9120;-26.9000;-18.0700;-8.8300
1310.1110;-27.2800;-18.1300;-9.1500
1310.3100;-27.5800;-18.1600;-9.4200
1310.5090;-27.7400;-18.2100;-9.5300
1310.7080;-27.7900;-18.2500;-9.5400
1310.9070;-27.6900;-18.2900;-9.4000
1311.1060;-27.4900;-18.3500;-9.1400
1311.3050;-27.1900;-18.3800;-8.8100
1311.5040;-26.8200;-18.4500;-8.3700
1311.7040;-26.4000;-18.4800;-7.9200
1311.9030;-25.9500;-18.5300;-7.4200
1312.1020;-25.5000;-18.5800;-6.9200
1312.3010;-25.0600;-18.6300;-6.4300
1312.5000;-24.6300;-18.7000;-5.9300
1312.6990;-24.2400;-18.7400;-5.5000
1312.8980;-23.8500;-18.8000;-5.0500
1313.0970;-23.5000;-18.8500;-4.6500
1313.2970;-23.1700;-18.9000;-4.2700
1313.4960;-22.8700;-18.9800;-3.8900
1313.6950;-22.6200;-19.0300;-3.5900
1313.8940;-22.3600;-19.0900;-3.2700
1314.0930;-22.1600;-19.1400;-3.0200
1314.2920;-21.9600;-19.2000;-2.7600
1314.4910;-21.8000;-19.2700;-2.5300
1314.6900;-21.6600;-19.3200;-2.3400
1314.8890;-21.5300;-19.3800;-2.1500
1315.0890;-21.4500;-19.4300;-2.0200
1315.2880;-21.3600;-19.5000;-1.8600
1315.4870;-21.3100;-19.5500;-1.7600
1315.6860;-21.2700;-19.6100;-1.6600
1315.8850;-21.2400;-19.6700;-1.5700
1316.0840;-21.2600;-19.7300;-1.5300
1316.2830;-21.2600;-19.8000;-1.4600
1316.4820;-21.3100;-19.8500;-1.4600
1316.6810;-21.3500;-19.9200;-1.4300
1316.8810;-21.4100;-19.9800;-1.4300
1317.0800;-21.5100;-20.0500;-1.4600
1317.2790;-21.5800;-20.1200;-1.4600
1317.4780;-21.7000;-20.1900;-1.5100
1317.6770;-21.8000;-20.2600;-1.5400
1317.8760;-21.9200;-20.3200;-1.6000
1318.0750;-22.0500;-20.3900;-1.6600
1318.2740;-22.1800;-20.4600;-1.7200
1318.4740;-22.3400;-20.5300;-1.8100
1318.6730;-22.4800;-20.6200;-1.8600
1318.8720;-22.6400;-20.6800;-1.9600
1319.0710;-22.7900;-20.7800;-2.0100
1319.2700;-22.9500;-20.8500;-2.1000
1319.4690;-23.1100;-20.9300;-2.1800
1319.6680;-23.2700;-21.0200;-2.2500
1319.8670;-23.4300;-21.1000;-2.3300
1320.0660;-23.5700;-21.2000;-2.3700
1320.2660;-23.7000;-21.2800;-2.4200
1320.4650;-23.8400;-21.3700;-2.4700
1320.6640;-23.9800;-21.4700;-2.5100
1320.8630;-24.1100;-21.5600;-2.5500
1321.0620;-24.2100;-21.6600;-2.5500
1321.2610;-24.3200;-21.7500;-2.5700
1321.4600;-24.4200;-21.8600;-2.5600
1321.6590;-24.5000;-21.9500;-2.5500
1321.8580;-24.5900;-22.0500;-2.5400
1322.0580;-24.6500;-22.1600;-2.4900
1322.2570;-24.7200;-22.2600;-2.4600
1322.4560;-24.7700;-22.3700;-2.4000
1322.6550;-24.8200;-22.4700;-2.3500
1322.8540;-24.8800;-22.5900;-2.2900
1323.0530;-24.9300;-22.6900;-2.2400
1323.2520;-24.9900;-22.8100;-2.1800
1323.4510;-25.0200;-22.9200;-2.1000
1323.6500;-25.0700;-23.0300;-2.0400
1323.8500;-25.1200;-23.1600;-1.9600
1324.0490;-25.1700;-23.2700;-1.9000
1324.2480;-25.2400;-23.4000;-1.8400
1324.4470;-25.2900;-23.5100;-1.7800
1324.6460;-25.3600;-23.6300;-1.7300
1324.8450;-25.4200;-23.7600;-1.6600
1325.0440;-25.4900;-23.8700;-1.6200
1325.2430;-25.5700;-24.0100;-1.5600
1325.4430;-25.6500;-24.1200;-1.5300
1325.6420;-25.7600;-24.2600;-1.5000
1325.8410;-25.8400;-24.3900;-1.4500
1326.0400;-25.9400;-24.5200;-1.4200
1326.2390;-26.0500;-24.6500;-1.4000
1326.4380;-26.1500;-24.7800;-1.3700
1326.6370;-26.2800;-24.9100;-1.3700
1326.8360;-26.3900;-25.0400;-1.3500
1327.0350;-26.5200;-25.1800;-1.3400
1327.2350;-26.6400;-25.3200;-1.3200
1327.4340;-26.7800;-25.4500;-1.3300
1327.6330;-26.9200;-25.6000;-1.3200
1327.8320;-27.0600;-25.7200;-1.3400
1328.0310;-27.2200;-25.8700;-1.3500
1328.2300;-27.3600;-26.0100;-1.3500
1328.4290;-27.5300;-26.1500;-1.3800
1328.6280;-27.6900;-26.3000;-1.3900
1328.8270;-27.8600;-26.4400;-1.4200
1329.0270;-28.0400;-26.6000;-1.4400
1329.2260;-28.2200;-26.7300;-1.4900
1329.4250;-28.4200;-26.8900;-1.5300
1329.6240;-28.6500;-27.0300;-1.6200
1329.8230;-28.8300;-27.1700;-1.6600
1330.0220;-29.0400;-27.3300;-1.7100
1330.2210;-29.2600;-27.4700;-1.7900
1330.4200;-29.5100;-27.6300;-1.8800
1330.6200;-29.7600;-27.7700;-1.9900
1330.8190;-30.0400;-27.9200;-2.1200
1331.0180;-30.3100;-28.0700;-2.2400
1331.2170;-30.6100;-28.2300;-2.3800
1331.4160;-30.9400;-28.3900;-2.5500
1331.6150;-31.2700;-28.5700;-2.7000
1331.8140;-31.6300;-28.7100;-2.9200
1332.0130;-31.9900;-28.8500;-3.1400
1332.2120;-32.3800;-29.0200;-3.3600
1332.4120;-32.7900;-29.1700;-3.6200
1332.6110;-33.2200;-29.3400;-3.8800
1332.8100;-33.6700;-29.5000;-4.1700
1333.0090;-34.1100;-29.6600;-4.4500
1333.2080;-34.5700;-29.8300;-4.7400
1333.4070;-35.0200;-29.9800;-5.0400
1333.6060;-35.4700;-30.1500;-5.3200
1333.8050;-35.9100;-30.3100;-5.6000
1334.0040;-36.3100;-30.4700;-5.8400
1334.2040;-36.6900;-30.6500;-6.0400
1334.4030;-36.9900;-30.8100;-6.1800
1334.6020;-37.2400;-30.9800;-6.2600
1334.8010;-37.4100;-31.1500;-6.2600
1335.0000;-37.5000;-31.3200;-6.1800
1335.1990;-37.5400;-31.4900;-6.0500
1335.3980;-37.4900;-31.6600;-5.8300
1335.5970;-37.4100;-31.8500;-5.5600
1335.7970;-37.2900;-32.0200;-5.2700
1335.9960;-37.1400;-32.2100;-4.9300
1336.1950;-36.9800;-32.3800;-4.6000
1336.3940;-36.8200;-32.5600;-4.2600
1336.5930;-36.6600;-32.7400;-3.9200
1336.7920;-36.5100;-32.9100;-3.6000
1336.9910;-36.3900;-33.1000;-3.2900
1337.1900;-36.3000;-33.2800;-3.0200
1337.3890;-36.2200;-33.4700;-2.7500
1337.5890;-36.1900;-33.6500;-2.5400
1337.7880;-36.1700;-33.8300;-2.3400
1337.9870;-36.2100;-34.0300;-2.1800
1338.1860;-36.2500;-34.2000;-2.0500
1338.3850;-36.3400;-34.3900;-1.9500
1338.5840;-36.4700;-34.5700;-1.9000
1338.7830;-36.6300;-34.7500;-1.8800
1338.9820;-36.8300;-34.9500;-1.8800
1339.1810;-37.0500;-35.1300;-1.9200
1339.3810;-37.3200;-35.3200;-2.0000
1339.5800;-37.6200;-35.4900;-2.1300
1339.7790;-37.9500;-35.6800;-2.2700
1339.9780;-38.3400;-35.8700;-2.4700
1340.1770;-38.8400;-36.0500;-2.7900
1340.3760;-39.2200;-36.2600;-2.9600
1340.5750;-39.7100;-36.4400;-3.2700
1340.7740;-40.2400;-36.6300;-3.6100
1340.9740;-40.8000;-36.8100;-3.9900
1341.1730;-41.4000;-36.9900;-4.4100
1341.3720;-42.0600;-37.1800;-4.8800
1341.5710;-42.7500;-37.3700;-5.3800
1341.7700;-43.5100;-37.5600;-5.9500
1341.9690;-44.2900;-37.7300;-6.5600
1342.1680;-45.1300;-37.9300;-7.2000
1342.3670;-46.0200;-38.1100;-7.9100
1342.5660;-46.9500;-38.2900;-8.6600
1342.7660;-47.9800;-38.5300;-9.4500
1342.9650;-49.2500;-38.6900;-10.5600
1343.1640;-50.1800;-38.8900;-11.2900
1343.3630;-51.3100;-39.0700;-12.2400
1343.5620;-52.5100;-39.2600;-13.2500
1343.7610;-53.6900;-39.4500;-14.2400
1343.9600;-54.8300;-39.6500;-15.1800
1344.1590;-55.8500;-39.8600;-15.9900
1344.3580;-56.6300;-40.0500;-16.5800
1344.5580;-57.1100;-40.2500;-16.8600
1344.7570;-57.2300;-40.4400;-16.7900
1344.9560;-57.0700;-40.6300;-16.4400
1345.1550;-56.7000;-40.8200;-15.8800
1345.3540;-56.2200;-41.0000;-15.2200
1345.5530;-55.7300;-41.2000;-14.5300
1345.7520;-55.2100;-41.3800;-13.8300
1345.9510;-54.7200;-41.5800;-13.1400
1346.1500;-54.2500;-41.7800;-12.4700
1346.3500;-53.8200;-41.9700;-11.8500
1346.5490;-53.4600;-42.1900;-11.2700
1346.7480;-53.0900;-42.3700;-10.7200
1346.9470;-52.7600;-42.5600;-10.2000
1347.1460;-52.4400;-42.7500;-9.6900
1347.3450;-52.1400;-42.9200;-9.2200
1347.5440;-51.9300;-43.1600;-8.7700
1347.7430;-51.7400;-43.3900;-8.3500
1347.9430;-51.5400;-43.6200;-7.9200
1348.1420;-51.3100;-43.8000;-7.5100
1348.3410;-51.1300;-44.0000;-7.1300
1348.5400;-50.9100;-44.1600;-6.7500
1348.7390;-50.7200;-44.3400;-6.3800
1348.9380;-50.5500;-44.5200;-6.0300
1349.1370;-50.3800;-44.6800;-5.7000
1349.3360;-50.2100;-44.8500;-5.3600
1349.5350;-50.0600;-45.0200;-5.0400
1349.7350;-49.9200;-45.1900;-4.7300
1349.9340;-49.8200;-45.3800;-4.4400
1350.1330;-49.7300;-45.5800;-4.1500
1350.3320;-49.7200;-45.8400;-3.8800
1350.5310;-49.6600;-46.0500;-3.6100
1350.7300;-49.5800;-46.2300;-3.3500
1350.9290;-49.4900;-46.4000;-3.0900
1351.1280;-49.3800;-46.5200;-2.8600
1351.3270;-49.3400;-46.7000;-2.6400
1351.5270;-49.3200;-46.8700;-2.4500
1351.7260;-49.3800;-47.1200;-2.2600
1351.9250;-49.3900;-47.3100;-2.0800
1352.1240;-49.4100;-47.4900;-1.9200
1352.3230;-49.4600;-47.6800;-1.7800
1352.5220;-49.5400;-47.8800;-1.6600
1352.7210;-49.6000;-48.0500;-1.5500
1352.9200;-49.6500;-48.2000;-1.4500
1353.1200;-49.8400;-48.5500;-1.2900
1353.3190;-49.8900;-48.5900;-1.3000
1353.5180;-50.0100;-48.7700;-1.2400
1353.7170;-50.1900;-48.9500;-1.2400
1353.9160;-50.2600;-49.0600;-1.2000
1354.1150;-50.4200;-49.2200;-1.2000
1354.3140;-50.6500;-49.4500;-1.2000
1354.5130;-50.8700;-49.6500;-1.2200
1354.7120;-51.2200;-49.9600;-1.2600
1354.9120;-51.5600;-50.2500;-1.3100
1355.1110;-51.8000;-50.4400;-1.3600
1355.3100;-52.0000;-50.5700;-1.4300
1355.5090;-52.0800;-50.5900;-1.4900
1355.7080;-52.4000;-50.8500;-1.5500
1355.9070;-52.7500;-51.1300;-1.6200
1356.1060;-53.0100;-51.3000;-1.7100
1356.3050;-53.1800;-51.3900;-1.7900
1356.5040;-53.4000;-51.5200;-1.8800
1356.7040;-53.3800;-51.4300;-1.9500
1356.9030;-53.6100;-51.6000;-2.0100
1357.1020;-54.0400;-51.9700;-2.0700
1357.3010;-54.3300;-52.2100;-2.1200
1357.5000;-54.5900;-52.4000;-2.1900
1357.6990;-54.8300;-52.5900;-2.2400
1357.8980;-54.9200;-52.6600;-2.2600
1358.0970;-55.0000;-52.7300;-2.2700
1358.2970;-55.2100;-52.9200;-2.2900
1358.4960;-55.4500;-53.1500;-2.3000
1358.6950;-55.5800;-53.3000;-2.2800
1358.8940;-55.7300;-53.4700;-2.2600
1359.0930;-55.8600;-53.6300;-2.2300
1359.2920;-55.8900;-53.6900;-2.2000
1359.4910;-56.2200;-54.0700;-2.1500
1359.6900;-56.4800;-54.3800;-2.1000
1359.8890;-56.6400;-54.5800;-2.0600
1360.0890;-56.6500;-54.6600;-1.9900
1360.2880;-56.6400;-54.7100;-1.9300
1360.4870;-56.5600;-54.7000;-1.8600
1360.6860;-56.6900;-54.8900;-1.8000
1360.8850;-56.9900;-55.2300;-1.7600
1361.0840;-57.2200;-55.5400;-1.6800
1361.2830;-57.3500;-55.7200;-1.6300
1361.4820;-57.4600;-55.9000;-1.5600
1361.6810;-57.6600;-56.1400;-1.5200
1361.8810;-57.7300;-56.2800;-1.4500
1362.0800;-57.9300;-56.5200;-1.4100
1362.2790;-58.3500;-56.9500;-1.4000
1362.4780;-58.5300;-57.1900;-1.3400
1362.6770;-58.6600;-57.3600;-1.3000
1362.8760;-58.5300;-57.2600;-1.2700
1363.0750;-58.4700;-57.2300;-1.2400
1363.2740;-58.2200;-57.0100;-1.2100
1363.4740;-58.3100;-57.1000;-1.2100
1363.6730;-58.4000;-57.2000;-1.2000
1363.8720;-58.5700;-57.3700;-1.2000
1364.0710;-58.8000;-57.6000;-1.2000
1364.2700;-59.0200;-57.8100;-1.2100
1364.4690;-59.3700;-58.1500;-1.2200
1364.6680;-59.9000;-58.7300;-1.1700
1364.8670;-60.1900;-58.9500;-1.2400
1365.0660;-60.2000;-58.9300;-1.2700
1365.2660;-60.4800;-59.1400;-1.3400
1365.4650;-60.4600;-59.0900;-1.3700
1365.6640;-60.5700;-59.1700;-1.4000
1365.8630;-60.7300;-59.2500;-1.4800
1366.0620;-60.8000;-59.2700;-1.5300
1366.2610;-60.8900;-59.3000;-1.5900
1366.4600;-61.0400;-59.3800;-1.6600
1366.6590;-61.3000;-59.5700;-1.7300
1366.8580;-61.6500;-59.8400;-1.8100
1367.0580;-61.9100;-59.9800;-1.9300
1367.2570;-62.1600;-60.1200;-2.0400
1367.4560;-62.5400;-60.4100;-2.1300
1367.6550;-62.8300;-60.6300;-2.2000
1367.8540;-63.2500;-60.9300;-2.3200
1368.0530;-63.5400;-61.0900;-2.4500
1368.2520;-63.6600;-61.0900;-2.5700
1368.4510;-64.1500;-61.4300;-2.7200
1368.6500;-64.4300;-61.5800;-2.8500
1368.8500;-64.6800;-61.7000;-2.9800
1369.0490;-64.8500;-61.7400;-3.1100
1369.2480;-65.0200;-61.7400;-3.2800
1369.4470;-65.1000;-61.6700;-3.4300
1369.6460;-65.3500;-61.8400;-3.5100
1369.8450;-65.8200;-62.2100;-3.6100
1370.0440;-66.3300;-62.4200;-3.9100
1370.2430;-66.5600;-62.6000;-3.9600
1370.4430;-66.8500;-62.6800;-4.1700
1370.6420;-66.9700;-62.7500;-4.2200
1370.8410;-67.4700;-63.1200;-4.3500
1371.0400;-67.9800;-63.4200;-4.5600
1371.2390;-68.3600;-63.6400;-4.7200
1371.4380;-68.6100;-63.7700;-4.8400
1371.6370;-68.6200;-63.7600;-4.8600
1371.8360;-68.8000;-63.7400;-5.0600
1372.0350;-69.2400;-63.9900;-5.2500
1372.2350;-69.5800;-64.2600;-5.3200
1372.4340;-69.8700;-64.4200;-5.4500
1372.6330;-70.2100;-64.5300;-5.6800
1372.8320;-70.1500;-64.6600;-5.4900
1373.0310;-70.4300;-64.7000;-5.7300
1373.2300;-70.7700;-64.9000;-5.8700
1373.4290;-71.2100;-65.1500;-6.0600
1373.6280;-71.2100;-65.3400;-5.8700
1373.8270;-71.4100;-65.5100;-5.9000
1374.0270;-71.5400;-65.6200;-5.9200
1374.2260;-71.7500;-65.8200;-5.9300
1374.4250;-71.9400;-66.0600;-5.8800
1374.6240;-72.1600;-66.2300;-5.9300
1374.8230;-72.3000;-66.5400;-5.7600
1375.0220;-72.5700;-66.6900;-5.8800
1375.2210;-72.8100;-66.8700;-5.9400
1375.4200;-73.0500;-67.0300;-6.0200
1375.6200;-73.1400;-67.2300;-5.9100
1375.8190;-73.0700;-67.3400;-5.7300
1376.0180;-73.0300;-67.5500;-5.4800
1376.2170;-73.1200;-67.7200;-5.4000
1376.4160;-73.2800;-68.0100;-5.2700
1376.6150;-72.9800;-68.2900;-4.6900
1376.8140;-73.3700;-68.4400;-4.9300
1377.0130;-73.3900;-68.7600;-4.6300
1377.2120;-73.8100;-69.0800;-4.7300
1377.4120;-73.4200;-69.1500;-4.2700
1377.6110;-73.4500;-69.2500;-4.2000
1377.8100;-73.7100;-69.2800;-4.4300
1378.0090;-73.3100;-69.4300;-3.8800
1378.2080;-73.5800;-69.6300;-3.9500
1378.4070;-73.5100;-69.8500;-3.6600
1378.6060;-73.5900;-70.2800;-3.3100
1378.8050;-73.7500;-70.5400;-3.2100
1379.0040;-73.8300;-70.5900;-3.2400
1379.2040;-73.6700;-70.8700;-2.8000
1379.4030;-73.6400;-71.0200;-2.6200
1379.6020;-73.7000;-70.7300;-2.9700
1379.8010;-73.5900;-71.0400;-2.5500
1380.0000;-73.6300;-71.3100;-2.3200
1380.1990;-73.4300;-71.4500;-1.9800
1380.3980;-73.6900;-71.7300;-1.9600
1380.5970;-74.1300;-72.3200;-1.8100
1380.7970;-74.7100;-72.8500;-1.8600
1380.9960;-75.4400;-72.8900;-2.5500
1381.1950;-74.9700;-72.9500;-2.0200
1381.3940;-74.3600;-72.7500;-1.6100
1381.5930;-74.3100;-72.4600;-1.8500
1381.7920;-74.2200;-72.6100;-1.6100
1381.9910;-74.2600;-72.7200;-1.5400
1382.1900;-74.4400;-72.7500;-1.6900
1382.3890;-75.1600;-73.4100;-1.7500
1382.5890;-76.0500;-73.4600;-2.5900
1382.7880;-76.4700;-74.4200;-2.0500
1382.9870;-76.5400;-74.7300;-1.8100
1383.1860;-76.9300;-74.9500;-1.9800
1383.3850;-76.6000;-74.2800;-2.3200
1383.5840;-76.7300;-74.1500;-2.5800
1383.7830;-77.5200;-73.7600;-3.7600
1383.9820;-77.7200;-74.1100;-3.6100
1384.1810;-78.0900;-74.2600;-3.8300
1384.3810;-78.9700;-74.3000;-4.6700
1384.5800;-78.9800;-74.0300;-4.9500
1384.7790;-79.2900;-74.1000;-5.1900
1384.9780;-79.3200;-74.8900;-4.4300
1385.1770;-79.5900;-74.7000;-4.8900
1385.3760;-81.5300;-75.1300;-6.4000
1385.5750;-82.5000;-75.0800;-7.4200
1385.7740;-81.0200;-75.3000;-5.7200
1385.9740;-82.8500;-75.3000;-7.5500
1386.1730;-81.4700;-75.3000;-6.1700
1386.3720;-82.2300;-74.9700;-7.2600
1386.5710;-82.4300;-75.3200;-7.1100
1386.7700;-87.1400;-75.0900;-12.0500
1386.9690;-84.7600;-75.1400;-9.6200
1387.1680;-85.3700;-75.7600;-9.6100
1387.3670;-85.3700;-75.5900;-9.7800
1387.5660;-82.5000;-76.0100;-6.4900
1387.7660;-81.1100;-75.9100;-5.2000
1387.9650;-85.5100;-76.4800;-9.0300
1388.1640;-210.0000;-76.9800;-133.0200
1388.3630;-85.5100;-76.8100;-8.7000
1388.5620;-81.7500;-76.5500;-5.2000
1388.7610;-81.8100;-77.0200;-4.7900
1388.9600;-83.1600;-76.8100;-6.3500
1389.1590;-87.1400;-76.3100;-10.8300
1389.3580;-82.7800;-76.5800;-6.2000
1389.5580;-82.3600;-76.6900;-5.6700
1389.7570;-79.7000;-77.7000;-2.0000
1389.9560;-80.9200;-77.7000;-3.2200
1390.1550;-82.5000;-76.6900;-5.8100
1390.3540;-80.6500;-76.5600;-4.0900
1390.5530;-80.3500;-76.6500;-3.7000
1390.7520;-79.4500;-76.8900;-2.5600
1390.9510;-80.4700;-76.6500;-3.8200
1391.1500;-79.9900;-78.2300;-1.7600
1391.3500;-81.6900;-76.9400;-4.7500
1391.5490;-80.1600;-77.5600;-2.6000
1391.7480;-82.1800;-77.1100;-5.0700
1391.9470;-80.9800;-77.0300;-3.9500
1392.1460;-82.7200;-77.1800;-5.5400
1392.3450;-81.5400;-77.4700;-4.0700
1392.5440;-81.9400;-78.4200;-3.5200
1392.7430;-80.5300;-79.2700;-1.2600
1392.9430;-81.8800;-78.4700;-3.4100
1393.1420;-80.1600;-77.7100;-2.4500
1393.3410;-82.0000;-77.8300;-4.1700
1393.5400;-81.3300;-77.7400;-3.5900
1393.7390;-85.1300;-77.4900;-7.6400
1393.9380;-84.8900;-78.6400;-6.2500
1394.1370;-82.2400;-78.6700;-3.5700
1394.3360;-80.1600;-78.6900;-1.4700
1394.5350;-83.2500;-78.3200;-4.9300
1394.7350;-82.5100;-77.3900;-5.1200
1394.9340;-83.0100;-78.1600;-4.8500
1395.1330;-82.8600;-78.2600;-4.6000
1395.3320;-84.4400;-78.8400;-5.6000
1395.5310;-82.3100;-79.2300;-3.0800
1395.7300;-80.8800;-78.9900;-1.8900
1395.9290;-82.1200;-78.3200;-3.8000
1396.1280;-82.3700;-77.9700;-4.4000
1396.3270;-82.1200;-77.6200;-4.5000
1396.5270;-81.1700;-78.4200;-2.7500
1396.7260;-81.4300;-79.5000;-1.9300
1396.9250;-80.3200;-79.7100;-0.6100
1397.1240;-82.0000;-79.3600;-2.6400
1397.3230;-80.5700;-79.4300;-1.1400
1397.5220;-81.8800;-79.1700;-2.7100
1397.7210;-82.4400;-78.9900;-3.4500
1397.9200;-87.3500;-78.3900;-8.9600
1398.1200;-83.0100;-77.4300;-5.5800
1398.3190;-80.7500;-77.8700;-2.8800
1398.5180;-84.3500;-79.0000;-5.3500
1398.7170;-81.4400;-78.3800;-3.0600
1398.9160;-82.0100;-78.3500;-3.6600
1399.1150;-84.3500;-78.6500;-5.7000
1399.3140;-83.1000;-79.2100;-3.8900
1399.5130;-82.9500;-78.3800;-4.5700
1399.7120;-81.1300;-79.8600;-1.2700
1399.9120;-81.3400;-80.3300;-1.0100
1400.1110;-82.3800;-80.0100;-2.3700
1400.3100;-80.8500;-78.5400;-2.3100
1400.5090;-84.0500;-79.0000;-5.0500
1400.7080;-83.4200;-78.7000;-4.7200
1400.9070;-84.2400;-79.6100;-4.6300
1401.1060;-85.5300;-78.0300;-7.5000
1401.3050;-87.3600;-79.8600;-7.5000
1401.5040;-82.5200;-79.0600;-3.4600
1401.7040;-83.1000;-79.6800;-3.4200
1401.9030;-83.1800;-80.4100;-2.7700
1402.1020;-82.0100;-80.0900;-1.9200
1402.3010;-82.2500;-80.4900;-1.7600
1402.5000;-82.3800;-78.1500;-4.2300
1402.6990;-80.6700;-79.9000;-0.7700
1402.8980;-84.7800;-78.7600;-6.0200
1403.0970;-84.4500;-78.4800;-5.9700
1403.2970;-82.1900;-79.0300;-3.1600
1403.4960;-80.7100;-79.9300;-0.7800
1403.6950;-82.5200;-79.0000;-3.5200
1403.8940;-82.5200;-79.7200;-2.8000
1404.0930;-82.4500;-79.5100;-2.9400
1404.2920;-84.0500;-80.7100;-3.3400
1404.4910;-82.9500;-78.5400;-4.4100
1404.6900;-82.4500;-79.6500;-2.8000
1404.8890;-83.2600;-78.4800;-4.7800
1405.0890;-82.1300;-81.1800;-0.9500
1405.2880;-83.6800;-79.9000;-3.7800
1405.4870;-84.2400;-80.0500;-4.1900
1405.6860;-81.3400;-79.7200;-1.6200
1405.8850;-83.5900;-78.6500;-4.9400
1406.0840;-84.0500;-78.9700;-5.0800
1406.2830;-83.1800;-79.0600;-4.1200
1406.4820;-81.6000;-79.2100;-2.3900
1406.6810;-80.8600;-79.3500;-1.5100
1406.8810;-83.5100;-78.9200;-4.5900
1407.0800;-82.2600;-78.3600;-3.9000
1407.2790;-85.2700;-80.1000;-5.1700
1407.4780;-87.3700;-80.9500;-6.4200
1407.6770;-82.9600;-79.2500;-3.7100
1407.8760;-82.8100;-79.5200;-3.2900
1408.0750;-80.7700;-78.9500;-1.8200
1408.2740;-83.2700;-79.2500;-4.0200
1408.4740;-81.3500;-78.1300;-3.2200
1408.6730;-82.3900;-78.8300;-3.5600
1408.8720;-82.3900;-78.4400;-3.9500
1409.0710;-81.6700;-78.9200;-2.7500
1409.2700;-84.9100;-78.4400;-6.4700
1409.4690;-82.2600;-80.3800;-1.8800
1409.6680;-82.2600;-80.0200;-2.2400
1409.8670;-82.8100;-79.5200;-3.2900
1410.0660;-82.1400;-79.2200;-2.9200
1410.2660;-83.7800;-78.2600;-5.5200
1410.4650;-82.5300;-79.5200;-3.0100
1410.6640;-82.1400;-79.0100;-3.1300
1410.8630;-80.9500;-78.6900;-2.2600
1411.0620;-81.9000;-78.8000;-3.1000
1411.2610;-81.5600;-79.6600;-1.9000
1411.4600;-81.5000;-78.8000;-2.7000
1411.6590;-82.0800;-78.2600;-3.8200
1411.8580;-82.3300;-78.1300;-4.2000
1412.0580;-81.9600;-77.9600;-4.0000
1412.2570;-82.2000;-78.0900;-4.1100
1412.4560;-84.7900;-78.8600;-5.9300
1412.6550;-82.3900;-78.0400;-4.3500
1412.8540;-81.8400;-79.4800;-2.3600
1413.0530;-81.5000;-78.7100;-2.7900
1413.2520;-81.2400;-78.5500;-2.6900
1413.4510;-81.8400;-77.6700;-4.1700
1413.6500;-82.1500;-78.5000;-3.6500
1413.8500;-80.2300;-78.1700;-2.0600
1414.0490;-81.5700;-78.6700;-2.9000
1414.2480;-81.8500;-79.2600;-2.5900
1414.4470;-82.9700;-78.9900;-3.9800
1414.6460;-81.0600;-79.7400;-1.3200
1414.8450;-82.0300;-79.4600;-2.5700
1415.0440;-83.2000;-78.4500;-4.7500
1415.2430;-86.6200;-78.6700;-7.9500
1415.4430;-82.9700;-79.2300;-3.7400
1415.6420;-85.8300;-78.9000;-6.9300
1415.8410;-81.1500;-78.7200;-2.4300
1416.0400;-81.3600;-78.1400;-3.2200
1416.2390;-83.2800;-78.7200;-4.5600
1416.4380;-81.0600;-78.1900;-2.8700
1416.6370;-80.6000;-78.9000;-1.7000
1416.8360;-80.3500;-79.7000;-0.6500
1417.0350;-82.2100;-78.8400;-3.3700
1417.2350;-84.9200;-77.8800;-7.0400
1417.4340;-83.2800;-77.4600;-5.8200
1417.6330;-81.9100;-78.1200;-3.7900
1417.8320;-81.2500;-78.0000;-3.2500
1418.0310;-83.2800;-77.4200;-5.8600
1418.2300;-80.0300;-77.8100;-2.2200
1418.4290;-83.4400;-78.2400;-5.2000
1418.6280;-80.5600;-77.6800;-2.8800
1418.8270;-81.0600;-78.6100;-2.4500
1419.0270;-80.7300;-79.1400;-1.5900
1419.2260;-80.6000;-78.0500;-2.5500
1419.4250;-83.6100;-78.6700;-4.9400
1419.6240;-82.2700;-78.6100;-3.6600
1419.8230;-81.7900;-78.0500;-3.7400
1420.0220;-82.5400;-78.4500;-4.0900
1420.2210;-80.2300;-78.1000;-2.1300
1420.4200;-83.6100;-78.2400;-5.3700
1420.6200;-81.7300;-77.5500;-4.1800
1420.8190;-80.5600;-78.4800;-2.0800
1421.0180;-81.1500;-78.0200;-3.1300
1421.2170;-80.4700;-78.1000;-2.3700
1421.4160;-81.7900;-78.2200;-3.5700
1421.6150;-83.8000;-78.5700;-5.2300
1421.8140;-81.7400;-77.9400;-3.8000
1422.0130;-82.2200;-77.7800;-4.4400
1422.2120;-84.7000;-78.4600;-6.2400
1422.4120;-81.3700;-77.6900;-3.6800
1422.6110;-82.1000;-78.1500;-3.9500
1422.8100;-82.0400;-77.7100;-4.3300
1423.0090;-82.3500;-78.6200;-3.7300
1423.2080;-81.2600;-78.1100;-3.1500
1423.4070;-84.0800;-77.8700;-6.2100
1423.6060;-81.9800;-78.4600;-3.5200
1423.8050;-81.9200;-78.1100;-3.8100
1424.0040;-81.0700;-78.2000;-2.8700
1424.2040;-80.6100;-78.8200;-1.7900
1424.4030;-81.1200;-78.7900;-2.3300
1424.6020;-80.4400;-77.9600;-2.4800
1424.8010;-80.7900;-77.0900;-3.7000
1425.0000;-81.1600;-77.1900;-3.9700
