Wavelength;Intensity_Meas;Intensity_Ref;Difference_dB
1200.0000;-61.6300;-57.3300;-4.3000
1200.1990;-61.5300;-57.3100;-4.2200
1200.3980;-61.5000;-57.2900;-4.2100
1200.5970;-61.4600;-57.2600;-4.2000
1200.7970;-61.3900;-57.2100;-4.1800
1200.9960;-61.3100;-57.2000;-4.1100
1201.1950;-61.2500;-57.1800;-4.0700
1201.3940;-61.1700;-57.1100;-4.0600
1201.5930;-61.1600;-57.0700;-4.0900
1201.7920;-61.0800;-57.0200;-4.0600
1201.9910;-61.0300;-56.9800;-4.0500
1202.1900;-60.9700;-56.9500;-4.0200
1202.3890;-60.9200;-56.8700;-4.0500
1202.5890;-60.9200;-56.8000;-4.1200
1202.7880;-60.8200;-56.7800;-4.0400
1202.9870;-60.7800;-56.7300;-4.0500
1203.1860;-60.7500;-56.6800;-4.0700
1203.3850;-60.7200;-56.6000;-4.1200
1203.5840;-60.6900;-56.5700;-4.1200
1203.7830;-60.6600;-56.5400;-4.1200
1203.9820;-60.6700;-56.4900;-4.1800
1204.1810;-60.6600;-56.4500;-4.2100
1204.3810;-60.6600;-56.3900;-4.2700
1204.5800;-60.6400;-56.3900;-4.2500
1204.7790;-60.6700;-56.3700;-4.3000
1204.9780;-60.7100;-56.3100;-4.4000
1205.1770;-60.7400;-56.2800;-4.4600
1205.3760;-60.7400;-56.2700;-4.4700
1205.5750;-60.7900;-56.2500;-4.5400
1205.7740;-60.8400;-56.2300;-4.6100
1205.9740;-60.8800;-56.2100;-4.6700
1206.1730;-60.8600;-56.2000;-4.6600
1206.3720;-60.8600;-56.1800;-4.6800
1206.5710;-60.8800;-56.1600;-4.7200
1206.7700;-60.8600;-56.1400;-4.7200
1206.9690;-60.8100;-56.1000;-4.7100
1207.1680;-60.7400;-56.1000;-4.6400
1207.3670;-60.6900;-56.0800;-4.6100
1207.5660;-60.6700;-56.0200;-4.6500
1207.7660;-60.5800;-56.0100;-4.5700
1207.9650;-60.5100;-55.9800;-4.5300
1208.1640;-60.4500;-55.9400;-4.5100
1208.3630;-60.3900;-55.8900;-4.5000
1208.5620;-60.3200;-55.8600;-4.4600
1208.7610;-60.2100;-55.8300;-4.3800
1208.9600;-60.1600;-55.7800;-4.3800
1209.1590;-60.1100;-55.7300;-4.3800
1209.3580;-60.0400;-55.6600;-4.3800
1209.5580;-59.9600;-55.6200;-4.3400
1209.7570;-59.8900;-55.6000;-4.2900
1209.9560;-59.8600;-55.5300;-4.3300
1210.1550;-59.8000;-55.4600;-4.3400
1210.3540;-59.7400;-55.4200;-4.3200
1210.5530;-59.6800;-55.3900;-4.2900
1210.7520;-59.6200;-55.3400;-4.2800
1210.9510;-59.6000;-55.2800;-4.3200
1211.1500;-59.5500;-55.2400;-4.3100
1211.3500;-59.4700;-55.2000;-4.2700
1211.5490;-59.4600;-55.1800;-4.2800
1211.7480;-59.4400;-55.1500;-4.2900
1211.9470;-59.4000;-55.0800;-4.3200
1212.1460;-59.3500;-55.0700;-4.2800
1212.3450;-59.3500;-55.0500;-4.3000
1212.5440;-59.3800;-55.0100;-4.3700
1212.7430;-59.3400;-54.9800;-4.3600
1212.9430;-59.3100;-54.9500;-4.3600
1213.1420;-59.3200;-54.9200;-4.4000
1213.3410;-59.3300;-54.8900;-4.4400
1213.5400;-59.3200;-54.8700;-4.4500
1213.7390;-59.3000;-54.8500;-4.4500
1213.9380;-59.2700;-54.8000;-4.4700
1214.1370;-59.3100;-54.7900;-4.5200
1214.3360;-59.3000;-54.7300;-4.5700
1214.5350;-59.2700;-54.7000;-4.5700
1214.7350;-59.2400;-54.6800;-4.5600
1214.9340;-59.2500;-54.6300;-4.6200
1215.1330;-59.2400;-54.5800;-4.6600
1215.3320;-59.1800;-54.5300;-4.6500
1215.5310;-59.1600;-54.4900;-4.6700
1215.7300;-59.1400;-54.4500;-4.6900
1215.9290;-59.1100;-54.3900;-4.7200
1216.1280;-59.0700;-54.3300;-4.7400
1216.3270;-58.9900;-54.2600;-4.7300
1216.5270;-58.9900;-54.2300;-4.7600
1216.7260;-58.9600;-54.1800;-4.7800
1216.9250;-58.9000;-54.1000;-4.8000
1217.1240;-58.8200;-54.0500;-4.7700
1217.3230;-58.7900;-53.9900;-4.8000
1217.5220;-58.8100;-53.9400;-4.8700
1217.7210;-58.7400;-53.9000;-4.8400
1217.9200;-58.6700;-53.8400;-4.8300
1218.1200;-58.6600;-53.8000;-4.8600
1218.3190;-58.6500;-53.7500;-4.9000
1218.5180;-58.6100;-53.7100;-4.9000
1218.7170;-58.5400;-53.6600;-4.8800
1218.9160;-58.5100;-53.6300;-4.8800
1219.1150;-58.5100;-53.6100;-4.9000
1219.3140;-58.5000;-53.5500;-4.9500
1219.5130;-58.4600;-53.5300;-4.9300
1219.7120;-58.4000;-53.5100;-4.8900
1219.9120;-58.4000;-53.4600;-4.9400
1220.1110;-58.3800;-53.4300;-4.9500
1220.3100;-58.3100;-53.3900;-4.9200
1220.5090;-58.2600;-53.3500;-4.9100
1220.7080;-58.2400;-53.3300;-4.9100
1220.9070;-58.2100;-53.2800;-4.9300
1221.1060;-58.1400;-53.2200;-4.9200
1221.3050;-58.0500;-53.1900;-4.8600
1221.5040;-58.0300;-53.1400;-4.8900
1221.7040;-57.9700;-53.0800;-4.8900
1221.9030;-57.9000;-53.0300;-4.8700
1222.1020;-57.8100;-52.9700;-4.8400
1222.3010;-57.7600;-52.9100;-4.8500
1222.5000;-57.7100;-52.8400;-4.8700
1222.6990;-57.6300;-52.7900;-4.8400
1222.8980;-57.5500;-52.7100;-4.8400
1223.0970;-57.4900;-52.6500;-4.8400
1223.2970;-57.4500;-52.5800;-4.8700
1223.4960;-57.3800;-52.5000;-4.8800
1223.6950;-57.3000;-52.4500;-4.8500
1223.8940;-57.2900;-52.3800;-4.9100
1224.0930;-57.2600;-52.3100;-4.9500
1224.2920;-57.2000;-52.2400;-4.9600
1224.4910;-57.1300;-52.1800;-4.9500
1224.6900;-57.0900;-52.1300;-4.9600
1224.8890;-57.0400;-52.0500;-4.9900
1225.0890;-56.9600;-52.0100;-4.9500
1225.2880;-56.8600;-51.9300;-4.9300
1225.4870;-56.7800;-51.8700;-4.9100
1225.6860;-56.6800;-51.8400;-4.8400
1225.8850;-56.5500;-51.7800;-4.7700
1226.0840;-56.4000;-51.7300;-4.6700
1226.2830;-56.2800;-51.6800;-4.6000
1226.4820;-56.1500;-51.6200;-4.5300
1226.6810;-55.9900;-51.5900;-4.4000
1226.8810;-55.8200;-51.5400;-4.2800
1227.0800;-55.6400;-51.4800;-4.1600
1227.2790;-55.5400;-51.4400;-4.1000
1227.4780;-55.3800;-51.3800;-4.0000
1227.6770;-55.2500;-51.3400;-3.9100
1227.8760;-55.1500;-51.2700;-3.8800
1228.0750;-55.0500;-51.2200;-3.8300
1228.2740;-54.9400;-51.1500;-3.7900
1228.4740;-54.8600;-51.0800;-3.7800
1228.6730;-54.7800;-51.0300;-3.7500
1228.8720;-54.7300;-50.9500;-3.7800
1229.0710;-54.6800;-50.8900;-3.7900
1229.2700;-54.6300;-50.8100;-3.8200
1229.4690;-54.6100;-50.7200;-3.8900
1229.6680;-54.6000;-50.6700;-3.9300
1229.8670;-54.5800;-50.5700;-4.0100
1230.0660;-54.5900;-50.4900;-4.1000
1230.2660;-54.6100;-50.4100;-4.2000
1230.4650;-54.6500;-50.3300;-4.3200
1230.6640;-54.6700;-50.2600;-4.4100
1230.8630;-54.7400;-50.1800;-4.5600
1231.0620;-54.8300;-50.1100;-4.7200
1231.2610;-54.9100;-50.0500;-4.8600
1231.4600;-54.9700;-49.9800;-4.9900
1231.6590;-55.0300;-49.9300;-5.1000
1231.8580;-55.0800;-49.8500;-5.2300
1232.0580;-55.1200;-49.8100;-5.3100
1232.2570;-55.0900;-49.7400;-5.3500
1232.4560;-55.0500;-49.6800;-5.3700
1232.6550;-54.9700;-49.6400;-5.3300
1232.8540;-54.8400;-49.5700;-5.2700
1233.0530;-54.6900;-49.5300;-5.1600
1233.2520;-54.4900;-49.4600;-5.0300
1233.4510;-54.3000;-49.4100;-4.8900
1233.6500;-54.0700;-49.3700;-4.7000
1233.8500;-53.8300;-49.3000;-4.5300
1234.0490;-53.6200;-49.2500;-4.3700
1234.2480;-53.4000;-49.1800;-4.2200
1234.4470;-53.2100;-49.1200;-4.0900
1234.6460;-53.0000;-49.0600;-3.9400
1234.8450;-52.8500;-48.9900;-3.8600
1235.0440;-52.7100;-48.9300;-3.7800
1235.2430;-52.5800;-48.8400;-3.7400
1235.4430;-52.4800;-48.7600;-3.7200
1235.6420;-52.4000;-48.6900;-3.7100
1235.8410;-52.3300;-48.6000;-3.7300
1236.0400;-52.2800;-48.5300;-3.7500
1236.2390;-52.2300;-48.4200;-3.8100
1236.4380;-52.2200;-48.3300;-3.8900
1236.6370;-52.2200;-48.2500;-3.9700
1236.8360;-52.2000;-48.1500;-4.0500
1237.0350;-52.2000;-48.0800;-4.1200
1237.2350;-52.2200;-47.9900;-4.2300
1237.4340;-52.2400;-47.9000;-4.3400
1237.6330;-52.2400;-47.8100;-4.4300
1237.8320;-52.2500;-47.7400;-4.5100
1238.0310;-52.2600;-47.6600;-4.6000
1238.2300;-52.2500;-47.5700;-4.6800
1238.4290;-52.2300;-47.5000;-4.7300
1238.6280;-52.1800;-47.4200;-4.7600
1238.8270;-52.1400;-47.3400;-4.8000
1239.0270;-52.0600;-47.2700;-4.7900
1239.2260;-51.9600;-47.1800;-4.7800
1239.4250;-51.8600;-47.1100;-4.7500
1239.6240;-51.7500;-47.0300;-4.7200
1239.8230;-51.6200;-46.9400;-4.6800
1240.0220;-51.4700;-46.8700;-4.6000
1240.2210;-51.3500;-46.7700;-4.5800
1240.4200;-51.2300;-46.6900;-4.5400
1240.6200;-51.1000;-46.5900;-4.5100
1240.8190;-50.9800;-46.4900;-4.4900
1241.0180;-50.8700;-46.3800;-4.4900
1241.2170;-50.7800;-46.2700;-4.5100
1241.4160;-50.7000;-46.1700;-4.5300
1241.6150;-50.6100;-46.0300;-4.5800
1241.8140;-50.5800;-45.9100;-4.6700
1242.0130;-50.5200;-45.8000;-4.7200
1242.2120;-50.4700;-45.6900;-4.7800
1242.4120;-50.4500;-45.5600;-4.8900
1242.6110;-50.4100;-45.4200;-4.9900
1242.8100;-50.3800;-45.3100;-5.0700
1243.0090;-50.3200;-45.1700;-5.1500
1243.2080;-50.2900;-45.0500;-5.2400
1243.4070;-50.2600;-44.9200;-5.3400
1243.6060;-50.1800;-44.7900;-5.3900
1243.8050;-50.1300;-44.6800;-5.4500
1244.0040;-50.0600;-44.5400;-5.5200
1244.2040;-49.9900;-44.4100;-5.5800
1244.4030;-49.9300;-44.2900;-5.6400
1244.6020;-49.8500;-44.1600;-5.6900
1244.8010;-49.8000;-44.0500;-5.7500
1245.0000;-49.7300;-43.9100;-5.8200
1245.1990;-49.6800;-43.7900;-5.8900
1245.3980;-49.6600;-43.6700;-5.9900
1245.5970;-49.6200;-43.5300;-6.0900
1245.7970;-49.6000;-43.4100;-6.1900
1245.9960;-49.5600;-43.2600;-6.3000
1246.1950;-49.5400;-43.1400;-6.4000
1246.3940;-49.5200;-43.0000;-6.5200
1246.5930;-49.4500;-42.8500;-6.6000
1246.7920;-49.3900;-42.7300;-6.6600
1246.9910;-49.2600;-42.5600;-6.7000
1247.1900;-49.1000;-42.4200;-6.6800
1247.3890;-48.9000;-42.2700;-6.6300
1247.5890;-48.6400;-42.1100;-6.5300
1247.7880;-48.3400;-41.9700;-6.3700
1247.9870;-47.9600;-41.8000;-6.1600
1248.1860;-47.5600;-41.6500;-5.9100
1248.3850;-47.1500;-41.5000;-5.6500
1248.5840;-46.6800;-41.3300;-5.3500
1248.7830;-46.2300;-41.1800;-5.0500
1248.9820;-45.6900;-41.0200;-4.6700
1249.1810;-45.3400;-40.8700;-4.4700
1249.3810;-44.8900;-40.7200;-4.1700
1249.5800;-44.4700;-40.5600;-3.9100
1249.7790;-44.0800;-40.4200;-3.6600
1249.9780;-43.6900;-40.2500;-3.4400
1250.1770;-43.3500;-40.1100;-3.2400
1250.3760;-43.0200;-39.9700;-3.0500
1250.5750;-42.7000;-39.8100;-2.8900
1250.7740;-42.4200;-39.6700;-2.7500
1250.9740;-42.1600;-39.5200;-2.6400
1251.1730;-41.9300;-39.3800;-2.5500
1251.3720;-41.6900;-39.2300;-2.4600
1251.5710;-41.4900;-39.0900;-2.4000
1251.7700;-41.2900;-38.9500;-2.3400
1251.9690;-41.1000;-38.7900;-2.3100
1252.1680;-40.9300;-38.6400;-2.2900
1252.3670;-40.7500;-38.4700;-2.2800
1252.5660;-40.6000;-38.3200;-2.2800
1252.7660;-40.4200;-38.1700;-2.2500
1252.9650;-40.2600;-38.0100;-2.2500
1253.1640;-40.1100;-37.8500;-2.2600
1253.3630;-39.9300;-37.6800;-2.2500
1253.5620;-39.7600;-37.5200;-2.2400
1253.7610;-39.5800;-37.3500;-2.2300
1253.9600;-39.4000;-37.1900;-2.2100
1254.1590;-39.2300;-37.0300;-2.2000
1254.3580;-39.0200;-36.8500;-2.1700
1254.5580;-38.8500;-36.7000;-2.1500
1254.7570;-38.6400;-36.5400;-2.1000
1254.9560;-38.4400;-36.3700;-2.0700
1255.1550;-38.2600;-36.2300;-2.0300
1255.3540;-38.0600;-36.0600;-2.0000
1255.5530;-37.8800;-35.9200;-1.9600
1255.7520;-37.6700;-35.7400;-1.9300
1255.9510;-37.4800;-35.6300;-1.8500
1256.1500;-37.3100;-35.4900;-1.8200
1256.3500;-37.1100;-35.3400;-1.7700
1256.5490;-36.9500;-35.2200;-1.7300
1256.7480;-36.7600;-35.0700;-1.6900
1256.9470;-36.5800;-34.9400;-1.6400
1257.1460;-36.4000;-34.8000;-1.6000
1257.3450;-36.2200;-34.6600;-1.5600
1257.5440;-36.0600;-34.5400;-1.5200
1257.7430;-35.8400;-34.3900;-1.4500
1257.9430;-35.7000;-34.2500;-1.4500
1258.1420;-35.5200;-34.1200;-1.4000
1258.3410;-35.3400;-33.9700;-1.3700
1258.5400;-35.1700;-33.8400;-1.3300
1258.7390;-34.9900;-33.6800;-1.3100
1258.9380;-34.8200;-33.5400;-1.2800
1259.1370;-34.6400;-33.3900;-1.2500
1259.3360;-34.4600;-33.2400;-1.2200
1259.5350;-34.3000;-33.1000;-1.2000
1259.7350;-34.1200;-32.9400;-1.1800
1259.9340;-33.9500;-32.8000;-1.1500
1260.1330;-33.7900;-32.6500;-1.1400
1260.3320;-33.6200;-32.4900;-1.1300
1260.5310;-33.4700;-32.3600;-1.1100
1260.7300;-33.3100;-32.2000;-1.1100
1260.9290;-33.1600;-32.0700;-1.0900
1261.1280;-33.0000;-31.9200;-1.0800
1261.3270;-32.8600;-31.7700;-1.0900
1261.5270;-32.7200;-31.6500;-1.0700
1261.7260;-32.5700;-31.5100;-1.0600
1261.9250;-32.4400;-31.3800;-1.0600
1262.1240;-32.2900;-31.2400;-1.0500
1262.3230;-32.1500;-31.1100;-1.0400
1262.5220;-32.0200;-31.0000;-1.0200
1262.7210;-31.8800;-30.8600;-1.0200
1262.9200;-31.7500;-30.7400;-1.0100
1263.1200;-31.6000;-30.6000;-1.0000
1263.3190;-31.4600;-30.4700;-0.9900
1263.5180;-31.3300;-30.3600;-0.9700
1263.7170;-31.1800;-30.2100;-0.9700
1263.9160;-31.0500;-30.0900;-0.9600
1264.1150;-30.9000;-29.9500;-0.9500
1264.3140;-30.7600;-29.8100;-0.9500
1264.5130;-30.6200;-29.6900;-0.9300
1264.7120;-30.4800;-29.5500;-0.9300
1264.9120;-30.3500;-29.4200;-0.9300
1265.1110;-30.2000;-29.2700;-0.9300
1265.3100;-30.0700;-29.1400;-0.9300
1265.5090;-29.9400;-29.0100;-0.9300
1265.7080;-29.8000;-28.8700;-0.9300
1265.9070;-29.6800;-28.7500;-0.9300
1266.1060;-29.5500;-28.6100;-0.9400
1266.3050;-29.4300;-28.4800;-0.9500
1266.5040;-29.3200;-28.3700;-0.9500
1266.7040;-29.2000;-28.2400;-0.9600
1266.9030;-29.1000;-28.1200;-0.9800
1267.1020;-28.9800;-27.9900;-0.9900
1267.3010;-28.8900;-27.8700;-1.0200
1267.5000;-28.7900;-27.7700;-1.0200
1267.6990;-28.7000;-27.6500;-1.0500
1267.8980;-28.6200;-27.5500;-1.0700
1268.0970;-28.5300;-27.4300;-1.1000
1268.2970;-28.4600;-27.3200;-1.1400
1268.4960;-28.3900;-27.2200;-1.1700
1268.6950;-28.3200;-27.1000;-1.2200
1268.8940;-28.2700;-27.0000;-1.2700
1269.0930;-28.2100;-26.8800;-1.3300
1269.2920;-28.1800;-26.7700;-1.4100
1269.4910;-28.1600;-26.6600;-1.5000
1269.6900;-28.1500;-26.5400;-1.6100
1269.8890;-28.1600;-26.4400;-1.7200
1270.0890;-28.1800;-26.3100;-1.8700
1270.2880;-28.2400;-26.2000;-2.0400
1270.4870;-28.3100;-26.0700;-2.2400
1270.6860;-28.4200;-25.9700;-2.4500
1270.8850;-28.5600;-25.8500;-2.7100
1271.0840;-28.7300;-25.7300;-3.0000
1271.2830;-28.9500;-25.6300;-3.3200
1271.4820;-29.2000;-25.5000;-3.7000
1271.6810;-29.5100;-25.3900;-4.1200
1271.8810;-29.8900;-25.2800;-4.6100
1272.0800;-30.3200;-25.1700;-5.1500
1272.2790;-30.8400;-25.0600;-5.7800
1272.4780;-31.4100;-24.9500;-6.4600
1272.6770;-32.1000;-24.8500;-7.2500
1272.8760;-32.8700;-24.7400;-8.1300
1273.0750;-33.7800;-24.6500;-9.1300
1273.2740;-34.8200;-24.5600;-10.2600
1273.4740;-35.9800;-24.4500;-11.5300
1273.6730;-37.2700;-24.3700;-12.9000
1273.8720;-38.8300;-24.2700;-14.5600
1274.0710;-39.6800;-24.1800;-15.5000
1274.2700;-40.1300;-24.0900;-16.0400
1274.4690;-39.7000;-23.9900;-15.7100
1274.6680;-38.5600;-23.9100;-14.6500
1274.8670;-37.1000;-23.8100;-13.2900
1275.0660;-35.4200;-23.7200;-11.7000
1275.2660;-34.2800;-23.6400;-10.6400
1275.4650;-33.0900;-23.5400;-9.5500
1275.6640;-32.0000;-23.4600;-8.5400
1275.8630;-31.0500;-23.3600;-7.6900
1276.0620;-30.2000;-23.2700;-6.9300
1276.2610;-29.4500;-23.1800;-6.2700
1276.4600;-28.8100;-23.0900;-5.7200
1276.6590;-28.2200;-23.0000;-5.2200
1276.8580;-27.7200;-22.9000;-4.8200
1277.0580;-27.2800;-22.8200;-4.4600
1277.2570;-26.9000;-22.7300;-4.1700
1277.4560;-26.6000;-22.6400;-3.9600
1277.6550;-26.3200;-22.5700;-3.7500
1277.8540;-26.0800;-22.4700;-3.6100
1278.0530;-25.9300;-22.4000;-3.5300
1278.2520;-25.8100;-22.3100;-3.5000
1278.4510;-25.7200;-22.2300;-3.4900
1278.6500;-25.6600;-22.1600;-3.5000
1278.8500;-25.6500;-22.0700;-3.5800
1279.0490;-25.6600;-22.0000;-3.6600
1279.2480;-25.7200;-21.9200;-3.8000
1279.4470;-25.7800;-21.8400;-3.9400
1279.6460;-25.8800;-21.7700;-4.1100
1279.8450;-26.0200;-21.6800;-4.3400
1280.0440;-26.1600;-21.6200;-4.5400
1280.2430;-26.3400;-21.5400;-4.8000
1280.4430;-26.5100;-21.4600;-5.0500
1280.6420;-26.7100;-21.3900;-5.3200
1280.8410;-26.9200;-21.3100;-5.6100
1281.0400;-27.1400;-21.2400;-5.9000
1281.2390;-27.3800;-21.1600;-6.2200
1281.4380;-27.6100;-21.0800;-6.5300
1281.6370;-27.8500;-21.0100;-6.8400
1281.8360;-28.1000;-20.9300;-7.1700
1282.0350;-28.4100;-20.8700;-7.5400
1282.2350;-28.6300;-20.7800;-7.8500
1282.4340;-28.8900;-20.7100;-8.1800
1282.6330;-29.1900;-20.6500;-8.5400
1282.8320;-29.4800;-20.5800;-8.9000
1283.0310;-29.8000;-20.5200;-9.2800
1283.2300;-30.1300;-20.4500;-9.6800
1283.4290;-30.4900;-20.3900;-10.1000
1283.6280;-30.8900;-20.3200;-10.5700
1283.8270;-31.3000;-20.2600;-11.0400
1284.0270;-31.7600;-20.2100;-11.5500
1284.2260;-32.2200;-20.1400;-12.0800
1284.4250;-32.7100;-20.0900;-12.6200
1284.6240;-33.2000;-20.0300;-13.1700
1284.8230;-33.6500;-19.9700;-13.6800
1285.0220;-34.0500;-19.9300;-14.1200
1285.2210;-34.3400;-19.8600;-14.4800
1285.4200;-34.4700;-19.8100;-14.6600
1285.6200;-34.4100;-19.7500;-14.6600
1285.8190;-34.1300;-19.6900;-14.4400
1286.0180;-33.6700;-19.6500;-14.0200
1286.2170;-33.0500;-19.5800;-13.4700
1286.4160;-32.3500;-19.5400;-12.8100
1286.6150;-31.6200;-19.4900;-12.1300
1286.8140;-30.8500;-19.4300;-11.4200
1287.0130;-30.1000;-19.3900;-10.7100
1287.2120;-29.3600;-19.3300;-10.0300
1287.4120;-28.6600;-19.2900;-9.3700
1287.6110;-28.0000;-19.2300;-8.7700
1287.8100;-27.3700;-19.1800;-8.1900
1288.0090;-26.7900;-19.1400;-7.6500
1288.2080;-26.2300;-19.0800;-7.1500
1288.4070;-25.6400;-19.0500;-6.5900
1288.6060;-25.2300;-19.0000;-6.2300
1288.8050;-24.7900;-18.9600;-5.8300
1289.0040;-24.3500;-18.9200;-5.4300
1289.2040;-23.9500;-18.8700;-5.0800
1289.4030;-23.5800;-18.8500;-4.7300
1289.6020;-23.2100;-18.8000;-4.4100
1289.8010;-22.8800;-18.7600;-4.1200
1290.0000;-22.5600;-18.7200;-3.8400
1290.1990;-22.2600;-18.6800;-3.5800
1290.3980;-21.9900;-18.6600;-3.3300
1290.5970;-21.7100;-18.6200;-3.0900
1290.7970;-21.4600;-18.5900;-2.8700
1290.9960;-21.2000;-18.5300;-2.6700
1291.1950;-20.9700;-18.5000;-2.4700
1291.3940;-20.7700;-18.4700;-2.3000
1291.5930;-20.5500;-18.4100;-2.1400
1291.7920;-20.3800;-18.3900;-1.9900
1291.9910;-20.2000;-18.3400;-1.8600
1292.1900;-20.0500;-18.3100;-1.7400
1292.3890;-19.9200;-18.2700;-1.6500
1292.5890;-19.7900;-18.2200;-1.5700
1292.7880;-19.6900;-18.2000;-1.4900
1292.9870;-19.5900;-18.1500;-1.4400
1293.1860;-19.5300;-18.1300;-1.4000
1293.3850;-19.4700;-18.0900;-1.3800
1293.5840;-19.4200;-18.0500;-1.3700
1293.7830;-19.4100;-18.0200;-1.3900
1293.9820;-19.4000;-17.9900;-1.4100
1294.1810;-19.4200;-17.9700;-1.4500
1294.3810;-19.4500;-17.9300;-1.5200
1294.5800;-19.4900;-17.8900;-1.6000
1294.7790;-19.5800;-17.8700;-1.7100
1294.9780;-19.6700;-17.8400;-1.8300
1295.1770;-19.8000;-17.8200;-1.9800
1295.3760;-19.9300;-17.7900;-2.1400
1295.5750;-20.0800;-17.7600;-2.3200
1295.7740;-20.2800;-17.7300;-2.5500
1295.9740;-20.4800;-17.6900;-2.7900
1296.1730;-20.7400;-17.6800;-3.0600
1296.3720;-21.0000;-17.6500;-3.3500
1296.5710;-21.2900;-17.6300;-3.6600
1296.7700;-21.6200;-17.6000;-4.0200
1296.9690;-21.9800;-17.5800;-4.4000
1297.1680;-22.3900;-17.5700;-4.8200
1297.3670;-22.8200;-17.5500;-5.2700
1297.5660;-23.3000;-17.5300;-5.7700
1297.7660;-23.8300;-17.5100;-6.3200
1297.9650;-24.4100;-17.4900;-6.9200
1298.1640;-25.0700;-17.4800;-7.5900
1298.3630;-25.7600;-17.4700;-8.2900
1298.5620;-26.5400;-17.4600;-9.0800
1298.7610;-27.3900;-17.4400;-9.9500
1298.9600;-28.5300;-17.4400;-11.0900
1299.1590;-29.3800;-17.4300;-11.9500
1299.3580;-30.4700;-17.4200;-13.0500
1299.5580;-31.6200;-17.4200;-14.2000
1299.7570;-32.7200;-17.4100;-15.3100
1299.9560;-33.6300;-17.4100;-16.2200
1300.1550;-34.1100;-17.4000;-16.7100
1300.3540;-33.9900;-17.4000;-16.5900
1300.5530;-33.3400;-17.4000;-15.9400
1300.7520;-32.3500;-17.3900;-14.9600
1300.9510;-31.2400;-17.4000;-13.8400
1301.1500;-30.1500;-17.4000;-12.7500
1301.3500;-29.1000;-17.4000;-11.7000
1301.5490;-28.1600;-17.4100;-10.7500
1301.7480;-27.2800;-17.4100;-9.8700
1301.9470;-26.4800;-17.4200;-9.0600
1302.1460;-25.6600;-17.4200;-8.2400
1302.3450;-25.1300;-17.4300;-7.7000
1302.5440;-24.5600;-17.4300;-7.1300
1302.7430;-24.0200;-17.4300;-6.5900
1302.9430;-23.5600;-17.4400;-6.1200
1303.1420;-23.1300;-17.4400;-5.6900
1303.3410;-22.7400;-17.4600;-5.2800
1303.5400;-22.3900;-17.4600;-4.9300
1303.7390;-22.0800;-17.4600;-4.6200
1303.9380;-21.8100;-17.4700;-4.3400
1304.1370;-21.5600;-17.4800;-4.0800
1304.3360;-21.3500;-17.5000;-3.8500
1304.5350;-21.1700;-17.5000;-3.6700
1304.7350;-21.0100;-17.5100;-3.5000
1304.9340;-20.8800;-17.5200;-3.3600
1305.1330;-20.7800;-17.5300;-3.2500
1305.3320;-20.7100;-17.5500;-3.1600
1305.5310;-20.6500;-17.5600;-3.0900
1305.7300;-20.6200;-17.5800;-3.0400
1305.9290;-20.6200;-17.5800;-3.0400
1306.1280;-20.6400;-17.6000;-3.0400
1306.3270;-20.6900;-17.6100;-3.0800
1306.5270;-20.7500;-17.6300;-3.1200
1306.7260;-20.8400;-17.6500;-3.1900
1306.9250;-20.9500;-17.6500;-3.3000
1307.1240;-21.0900;-17.6800;-3.4100
1307.3230;-21.2600;-17.6900;-3.5700
1307.5220;-21.4500;-17.7100;-3.7400
1307.7210;-21.6600;-17.7400;-3.9200
1307.9200;-21.9000;-17.7500;-4.1500
1308.1200;-22.1700;-17.7900;-4.3800
1308.3190;-22.4800;-17.8000;-4.6800
1308.5180;-22.8000;-17.8400;-4.9600
1308.7170;-23.1700;-17.8800;-5.2900
1308.9160;-23.5500;-17.8900;-5.6600
1309.1150;-23.9800;-17.9400;-6.0400
1309.3140;-24.4500;-17.9600;-6.4900
1309.5130;-24.9500;-18.0100;-6.9400
1309.7120;-25.4900;-18.0500;-7.4400
1309.9120;-26.0400;-18.0700;-7.9700
1310.1110;-26.6600;-18.1300;-8.5300
1310.3100;-27.3000;-18.1600;-9.1400
1310.5090;-27.9900;-18.2100;-9.7800
1310.7080;-28.8700;-18.2500;-10.6200
1310.9070;-29.4700;-18.2900;-11.1800
1311.1060;-30.2400;-18.3500;-11.8900
1311.3050;-30.9600;-18.3800;-12.5800
1311.5040;-31.6500;-18.4500;-13.2000
1311.7040;-32.2000;-18.4800;-13.7200
1311.9030;-32.5800;-18.5300;-14.0500
1312.1020;-32.7500;-18.5800;-14.1700
1312.3010;-32.6900;-18.6300;-14.0600
1312.5000;-32.4500;-18.7000;-13.7500
1312.6990;-32.0300;-18.7400;-13.2900
1312.8980;-31.5200;-18.8000;-12.7200
1313.0970;-30.9700;-18.8500;-12.1200
1313.2970;-30.4000;-18.9000;-11.5000
1313.4960;-29.8700;-18.9800;-10.8900
1313.6950;-29.3300;-19.0300;-10.3000
1313.8940;-28.8400;-19.0900;-9.7500
1314.0930;-28.3900;-19.1400;-9.2500
1314.2920;-27.9800;-19.2000;-8.7800
1314.4910;-27.6300;-19.2700;-8.3600
1314.6900;-27.2800;-19.3200;-7.9600
1314.8890;-27.0000;-19.3800;-7.6200
1315.0890;-26.7300;-19.4300;-7.3000
1315.2880;-26.5100;-19.5000;-7.0100
1315.4870;-26.3400;-19.5500;-6.7900
1315.6860;-26.1400;-19.6100;-6.5300
1315.8850;-26.0500;-19.6700;-6.3800
1316.0840;-25.9500;-19.7300;-6.2200
1316.2830;-25.8800;-19.8000;-6.0800
1316.4820;-25.8400;-19.8500;-5.9900
1316.6810;-25.8200;-19.9200;-5.9000
1316.8810;-25.8300;-19.9800;-5.8500
1317.0800;-25.8600;-20.0500;-5.8100
1317.2790;-25.9300;-20.1200;-5.8100
1317.4780;-26.0000;-20.1900;-5.8100
1317.6770;-26.1000;-20.2600;-5.8400
1317.8760;-26.2100;-20.3200;-5.8900
1318.0750;-26.3400;-20.3900;-5.9500
1318.2740;-26.5100;-20.4600;-6.0500
1318.4740;-26.6800;-20.5300;-6.1500
1318.6730;-26.8900;-20.6200;-6.2700
1318.8720;-27.0800;-20.6800;-6.4000
1319.0710;-27.3100;-20.7800;-6.5300
1319.2700;-27.5500;-20.8500;-6.7000
1319.4690;-27.8000;-20.9300;-6.8700
1319.6680;-28.0800;-21.0200;-7.0600
1319.8670;-28.3300;-21.1000;-7.2300
1320.0660;-28.6700;-21.2000;-7.4700
1320.2660;-28.8800;-21.2800;-7.6000
1320.4650;-29.1400;-21.3700;-7.7700
1320.6640;-29.4100;-21.4700;-7.9400
1320.8630;-29.6400;-21.5600;-8.0800
1321.0620;-29.8700;-21.6600;-8.2100
1321.2610;-30.0500;-21.7500;-8.3000
1321.4600;-30.2200;-21.8600;-8.3600
1321.6590;-30.3400;-21.9500;-8.3900
1321.8580;-30.4200;-22.0500;-8.3700
1322.0580;-30.4800;-22.1600;-8.3200
1322.2570;-30.4900;-22.2600;-8.2300
1322.4560;-30.4700;-22.3700;-8.1000
1322.6550;-30.4100;-22.4700;-7.9400
1322.8540;-30.3200;-22.5900;-7.7300
1323.0530;-30.2200;-22.6900;-7.5300
1323.2520;-30.0900;-22.8100;-7.2800
1323.4510;-29.9700;-22.9200;-7.0500
1323.6500;-29.8100;-23.0300;-6.7800
1323.8500;-29.6700;-23.1600;-6.5100
1324.0490;-29.5300;-23.2700;-6.2600
1324.2480;-29.3800;-23.4000;-5.9800
1324.4470;-29.2500;-23.5100;-5.7400
1324.6460;-29.1200;-23.6300;-5.4900
1324.8450;-29.0100;-23.7600;-5.2500
1325.0440;-28.9000;-23.8700;-5.0300
1325.2430;-28.8100;-24.0100;-4.8000
1325.4430;-28.7400;-24.1200;-4.6200
1325.6420;-28.6700;-24.2600;-4.4100
1325.8410;-28.6300;-24.3900;-4.2400
1326.0400;-28.5900;-24.5200;-4.0700
1326.2390;-28.5700;-24.6500;-3.9200
1326.4380;-28.5600;-24.7800;-3.7800
1326.6370;-28.5600;-24.9100;-3.6500
1326.8360;-28.5900;-25.0400;-3.5500
1327.0350;-28.6100;-25.1800;-3.4300
1327.2350;-28.6600;-25.3200;-3.3400
1327.4340;-28.7200;-25.4500;-3.2700
1327.6330;-28.7900;-25.6000;-3.1900
1327.8320;-28.8900;-25.7200;-3.1700
1328.0310;-28.9800;-25.8700;-3.1100
1328.2300;-29.1000;-26.0100;-3.0900
1328.4290;-29.2200;-26.1500;-3.0700
1328.6280;-29.3600;-26.3000;-3.0600
1328.8270;-29.5200;-26.4400;-3.0800
1329.0270;-29.6800;-26.6000;-3.0800
1329.2260;-29.8600;-26.7300;-3.1300
1329.4250;-30.0400;-26.8900;-3.1500
1329.6240;-30.2500;-27.0300;-3.2200
1329.8230;-30.4700;-27.1700;-3.3000
1330.0220;-30.7100;-27.3300;-3.3800
1330.2210;-30.9700;-27.4700;-3.5000
1330.4200;-31.2300;-27.6300;-3.6000
1330.6200;-31.5200;-27.7700;-3.7500
1330.8190;-31.8400;-27.9200;-3.9200
1331.0180;-32.1700;-28.0700;-4.1000
1331.2170;-32.5400;-28.2300;-4.3100
1331.4160;-32.9100;-28.3900;-4.5200
1331.6150;-33.3300;-28.5700;-4.7600
1331.8140;-33.7500;-28.7100;-5.0400
1332.0130;-34.2100;-28.8500;-5.3600
1332.2120;-34.7100;-29.0200;-5.6900
1332.4120;-35.2400;-29.1700;-6.0700
1332.6110;-35.8200;-29.3400;-6.4800
1332.8100;-36.4000;-29.5000;-6.9000
1333.0090;-37.0500;-29.6600;-7.3900
1333.2080;-37.7200;-29.8300;-7.8900
1333.4070;-38.6100;-29.9800;-8.6300
1333.6060;-39.2500;-30.1500;-9.1000
1333.8050;-40.0900;-30.3100;-9.7800
1334.0040;-40.9900;-30.4700;-10.5200
1334.2040;-41.9300;-30.6500;-11.2800
1334.4030;-42.9200;-30.8100;-12.1100
1334.6020;-43.9200;-30.9800;-12.9400
1334.8010;-44.9000;-31.1500;-13.7500
1335.0000;-45.8000;-31.3200;-14.4800
1335.1990;-46.5300;-31.4900;-15.0400
1335.3980;-46.9900;-31.6600;-15.3300
1335.5970;-47.1100;-31.8500;-15.2600
1335.7970;-46.9500;-32.0200;-14.9300
1335.9960;-46.5400;-32.2100;-14.3300
1336.1950;-46.0000;-32.3800;-13.6200
1336.3940;-45.3900;-32.5600;-12.8300
1336.5930;-44.7700;-32.7400;-12.0300
1336.7920;-44.1900;-32.9100;-11.2800
1336.9910;-43.6400;-33.1000;-10.5400
1337.1900;-43.1700;-33.2800;-9.8900
1337.3890;-42.7500;-33.4700;-9.2800
1337.5890;-42.3900;-33.6500;-8.7400
1337.7880;-42.0800;-33.8300;-8.2500
1337.9870;-41.8200;-34.0300;-7.7900
1338.1860;-41.6000;-34.2000;-7.4000
1338.3850;-41.4300;-34.3900;-7.0400
1338.5840;-41.3000;-34.5700;-6.7300
1338.7830;-41.2300;-34.7500;-6.4800
1338.9820;-41.1700;-34.9500;-6.2200
1339.1810;-41.1700;-35.1300;-6.0400
1339.3810;-41.1700;-35.3200;-5.8500
1339.5800;-41.2200;-35.4900;-5.7300
1339.7790;-41.2900;-35.6800;-5.6100
1339.9780;-41.3800;-35.8700;-5.5100
1340.1770;-41.5100;-36.0500;-5.4600
1340.3760;-41.6400;-36.2600;-5.3800
1340.5750;-41.8000;-36.4400;-5.3600
1340.7740;-41.9500;-36.6300;-5.3200
1340.9740;-42.1100;-36.8100;-5.3000
1341.1730;-42.2900;-36.9900;-5.3000
1341.3720;-42.4600;-37.1800;-5.2800
1341.5710;-42.6300;-37.3700;-5.2600
1341.7700;-42.7900;-37.5600;-5.2300
1341.9690;-42.9500;-37.7300;-5.2200
1342.1680;-43.1000;-37.9300;-5.1700
1342.3670;-43.2400;-38.1100;-5.1300
1342.5660;-43.3700;-38.2900;-5.0800
1342.7660;-43.4800;-38.5300;-4.9500
1342.9650;-43.5800;-38.6900;-4.8900
1343.1640;-43.6700;-38.8900;-4.7800
1343.3630;-43.7500;-39.0700;-4.6800
1343.5620;-43.8200;-39.2600;-4.5600
1343.7610;-43.8800;-39.4500;-4.4300
1343.9600;-43.9500;-39.6500;-4.3000
1344.1590;-43.9900;-39.8600;-4.1300
1344.3580;-44.0400;-40.0500;-3.9900
1344.5580;-44.1000;-40.2500;-3.8500
1344.7570;-44.1400;-40.4400;-3.7000
1344.9560;-44.1900;-40.6300;-3.5600
1345.1550;-44.2200;-40.8200;-3.4000
1345.3540;-44.2700;-41.0000;-3.2700
1345.5530;-44.3300;-41.2000;-3.1300
1345.7520;-44.3900;-41.3800;-3.0100
1345.9510;-44.4700;-41.5800;-2.8900
1346.1500;-44.5400;-41.7800;-2.7600
1346.3500;-44.6300;-41.9700;-2.6600
1346.5490;-44.7300;-42.1900;-2.5400
1346.7480;-44.8100;-42.3700;-2.4400
1346.9470;-44.9100;-42.5600;-2.3500
1347.1460;-45.0100;-42.7500;-2.2600
1347.3450;-45.1200;-42.9200;-2.2000
1347.5440;-45.2700;-43.1600;-2.1100
1347.7430;-45.4400;-43.3900;-2.0500
1347.9430;-45.6100;-43.6200;-1.9900
1348.1420;-45.7400;-43.8000;-1.9400
1348.3410;-45.9000;-44.0000;-1.9000
1348.5400;-46.0100;-44.1600;-1.8500
1348.7390;-46.1700;-44.3400;-1.8300
1348.9380;-46.3100;-44.5200;-1.7900
1349.1370;-46.4700;-44.6800;-1.7900
1349.3360;-46.6300;-44.8500;-1.7800
1349.5350;-46.8000;-45.0200;-1.7800
1349.7350;-46.9800;-45.1900;-1.7900
1349.9340;-47.1700;-45.3800;-1.7900
1350.1330;-47.4000;-45.5800;-1.8200
1350.3320;-47.6900;-45.8400;-1.8500
1350.5310;-47.9200;-46.0500;-1.8700
1350.7300;-48.1500;-46.2300;-1.9200
1350.9290;-48.3400;-46.4000;-1.9400
1351.1280;-48.5500;-46.5200;-2.0300
1351.3270;-48.7400;-46.7000;-2.0400
1351.5270;-48.9900;-46.8700;-2.1200
1351.7260;-49.2700;-47.1200;-2.1500
1351.9250;-49.5300;-47.3100;-2.2200
1352.1240;-49.7800;-47.4900;-2.2900
1352.3230;-50.0200;-47.6800;-2.3400
1352.5220;-50.3000;-47.8800;-2.4200
1352.7210;-50.5100;-48.0500;-2.4600
1352.9200;-50.7400;-48.2000;-2.5400
1353.1200;-51.0700;-48.5500;-2.5200
1353.3190;-51.2500;-48.5900;-2.6600
1353.5180;-51.5100;-48.7700;-2.7400
1353.7170;-51.7700;-48.9500;-2.8200
1353.9160;-51.9500;-49.0600;-2.8900
1354.1150;-52.1800;-49.2200;-2.9600
1354.3140;-52.4900;-49.4500;-3.0400
1354.5130;-52.7700;-49.6500;-3.1200
1354.7120;-53.1700;-49.9600;-3.2100
1354.9120;-53.5600;-50.2500;-3.3100
1355.1110;-53.8400;-50.4400;-3.4000
1355.3100;-54.0900;-50.5700;-3.5200
1355.5090;-54.2000;-50.5900;-3.6100
1355.7080;-54.5600;-50.8500;-3.7100
1355.9070;-54.9500;-51.1300;-3.8200
1356.1060;-55.2400;-51.3000;-3.9400
1356.3050;-55.4700;-51.3900;-4.0800
1356.5040;-55.7200;-51.5200;-4.2000
1356.7040;-55.7500;-51.4300;-4.3200
1356.9030;-56.0200;-51.6000;-4.4200
1357.1020;-56.5200;-51.9700;-4.5500
1357.3010;-56.8800;-52.2100;-4.6700
1357.5000;-57.1800;-52.4000;-4.7800
1357.6990;-57.4800;-52.5900;-4.8900
1357.8980;-57.6400;-52.6600;-4.9800
1358.0970;-57.7900;-52.7300;-5.0600
1358.2970;-58.0400;-52.9200;-5.1200
1358.4960;-58.3400;-53.1500;-5.1900
1358.6950;-58.5900;-53.3000;-5.2900
1358.8940;-58.7300;-53.4700;-5.2600
1359.0930;-58.9300;-53.6300;-5.3000
1359.2920;-58.9600;-53.6900;-5.2700
1359.4910;-59.3400;-54.0700;-5.2700
1359.6900;-59.6000;-54.3800;-5.2200
1359.8890;-59.7400;-54.5800;-5.1600
1360.0890;-59.7700;-54.6600;-5.1100
1360.2880;-59.7300;-54.7100;-5.0200
1360.4870;-59.6500;-54.7000;-4.9500
1360.6860;-59.7200;-54.8900;-4.8300
1360.8850;-59.9900;-55.2300;-4.7600
1361.0840;-60.1700;-55.5400;-4.6300
1361.2830;-60.2100;-55.7200;-4.4900
1361.4820;-60.2900;-55.9000;-4.3900
1361.6810;-60.4300;-56.1400;-4.2900
1361.8810;-60.4600;-56.2800;-4.1800
1362.0800;-60.5500;-56.5200;-4.0300
1362.2790;-60.9000;-56.9500;-3.9500
1362.4780;-61.0300;-57.1900;-3.8400
1362.6770;-61.0400;-57.3600;-3.6800
1362.8760;-60.8300;-57.2600;-3.5700
1363.0750;-60.6900;-57.2300;-3.4600
1363.2740;-60.3600;-57.0100;-3.3500
1363.4740;-60.3500;-57.1000;-3.2500
1363.6730;-60.3600;-57.2000;-3.1600
1363.8720;-60.4500;-57.3700;-3.0800
1364.0710;-60.5800;-57.6000;-2.9800
1364.2700;-60.6800;-57.8100;-2.8700
1364.4690;-60.9600;-58.1500;-2.8100
1364.6680;-61.4100;-58.7300;-2.6800
1364.8670;-61.5500;-58.9500;-2.6000
1365.0660;-61.4400;-58.9300;-2.5100
1365.2660;-61.5700;-59.1400;-2.4300
1365.4650;-61.4700;-59.0900;-2.3800
1365.6640;-61.4900;-59.1700;-2.3200
1365.8630;-61.4900;-59.2500;-2.2400
1366.0620;-61.4400;-59.2700;-2.1700
1366.2610;-61.3900;-59.3000;-2.0900
1366.4600;-61.4300;-59.3800;-2.0500
1366.6590;-61.5900;-59.5700;-2.0200
1366.8580;-61.7800;-59.8400;-1.9400
1367.0580;-61.8800;-59.9800;-1.9000
1367.2570;-61.9700;-60.1200;-1.8500
1367.4560;-62.1900;-60.4100;-1.7800
1367.6550;-62.3600;-60.6300;-1.7300
1367.8540;-62.6400;-60.9300;-1.7100
1368.0530;-62.7200;-61.0900;-1.6300
1368.2520;-62.6900;-61.0900;-1.6000
1368.4510;-63.0500;-61.4300;-1.6200
1368.6500;-63.1400;-61.5800;-1.5600
1368.8500;-63.2300;-61.7000;-1.5300
1369.0490;-63.2200;-61.7400;-1.4800
1369.2480;-63.2200;-61.7400;-1.4800
1369.4470;-63.2200;-61.6700;-1.5500
1369.6460;-63.3500;-61.8400;-1.5100
1369.8450;-63.7300;-62.2100;-1.5200
1370.0440;-63.9700;-62.4200;-1.5500
1370.2430;-64.1600;-62.6000;-1.5600
1370.4430;-64.3200;-62.6800;-1.6400
1370.6420;-64.3800;-62.7500;-1.6300
1370.8410;-64.8000;-63.1200;-1.6800
1371.0400;-65.1900;-63.4200;-1.7700
1371.2390;-65.5300;-63.6400;-1.8900
1371.4380;-65.7400;-63.7700;-1.9700
1371.6370;-65.8100;-63.7600;-2.0500
1371.8360;-66.0000;-63.7400;-2.2600
1372.0350;-66.4800;-63.9900;-2.4900
1372.2350;-66.8700;-64.2600;-2.6100
1372.4340;-67.1900;-64.4200;-2.7700
1372.6330;-67.5700;-64.5300;-3.0400
1372.8320;-67.8700;-64.6600;-3.2100
1373.0310;-68.1700;-64.7000;-3.4700
1373.2300;-68.7800;-64.9000;-3.8800
1373.4290;-69.3300;-65.1500;-4.1800
1373.6280;-70.0300;-65.3400;-4.6900
1373.8270;-70.4100;-65.5100;-4.9000
1374.0270;-70.9700;-65.6200;-5.3500
1374.2260;-71.6000;-65.8200;-5.7800
1374.4250;-72.2900;-66.0600;-6.2300
1374.6240;-72.9800;-66.2300;-6.7500
1374.8230;-73.8200;-66.5400;-7.2800
1375.0220;-74.7800;-66.6900;-8.0900
1375.2210;-75.5700;-66.8700;-8.7000
1375.4200;-76.3700;-67.0300;-9.3400
1375.6200;-77.1200;-67.2300;-9.8900
1375.8190;-77.8900;-67.3400;-10.5500
1376.0180;-78.1800;-67.5500;-10.6300
1376.2170;-79.4700;-67.7200;-11.7500
1376.4160;-79.6100;-68.0100;-11.6000
1376.6150;-81.2600;-68.2900;-12.9700
1376.8140;-80.3000;-68.4400;-11.8600
1377.0130;-79.5800;-68.7600;-10.8200
1377.2120;-80.3800;-69.0800;-11.3000
1377.4120;-79.0300;-69.1500;-9.8800
1377.6110;-78.2400;-69.2500;-8.9900
1377.8100;-77.9500;-69.2800;-8.6700
1378.0090;-77.8500;-69.4300;-8.4200
1378.2080;-76.4700;-69.6300;-6.8400
1378.4070;-76.7100;-69.8500;-6.8600
1378.6060;-76.0500;-70.2800;-5.7700
1378.8050;-76.2000;-70.5400;-5.6600
1379.0040;-75.7800;-70.5900;-5.1900
1379.2040;-75.5900;-70.8700;-4.7200
1379.4030;-74.8700;-71.0200;-3.8500
1379.6020;-75.2300;-70.7300;-4.5000
1379.8010;-74.5700;-71.0400;-3.5300
1380.0000;-74.8000;-71.3100;-3.4900
1380.1990;-74.3200;-71.4500;-2.8700
1380.3980;-74.8400;-71.7300;-3.1100
1380.5970;-75.1100;-72.3200;-2.7900
1380.7970;-75.5000;-72.8500;-2.6500
1380.9960;-75.5000;-72.8900;-2.6100
1381.1950;-75.1800;-72.9500;-2.2300
1381.3940;-75.1300;-72.7500;-2.3800
1381.5930;-75.5800;-72.4600;-3.1200
1381.7920;-76.0500;-72.6100;-3.4400
1381.9910;-75.4800;-72.7200;-2.7600
1382.1900;-76.1100;-72.7500;-3.3600
1382.3890;-76.8600;-73.4100;-3.4500
1382.5890;-77.0300;-73.4600;-3.5700
1382.7880;-77.9200;-74.4200;-3.5000
1382.9870;-78.0500;-74.7300;-3.3200
1383.1860;-77.8800;-74.9500;-2.9300
1383.3850;-78.8500;-74.2800;-4.5700
1383.5840;-78.6700;-74.1500;-4.5200
1383.7830;-78.4000;-73.7600;-4.6400
1383.9820;-79.4800;-74.1100;-5.3700
1384.1810;-81.1000;-74.2600;-6.8400
1384.3810;-80.1400;-74.3000;-5.8400
1384.5800;-79.4200;-74.0300;-5.3900
1384.7790;-82.9300;-74.1000;-8.8300
1384.9780;-82.3000;-74.8900;-7.4100
1385.1770;-81.1100;-74.7000;-6.4100
1385.3760;-80.9200;-75.1300;-5.7900
1385.5750;-83.7500;-75.0800;-8.6700
1385.7740;-81.6900;-75.3000;-6.3900
1385.9740;-80.6000;-75.3000;-5.3000
1386.1730;-82.2300;-75.3000;-6.9300
1386.3720;-81.8100;-74.9700;-6.8400
1386.5710;-82.0500;-75.3200;-6.7300
1386.7700;-83.5700;-75.0900;-8.4800
1386.9690;-81.9900;-75.1400;-6.8500
1387.1680;-81.5300;-75.7600;-5.7700
1387.3670;-81.1100;-75.5900;-5.5200
1387.5660;-79.1600;-76.0100;-3.1500
1387.7660;-79.4200;-75.9100;-3.5100
1387.9650;-80.0700;-76.4800;-3.5900
1388.1640;-82.3600;-76.9800;-5.3800
1388.3630;-84.1200;-76.8100;-7.3100
1388.5620;-83.6600;-76.5500;-7.1100
1388.7610;-81.5300;-77.0200;-4.5100
1388.9600;-82.6400;-76.8100;-5.8300
1389.1590;-80.5600;-76.3100;-4.2500
1389.3580;-80.1500;-76.5800;-3.5700
1389.5580;-80.2700;-76.6900;-3.5800
1389.7570;-81.3200;-77.7000;-3.6200
1389.9560;-80.7400;-77.7000;-3.0400
1390.1550;-81.9900;-76.6900;-5.3000
1390.3540;-84.3300;-76.5600;-7.7700
1390.5530;-81.3200;-76.6500;-4.6700
1390.7520;-82.1100;-76.8900;-5.2200
1390.9510;-81.5300;-76.6500;-4.8800
1391.1500;-82.2300;-78.2300;-4.0000
1391.3500;-82.3600;-76.9400;-5.4200
1391.5490;-83.2500;-77.5600;-5.6900
1391.7480;-81.7000;-77.1100;-4.5900
1391.9470;-83.5800;-77.0300;-6.5500
1392.1460;-81.9400;-77.1800;-4.7600
1392.3450;-81.8800;-77.4700;-4.4100
1392.5440;-88.0200;-78.4200;-9.6000
1392.7430;-210.0000;-79.2700;-130.7300
1392.9430;-84.7700;-78.4700;-6.3000
1393.1420;-83.2500;-77.7100;-5.5400
1393.3410;-82.3100;-77.8300;-4.4800
1393.5400;-81.8800;-77.7400;-4.1400
1393.7390;-83.4900;-77.4900;-6.0000
1393.9380;-84.2300;-78.6400;-5.5900
1394.1370;-83.6700;-78.6700;-5.0000
1394.3360;-82.7200;-78.6900;-4.0300
1394.5350;-100.5700;-78.3200;-22.2500
1394.7350;-84.5500;-77.3900;-7.1600
1394.9340;-82.4400;-78.1600;-4.2800
1395.1330;-82.1200;-78.2600;-3.8600
1395.3320;-82.1200;-78.8400;-3.2800
1395.5310;-80.9300;-79.2300;-1.7000
1395.7300;-82.7900;-78.9900;-3.8000
1395.9290;-79.3600;-78.3200;-1.0400
1396.1280;-82.2400;-77.9700;-4.2700
1396.3270;-84.5500;-77.6200;-6.9300
1396.5270;-84.5500;-78.4200;-6.1300
1396.7260;-80.5700;-79.5000;-1.0700
1396.9250;-84.2300;-79.7100;-4.5200
1397.1240;-84.5500;-79.3600;-5.1900
1397.3230;-80.6600;-79.4300;-1.2300
1397.5220;-79.9200;-79.1700;-0.7500
1397.7210;-82.9400;-78.9900;-3.9500
1397.9200;-84.7700;-78.3900;-6.3800
1398.1200;-81.4800;-77.4300;-4.0500
1398.3190;-80.8400;-77.8700;-2.9700
1398.5180;-83.4200;-79.0000;-4.4200
1398.7170;-83.1000;-78.3800;-4.7200
1398.9160;-83.4200;-78.3500;-5.0700
1399.1150;-85.0200;-78.6500;-6.3700
1399.3140;-85.5300;-79.2100;-6.3200
1399.5130;-81.7100;-78.3800;-3.3300
1399.7120;-81.3400;-79.8600;-1.4800
1399.9120;-81.4900;-80.3300;-1.1600
1400.1110;-86.7800;-80.0100;-6.7700
1400.3100;-84.3500;-78.5400;-5.8100
1400.5090;-81.3900;-79.0000;-2.3900
1400.7080;-82.1300;-78.7000;-3.4300
1400.9070;-85.3900;-79.6100;-5.7800
1401.1060;-84.1400;-78.0300;-6.1100
1401.3050;-82.1300;-79.8600;-2.2700
1401.5040;-81.6600;-79.0600;-2.6000
1401.7040;-81.5500;-79.6800;-1.8700
1401.9030;-85.0200;-80.4100;-4.6100
1402.1020;-81.6600;-80.0900;-1.5700
1402.3010;-82.8700;-80.4900;-2.3800
1402.5000;-82.5200;-78.1500;-4.3700
1402.6990;-81.0900;-79.9000;-1.1900
1402.8980;-82.1900;-78.7600;-3.4300
1403.0970;-83.4200;-78.4800;-4.9400
1403.2970;-84.6700;-79.0300;-5.6400
1403.4960;-81.5500;-79.9300;-1.6200
1403.6950;-81.1300;-79.0000;-2.1300
1403.8940;-84.9000;-79.7200;-5.1800
1404.0930;-83.6800;-79.5100;-4.1700
1404.2920;-81.0900;-80.7100;-0.3800
1404.4910;-84.6700;-78.5400;-6.1300
1404.6900;-82.3200;-79.6500;-2.6700
1404.8890;-84.4500;-78.4800;-5.9700
1405.0890;-83.7700;-81.1800;-2.5900
1405.2880;-83.3400;-79.9000;-3.4400
1405.4870;-82.1900;-80.0500;-2.1400
1405.6860;-80.9400;-79.7200;-1.2200
1405.8850;-83.5900;-78.6500;-4.9400
1406.0840;-82.1300;-78.9700;-3.1600
1406.2830;-82.5200;-79.0600;-3.4600
1406.4820;-82.0100;-79.2100;-2.8000
1406.6810;-83.6900;-79.3500;-4.3400
1406.8810;-84.3600;-78.9200;-5.4400
1407.0800;-83.5100;-78.3600;-5.1500
1407.2790;-82.2600;-80.1000;-2.1600
1407.4780;-83.2700;-80.9500;-2.3200
1407.6770;-83.8700;-79.2500;-4.6200
1407.8760;-80.8600;-79.5200;-1.3400
1408.0750;-82.3900;-78.9500;-3.4400
1408.2740;-82.2600;-79.2500;-3.0100
1408.4740;-82.5300;-78.1300;-4.4000
1408.6730;-83.4300;-78.8300;-4.6000
1408.8720;-83.2700;-78.4400;-4.8300
1409.0710;-81.3000;-78.9200;-2.3800
1409.2700;-82.8100;-78.4400;-4.3700
1409.4690;-82.5300;-80.3800;-2.1500
1409.6680;-85.5400;-80.0200;-5.5200
1409.8670;-81.3000;-79.5200;-1.7800
1410.0660;-86.7900;-79.2200;-7.5700
1410.2660;-81.0500;-78.2600;-2.7900
1410.4650;-79.8000;-79.5200;-0.2800
1410.6640;-82.5300;-79.0100;-3.5200
1410.8630;-83.6000;-78.6900;-4.9100
1411.0620;-84.1500;-78.8000;-5.3500
1411.2610;-82.5300;-79.6600;-2.8700
1411.4600;-83.3500;-78.8000;-4.5500
1411.6590;-79.5200;-78.2600;-1.2600
1411.8580;-82.1400;-78.1300;-4.0100
1412.0580;-83.7800;-77.9600;-5.8200
1412.2570;-82.5300;-78.0900;-4.4400
1412.4560;-82.5300;-78.8600;-3.6700
1412.6550;-81.1400;-78.0400;-3.1000
1412.8540;-83.2700;-79.4800;-3.7900
1413.0530;-80.7700;-78.7100;-2.0600
1413.2520;-80.0200;-78.5500;-1.4700
1413.4510;-81.3000;-77.6700;-3.6300
1413.6500;-81.5700;-78.5000;-3.0700
1413.8500;-85.0400;-78.1700;-6.8700
1414.0490;-82.4000;-78.6700;-3.7300
1414.2480;-83.7900;-79.2600;-4.5300
1414.4470;-82.2700;-78.9900;-3.2800
1414.6460;-82.5400;-79.7400;-2.8000
1414.8450;-82.7500;-79.4600;-3.2900
1415.0440;-82.1500;-78.4500;-3.7000
1415.2430;-82.1500;-78.6700;-3.4800
1415.4430;-83.6100;-79.2300;-4.3800
1415.6420;-82.5400;-78.9000;-3.6400
1415.8410;-79.9200;-78.7200;-1.2000
1416.0400;-82.8200;-78.1400;-4.6800
1416.2390;-83.9700;-78.7200;-5.2500
1416.4380;-85.1600;-78.1900;-6.9700
1416.6370;-82.4000;-78.9000;-3.5000
1416.8360;-84.3700;-79.7000;-4.6700
1417.0350;-84.8000;-78.8400;-5.9600
1417.2350;-81.7300;-77.8800;-3.8500
1417.4340;-81.9100;-77.4600;-4.4500
1417.6330;-84.1600;-78.1200;-6.0400
1417.8320;-84.0700;-78.0000;-6.0700
1418.0310;-82.0300;-77.4200;-4.6100
1418.2300;-82.2100;-77.8100;-4.4000
1418.4290;-80.6900;-78.2400;-2.4500
1418.6280;-82.2700;-77.6800;-4.5900
1418.8270;-80.6000;-78.6100;-1.9900
1419.0270;-82.7500;-79.1400;-3.6100
1419.2260;-84.9200;-78.0500;-6.8700
1419.4250;-81.2500;-78.6700;-2.5800
1419.6240;-81.8500;-78.6100;-3.2400
1419.8230;-84.3700;-78.0500;-6.3200
1420.0220;-83.6100;-78.4500;-5.1600
1420.2210;-82.2700;-78.1000;-4.1700
1420.4200;-82.9700;-78.2400;-4.7300
1420.6200;-81.2500;-77.5500;-3.7000
1420.8190;-80.9100;-78.4800;-2.4300
1421.0180;-82.5400;-78.0200;-4.5200
1421.2170;-82.8200;-78.1000;-4.7200
1421.4160;-81.7900;-78.2200;-3.5700
1421.6150;-80.8300;-78.5700;-2.2600
1421.8140;-82.7600;-77.9400;-4.8200
1422.0130;-81.0200;-77.7800;-3.2400
1422.2120;-80.9700;-78.4600;-2.5100
1422.4120;-81.5800;-77.6900;-3.8900
1422.6110;-83.7100;-78.1500;-5.5600
1422.8100;-81.7400;-77.7100;-4.0300
1423.0090;-82.7600;-78.6200;-4.1400
1423.2080;-85.8400;-78.1100;-7.7300
1423.4070;-81.2600;-77.8700;-3.3900
1423.6060;-81.6900;-78.4600;-3.2300
1423.8050;-82.2800;-78.1100;-4.1700
1424.0040;-81.8000;-78.2000;-3.6000
1424.2040;-85.0500;-78.8200;-6.2300
1424.4030;-81.4200;-78.7900;-2.6300
1424.6020;-82.0400;-77.9600;-4.0800
1424.8010;-80.3600;-77.0900;-3.2700
1425.0000;-83.3700;-77.1900;-6.1800
