Wavelength;Intensity_Meas;Intensity_Ref;Difference_dB
1200.0000;-61.4400;-57.3300;-4.1100
1200.1990;-61.3500;-57.3100;-4.0400
1200.3980;-61.3100;-57.2900;-4.0200
1200.5970;-61.2600;-57.2600;-4.0000
1200.7970;-61.2300;-57.2100;-4.0200
1200.9960;-61.1600;-57.2000;-3.9600
1201.1950;-61.1000;-57.1800;-3.9200
1201.3940;-61.0300;-57.1100;-3.9200
1201.5930;-60.9900;-57.0700;-3.9200
1201.7920;-60.9500;-57.0200;-3.9300
1201.9910;-60.8900;-56.9800;-3.9100
1202.1900;-60.8500;-56.9500;-3.9000
1202.3890;-60.7800;-56.8700;-3.9100
1202.5890;-60.7600;-56.8000;-3.9600
1202.7880;-60.6900;-56.7800;-3.9100
1202.9870;-60.6700;-56.7300;-3.9400
1203.1860;-60.6500;-56.6800;-3.9700
1203.3850;-60.6200;-56.6000;-4.0200
1203.5840;-60.5800;-56.5700;-4.0100
1203.7830;-60.5700;-56.5400;-4.0300
1203.9820;-60.5700;-56.4900;-4.0800
1204.1810;-60.5700;-56.4500;-4.1200
1204.3810;-60.5400;-56.3900;-4.1500
1204.5800;-60.5200;-56.3900;-4.1300
1204.7790;-60.5800;-56.3700;-4.2100
1204.9780;-60.5900;-56.3100;-4.2800
1205.1770;-60.6000;-56.2800;-4.3200
1205.3760;-60.6200;-56.2700;-4.3500
1205.5750;-60.6600;-56.2500;-4.4100
1205.7740;-60.7000;-56.2300;-4.4700
1205.9740;-60.7000;-56.2100;-4.4900
1206.1730;-60.6700;-56.2000;-4.4700
1206.3720;-60.6800;-56.1800;-4.5000
1206.5710;-60.7100;-56.1600;-4.5500
1206.7700;-60.6800;-56.1400;-4.5400
1206.9690;-60.6300;-56.1000;-4.5300
1207.1680;-60.5800;-56.1000;-4.4800
1207.3670;-60.5700;-56.0800;-4.4900
1207.5660;-60.5200;-56.0200;-4.5000
1207.7660;-60.4500;-56.0100;-4.4400
1207.9650;-60.3500;-55.9800;-4.3700
1208.1640;-60.2700;-55.9400;-4.3300
1208.3630;-60.2400;-55.8900;-4.3500
1208.5620;-60.1600;-55.8600;-4.3000
1208.7610;-60.0600;-55.8300;-4.2300
1208.9600;-60.0000;-55.7800;-4.2200
1209.1590;-59.9300;-55.7300;-4.2000
1209.3580;-59.8700;-55.6600;-4.2100
1209.5580;-59.7600;-55.6200;-4.1400
1209.7570;-59.6900;-55.6000;-4.0900
1209.9560;-59.6500;-55.5300;-4.1200
1210.1550;-59.5800;-55.4600;-4.1200
1210.3540;-59.5000;-55.4200;-4.0800
1210.5530;-59.4500;-55.3900;-4.0600
1210.7520;-59.4100;-55.3400;-4.0700
1210.9510;-59.3700;-55.2800;-4.0900
1211.1500;-59.2700;-55.2400;-4.0300
1211.3500;-59.2200;-55.2000;-4.0200
1211.5490;-59.2000;-55.1800;-4.0200
1211.7480;-59.1700;-55.1500;-4.0200
1211.9470;-59.1200;-55.0800;-4.0400
1212.1460;-59.0600;-55.0700;-3.9900
1212.3450;-59.0600;-55.0500;-4.0100
1212.5440;-59.0700;-55.0100;-4.0600
1212.7430;-59.0400;-54.9800;-4.0600
1212.9430;-58.9900;-54.9500;-4.0400
1213.1420;-58.9700;-54.9200;-4.0500
1213.3410;-59.0200;-54.8900;-4.1300
1213.5400;-59.0000;-54.8700;-4.1300
1213.7390;-58.9700;-54.8500;-4.1200
1213.9380;-58.9500;-54.8000;-4.1500
1214.1370;-58.9800;-54.7900;-4.1900
1214.3360;-58.9900;-54.7300;-4.2600
1214.5350;-58.9600;-54.7000;-4.2600
1214.7350;-58.9400;-54.6800;-4.2600
1214.9340;-58.9600;-54.6300;-4.3300
1215.1330;-58.9500;-54.5800;-4.3700
1215.3320;-58.9000;-54.5300;-4.3700
1215.5310;-58.8600;-54.4900;-4.3700
1215.7300;-58.8800;-54.4500;-4.4300
1215.9290;-58.8600;-54.3900;-4.4700
1216.1280;-58.8000;-54.3300;-4.4700
1216.3270;-58.7600;-54.2600;-4.5000
1216.5270;-58.7600;-54.2300;-4.5300
1216.7260;-58.7500;-54.1800;-4.5700
1216.9250;-58.7100;-54.1000;-4.6100
1217.1240;-58.6400;-54.0500;-4.5900
1217.3230;-58.6200;-53.9900;-4.6300
1217.5220;-58.6200;-53.9400;-4.6800
1217.7210;-58.6000;-53.9000;-4.7000
1217.9200;-58.5300;-53.8400;-4.6900
1218.1200;-58.5200;-53.8000;-4.7200
1218.3190;-58.5400;-53.7500;-4.7900
1218.5180;-58.5000;-53.7100;-4.7900
1218.7170;-58.4500;-53.6600;-4.7900
1218.9160;-58.4400;-53.6300;-4.8100
1219.1150;-58.4400;-53.6100;-4.8300
1219.3140;-58.4300;-53.5500;-4.8800
1219.5130;-58.3800;-53.5300;-4.8500
1219.7120;-58.3700;-53.5100;-4.8600
1219.9120;-58.3600;-53.4600;-4.9000
1220.1110;-58.3400;-53.4300;-4.9100
1220.3100;-58.3000;-53.3900;-4.9100
1220.5090;-58.2500;-53.3500;-4.9000
1220.7080;-58.2500;-53.3300;-4.9200
1220.9070;-58.2200;-53.2800;-4.9400
1221.1060;-58.1200;-53.2200;-4.9000
1221.3050;-58.0800;-53.1900;-4.8900
1221.5040;-58.0500;-53.1400;-4.9100
1221.7040;-58.0100;-53.0800;-4.9300
1221.9030;-57.9300;-53.0300;-4.9000
1222.1020;-57.8400;-52.9700;-4.8700
1222.3010;-57.8000;-52.9100;-4.8900
1222.5000;-57.7400;-52.8400;-4.9000
1222.6990;-57.6600;-52.7900;-4.8700
1222.8980;-57.5700;-52.7100;-4.8600
1223.0970;-57.5100;-52.6500;-4.8600
1223.2970;-57.4800;-52.5800;-4.9000
1223.4960;-57.3700;-52.5000;-4.8700
1223.6950;-57.2900;-52.4500;-4.8400
1223.8940;-57.2400;-52.3800;-4.8600
1224.0930;-57.1700;-52.3100;-4.8600
1224.2920;-57.0800;-52.2400;-4.8400
1224.4910;-56.9600;-52.1800;-4.7800
1224.6900;-56.9100;-52.1300;-4.7800
1224.8890;-56.7900;-52.0500;-4.7400
1225.0890;-56.6700;-52.0100;-4.6600
1225.2880;-56.5400;-51.9300;-4.6100
1225.4870;-56.4000;-51.8700;-4.5300
1225.6860;-56.2900;-51.8400;-4.4500
1225.8850;-56.1200;-51.7800;-4.3400
1226.0840;-55.9400;-51.7300;-4.2100
1226.2830;-55.7700;-51.6800;-4.0900
1226.4820;-55.6300;-51.6200;-4.0100
1226.6810;-55.4800;-51.5900;-3.8900
1226.8810;-55.3100;-51.5400;-3.7700
1227.0800;-55.1800;-51.4800;-3.7000
1227.2790;-55.0700;-51.4400;-3.6300
1232.8540;-54.8100;-49.5700;-5.2400
1233.0530;-54.7300;-49.5300;-5.2000
1233.2520;-54.6500;-49.4600;-5.1900
1233.4510;-54.5800;-49.4100;-5.1700
1233.6500;-54.5100;-49.3700;-5.1400
1233.8500;-54.5000;-49.3000;-5.2000
1234.0490;-54.4800;-49.2500;-5.2300
1234.2480;-54.4400;-49.1800;-5.2600
1234.4470;-54.4500;-49.1200;-5.3300
1234.6460;-54.4600;-49.0600;-5.4000
1234.8450;-54.4900;-48.9900;-5.5000
1235.0440;-54.4900;-48.9300;-5.5600
1235.2430;-54.5300;-48.8400;-5.6900
1235.4430;-54.5900;-48.7600;-5.8300
1235.6420;-54.6300;-48.6900;-5.9400
1235.8410;-54.6700;-48.6000;-6.0700
1236.0400;-54.7300;-48.5300;-6.2000
1236.2390;-54.7900;-48.4200;-6.3700
1236.4380;-54.8600;-48.3300;-6.5300
1236.6370;-54.8700;-48.2500;-6.6200
1236.8360;-54.8900;-48.1500;-6.7400
1237.0350;-54.8800;-48.0800;-6.8000
1237.2350;-54.8400;-47.9900;-6.8500
1237.4340;-54.7600;-47.9000;-6.8600
1237.6330;-54.6500;-47.8100;-6.8400
1237.8320;-54.5300;-47.7400;-6.7900
1238.0310;-54.3500;-47.6600;-6.6900
1238.2300;-54.1500;-47.5700;-6.5800
1238.4290;-53.9500;-47.5000;-6.4500
1238.6280;-53.7300;-47.4200;-6.3100
1238.8270;-53.5300;-47.3400;-6.1900
1239.0270;-53.3000;-47.2700;-6.0300
1239.2260;-53.1100;-47.1800;-5.9300
1239.4250;-52.9400;-47.1100;-5.8300
1239.6240;-52.7700;-47.0300;-5.7400
1239.8230;-52.6200;-46.9400;-5.6800
1240.0220;-52.4900;-46.8700;-5.6200
1240.2210;-52.3900;-46.7700;-5.6200
1240.4200;-52.3100;-46.6900;-5.6200
1240.6200;-52.2200;-46.5900;-5.6300
1240.8190;-52.2000;-46.4900;-5.7100
1241.0180;-52.1500;-46.3800;-5.7700
1241.2170;-52.1300;-46.2700;-5.8600
1241.4160;-52.1100;-46.1700;-5.9400
1241.6150;-52.1100;-46.0300;-6.0800
1241.8140;-52.1300;-45.9100;-6.2200
1242.0130;-52.1100;-45.8000;-6.3100
1242.2120;-52.1200;-45.6900;-6.4300
1242.4120;-52.1400;-45.5600;-6.5800
1242.6110;-52.1400;-45.4200;-6.7200
1242.8100;-52.1500;-45.3100;-6.8400
1243.0090;-52.1400;-45.1700;-6.9700
1243.2080;-52.1300;-45.0500;-7.0800
1243.4070;-52.1100;-44.9200;-7.1900
1243.6060;-52.0400;-44.7900;-7.2500
1243.8050;-52.0100;-44.6800;-7.3300
1244.0040;-51.9300;-44.5400;-7.3900
1244.2040;-51.8400;-44.4100;-7.4300
1244.4030;-51.7300;-44.2900;-7.4400
1244.6020;-51.6200;-44.1600;-7.4600
1244.8010;-51.5300;-44.0500;-7.4800
1245.0000;-51.3800;-43.9100;-7.4700
1245.1990;-51.2500;-43.7900;-7.4600
1245.3980;-51.1300;-43.6700;-7.4600
1245.5970;-51.0000;-43.5300;-7.4700
1245.7970;-50.8800;-43.4100;-7.4700
1245.9960;-50.7600;-43.2600;-7.5000
1246.1950;-50.6500;-43.1400;-7.5100
1246.3940;-50.5600;-43.0000;-7.5600
1246.5930;-50.4500;-42.8500;-7.6000
1246.7920;-50.3700;-42.7300;-7.6400
1246.9910;-50.3000;-42.5600;-7.7400
1247.1900;-50.2400;-42.4200;-7.8200
1247.3890;-50.1800;-42.2700;-7.9100
1247.5890;-50.1300;-42.1100;-8.0200
1247.7880;-50.1000;-41.9700;-8.1300
1247.9870;-50.0400;-41.8000;-8.2400
1248.1860;-49.9900;-41.6500;-8.3400
1248.3850;-49.9500;-41.5000;-8.4500
1248.5840;-49.9100;-41.3300;-8.5800
1248.7830;-49.8600;-41.1800;-8.6800
1248.9820;-49.8100;-41.0200;-8.7900
1249.1810;-49.7700;-40.8700;-8.9000
1249.3810;-49.7200;-40.7200;-9.0000
1249.5800;-49.6700;-40.5600;-9.1100
1249.7790;-49.6400;-40.4200;-9.2200
1249.9780;-49.6000;-40.2500;-9.3500
1250.1770;-49.5600;-40.1100;-9.4500
1250.3760;-49.5200;-39.9700;-9.5500
1250.5750;-49.4900;-39.8100;-9.6800
1250.7740;-49.4600;-39.6700;-9.7900
1250.9740;-49.4000;-39.5200;-9.8800
1251.1730;-49.3500;-39.3800;-9.9700
1251.3720;-49.2800;-39.2300;-10.0500
1251.5710;-49.1800;-39.0900;-10.0900
1251.7700;-49.0400;-38.9500;-10.0900
1251.9690;-48.8700;-38.7900;-10.0800
1252.1680;-48.6700;-38.6400;-10.0300
1252.3670;-48.4200;-38.4700;-9.9500
1252.5660;-48.1300;-38.3200;-9.8100
1252.7660;-47.8100;-38.1700;-9.6400
1252.9650;-47.4500;-38.0100;-9.4400
1253.1640;-47.0600;-37.8500;-9.2100
1253.3630;-46.6500;-37.6800;-8.9700
1253.5620;-46.2400;-37.5200;-8.7200
1253.7610;-45.7500;-37.3500;-8.4000
1253.9600;-45.4000;-37.1900;-8.2100
1254.1590;-45.0200;-37.0300;-7.9900
1254.3580;-44.6300;-36.8500;-7.7800
1254.5580;-44.2600;-36.7000;-7.5600
1254.7570;-43.8900;-36.5400;-7.3500
1254.9560;-43.5600;-36.3700;-7.1900
1255.1550;-43.2500;-36.2300;-7.0200
1255.3540;-42.9500;-36.0600;-6.8900
1255.5530;-42.7000;-35.9200;-6.7800
1255.7520;-42.4400;-35.7400;-6.7000
1255.9510;-42.2100;-35.6300;-6.5800
1256.1500;-42.0100;-35.4900;-6.5200
1256.3500;-41.8200;-35.3400;-6.4800
1256.5490;-41.6500;-35.2200;-6.4300
1256.7480;-41.4800;-35.0700;-6.4100
1256.9470;-41.3300;-34.9400;-6.3900
1257.1460;-41.2000;-34.8000;-6.4000
1257.3450;-41.0500;-34.6600;-6.3900
1257.5440;-40.9200;-34.5400;-6.3800
1257.7430;-40.7900;-34.3900;-6.4000
1257.9430;-40.6500;-34.2500;-6.4000
1258.1420;-40.5300;-34.1200;-6.4100
1258.3410;-40.3900;-33.9700;-6.4200
1258.5400;-40.2600;-33.8400;-6.4200
1258.7390;-40.1000;-33.6800;-6.4200
1258.9380;-39.9500;-33.5400;-6.4100
1259.1370;-39.8000;-33.3900;-6.4100
1259.3360;-39.6300;-33.2400;-6.3900
1259.5350;-39.4600;-33.1000;-6.3600
1259.7350;-39.2800;-32.9400;-6.3400
1259.9340;-39.1000;-32.8000;-6.3000
1260.1330;-38.9100;-32.6500;-6.2600
1260.3320;-38.7300;-32.4900;-6.2400
1260.5310;-38.5500;-32.3600;-6.1900
1260.7300;-38.3500;-32.2000;-6.1500
1260.9290;-38.1600;-32.0700;-6.0900
1261.1280;-37.9700;-31.9200;-6.0500
1261.3270;-37.7800;-31.7700;-6.0100
1261.5270;-37.5900;-31.6500;-5.9400
1261.7260;-37.3900;-31.5100;-5.8800
1261.9250;-37.2100;-31.3800;-5.8300
1262.1240;-37.0100;-31.2400;-5.7700
1262.3230;-36.8100;-31.1100;-5.7000
1262.5220;-36.6300;-31.0000;-5.6300
1262.7210;-36.4300;-30.8600;-5.5700
1262.9200;-36.2400;-30.7400;-5.5000
1263.1200;-36.0400;-30.6000;-5.4400
1263.3190;-35.8300;-30.4700;-5.3600
1263.5180;-35.6600;-30.3600;-5.3000
1263.7170;-35.4700;-30.2100;-5.2600
1263.9160;-35.2800;-30.0900;-5.1900
1264.1150;-35.0800;-29.9500;-5.1300
1264.3140;-34.9000;-29.8100;-5.0900
1264.5130;-34.7000;-29.6900;-5.0100
1264.7120;-34.5200;-29.5500;-4.9700
1264.9120;-34.3400;-29.4200;-4.9200
1265.1110;-34.1400;-29.2700;-4.8700
1265.3100;-33.9800;-29.1400;-4.8400
1265.5090;-33.7900;-29.0100;-4.7800
1265.7080;-33.6300;-28.8700;-4.7600
1265.9070;-33.4700;-28.7500;-4.7200
1266.1060;-33.3000;-28.6100;-4.6900
1266.3050;-33.1400;-28.4800;-4.6600
1266.5040;-32.9800;-28.3700;-4.6100
1266.7040;-32.8400;-28.2400;-4.6000
1266.9030;-32.6900;-28.1200;-4.5700
1267.1020;-32.5400;-27.9900;-4.5500
1267.3010;-32.4000;-27.8700;-4.5300
1267.5000;-32.2500;-27.7700;-4.4800
1267.6990;-32.1100;-27.6500;-4.4600
1267.8980;-31.9800;-27.5500;-4.4300
1268.0970;-31.8300;-27.4300;-4.4000
1268.2970;-31.7000;-27.3200;-4.3800
1268.4960;-31.5500;-27.2200;-4.3300
1268.6950;-31.4100;-27.1000;-4.3100
1268.8940;-31.2700;-27.0000;-4.2700
1269.0930;-31.1200;-26.8800;-4.2400
1269.2920;-30.9800;-26.7700;-4.2100
1269.4910;-30.8300;-26.6600;-4.1700
1269.6900;-30.6900;-26.5400;-4.1500
1269.8890;-30.5400;-26.4400;-4.1000
1270.0890;-30.4000;-26.3100;-4.0900
1270.2880;-30.2600;-26.2000;-4.0600
1270.4870;-30.1000;-26.0700;-4.0300
1270.6860;-29.9700;-25.9700;-4.0000
1270.8850;-29.8400;-25.8500;-3.9900
1271.0840;-29.7000;-25.7300;-3.9700
1271.2830;-29.5800;-25.6300;-3.9500
1271.4820;-29.4400;-25.5000;-3.9400
1271.6810;-29.3300;-25.3900;-3.9400
1271.8810;-29.2200;-25.2800;-3.9400
1272.0800;-29.1000;-25.1700;-3.9300
1272.2790;-29.0000;-25.0600;-3.9400
1272.4780;-28.8900;-24.9500;-3.9400
1272.6770;-28.8100;-24.8500;-3.9600
1272.8760;-28.7200;-24.7400;-3.9800
1273.0750;-28.6400;-24.6500;-3.9900
1273.2740;-28.5900;-24.5600;-4.0300
1273.4740;-28.5100;-24.4500;-4.0600
1273.6730;-28.4700;-24.3700;-4.1000
1273.8720;-28.4300;-24.2700;-4.1600
1274.0710;-28.3900;-24.1800;-4.2100
1274.2700;-28.3800;-24.0900;-4.2900
1274.4690;-28.3700;-23.9900;-4.3800
1274.6680;-28.3900;-23.9100;-4.4800
1274.8670;-28.4200;-23.8100;-4.6100
1275.0660;-28.4700;-23.7200;-4.7500
1275.2660;-28.5500;-23.6400;-4.9100
1275.4650;-28.6400;-23.5400;-5.1000
1275.6640;-28.7800;-23.4600;-5.3200
1275.8630;-28.9400;-23.3600;-5.5800
1276.0620;-29.1300;-23.2700;-5.8600
1276.2610;-29.3800;-23.1800;-6.2000
1276.4600;-29.6500;-23.0900;-6.5600
1276.6590;-29.9800;-23.0000;-6.9800
1276.8580;-30.3600;-22.9000;-7.4600
1277.0580;-30.7900;-22.8200;-7.9700
1277.2570;-31.3000;-22.7300;-8.5700
1277.4560;-31.8500;-22.6400;-9.2100
1277.6550;-32.4900;-22.5700;-9.9200
1277.8540;-33.1800;-22.4700;-10.7100
1278.0530;-33.9400;-22.4000;-11.5400
1278.2520;-34.7700;-22.3100;-12.4600
1278.4510;-35.6000;-22.2300;-13.3700
1278.6500;-36.4100;-22.1600;-14.2500
1278.8500;-37.0500;-22.0700;-14.9800
1279.0490;-37.4400;-22.0000;-15.4400
1279.2480;-37.4600;-21.9200;-15.5400
1279.4470;-37.0800;-21.8400;-15.2400
1279.6460;-36.4200;-21.7700;-14.6500
1279.8450;-35.5500;-21.6800;-13.8700
1280.0440;-34.6100;-21.6200;-12.9900
1280.2430;-33.6900;-21.5400;-12.1500
1280.4430;-32.8000;-21.4600;-11.3400
1280.6420;-32.0000;-21.3900;-10.6100
1280.8410;-31.2400;-21.3100;-9.9300
1281.0400;-30.5700;-21.2400;-9.3300
1281.2390;-29.9700;-21.1600;-8.8100
1281.4380;-29.4300;-21.0800;-8.3500
1281.6370;-28.9600;-21.0100;-7.9500
1281.8360;-28.5300;-20.9300;-7.6000
1282.0350;-28.1800;-20.8700;-7.3100
1282.2350;-27.8600;-20.7800;-7.0800
1282.4340;-27.6100;-20.7100;-6.9000
1282.6330;-27.4100;-20.6500;-6.7600
1282.8320;-27.2400;-20.5800;-6.6600
1283.0310;-27.1300;-20.5200;-6.6100
1283.2300;-27.0300;-20.4500;-6.5800
1283.4290;-26.9800;-20.3900;-6.5900
1283.6280;-26.9700;-20.3200;-6.6500
1283.8270;-26.9800;-20.2600;-6.7200
1284.0270;-27.0400;-20.2100;-6.8300
1284.2260;-27.1000;-20.1400;-6.9600
1284.4250;-27.1900;-20.0900;-7.1000
1284.6240;-27.3000;-20.0300;-7.2700
1284.8230;-27.4200;-19.9700;-7.4500
1285.0220;-27.5600;-19.9300;-7.6300
1285.2210;-27.6800;-19.8600;-7.8200
1285.4200;-27.8200;-19.8100;-8.0100
1285.6200;-27.9400;-19.7500;-8.1900
1285.8190;-28.0500;-19.6900;-8.3600
1286.0180;-28.1600;-19.6500;-8.5100
1286.2170;-28.2400;-19.5800;-8.6600
1286.4160;-28.3100;-19.5400;-8.7700
1286.6150;-28.3500;-19.4900;-8.8600
1286.8140;-28.3700;-19.4300;-8.9400
1287.0130;-28.3900;-19.3900;-9.0000
1287.2120;-28.3700;-19.3300;-9.0400
1287.4120;-28.3700;-19.2900;-9.0800
1287.6110;-28.3400;-19.2300;-9.1100
1287.8100;-28.3300;-19.1800;-9.1500
1288.0090;-28.3200;-19.1400;-9.1800
1288.2080;-28.3100;-19.0800;-9.2300
1288.4070;-28.3200;-19.0500;-9.2700
1288.6060;-28.3100;-19.0000;-9.3100
1288.8050;-28.3400;-18.9600;-9.3800
1289.0040;-28.3700;-18.9200;-9.4500
1289.2040;-28.4000;-18.8700;-9.5300
1289.4030;-28.4700;-18.8500;-9.6200
1289.6020;-28.5100;-18.8000;-9.7100
1289.8010;-28.5700;-18.7600;-9.8100
1290.0000;-28.6300;-18.7200;-9.9100
1290.1990;-28.6600;-18.6800;-9.9800
1290.3980;-28.6900;-18.6600;-10.0300
1290.5970;-28.6700;-18.6200;-10.0500
1290.7970;-28.6300;-18.5900;-10.0400
1290.9960;-28.5400;-18.5300;-10.0100
1291.1950;-28.4000;-18.5000;-9.9000
1291.3940;-28.2200;-18.4700;-9.7500
1291.5930;-27.9800;-18.4100;-9.5700
1291.7920;-27.7100;-18.3900;-9.3200
1291.9910;-27.3700;-18.3400;-9.0300
1292.1900;-27.0100;-18.3100;-8.7000
1292.3890;-26.6300;-18.2700;-8.3600
1292.5890;-26.2000;-18.2200;-7.9800
1292.7880;-25.7200;-18.2000;-7.5200
1292.9870;-25.3600;-18.1500;-7.2100
1293.1860;-24.9500;-18.1300;-6.8200
1293.3850;-24.5200;-18.0900;-6.4300
1293.5840;-24.1200;-18.0500;-6.0700
1293.7830;-23.7200;-18.0200;-5.7000
1293.9820;-23.3300;-17.9900;-5.3400
1294.1810;-22.9800;-17.9700;-5.0100
1294.3810;-22.6200;-17.9300;-4.6900
1294.5800;-22.2900;-17.8900;-4.4000
1294.7790;-21.9700;-17.8700;-4.1000
1294.9780;-21.6600;-17.8400;-3.8200
1295.1770;-21.4000;-17.8200;-3.5800
1295.3760;-21.1300;-17.7900;-3.3400
1295.5750;-20.8900;-17.7600;-3.1300
1295.7740;-20.6700;-17.7300;-2.9400
1295.9740;-20.4500;-17.6900;-2.7600
1296.1730;-20.2700;-17.6800;-2.5900
1296.3720;-20.0800;-17.6500;-2.4300
1296.5710;-19.9400;-17.6300;-2.3100
1296.7700;-19.7900;-17.6000;-2.1900
1296.9690;-19.6700;-17.5800;-2.0900
1297.1680;-19.5800;-17.5700;-2.0100
1297.3670;-19.5000;-17.5500;-1.9500
1297.5660;-19.4500;-17.5300;-1.9200
1297.7660;-19.3900;-17.5100;-1.8800
1297.9650;-19.3600;-17.4900;-1.8700
1298.1640;-19.3700;-17.4800;-1.8900
1298.3630;-19.3800;-17.4700;-1.9100
1298.5620;-19.4300;-17.4600;-1.9700
1298.7610;-19.4700;-17.4400;-2.0300
1298.9600;-19.5500;-17.4400;-2.1100
1299.1590;-19.6500;-17.4300;-2.2200
1299.3580;-19.7700;-17.4200;-2.3500
1299.5580;-19.9300;-17.4200;-2.5100
1299.7570;-20.0800;-17.4100;-2.6700
1299.9560;-20.2800;-17.4100;-2.8700
1300.1550;-20.4900;-17.4000;-3.0900
1300.3540;-20.7400;-17.4000;-3.3400
1300.5530;-21.0300;-17.4000;-3.6300
1300.7520;-21.3100;-17.3900;-3.9200
1300.9510;-21.6600;-17.4000;-4.2600
1301.1500;-22.0200;-17.4000;-4.6200
1301.3500;-22.4300;-17.4000;-5.0300
1301.5490;-22.8900;-17.4100;-5.4800
1301.7480;-23.3600;-17.4100;-5.9500
1301.9470;-23.9100;-17.4200;-6.4900
1302.1460;-24.5000;-17.4200;-7.0800
1302.3450;-25.1500;-17.4300;-7.7200
1302.5440;-25.8700;-17.4300;-8.4400
1302.7430;-26.6400;-17.4300;-9.2100
1302.9430;-27.5200;-17.4400;-10.0800
1303.1420;-28.6700;-17.4400;-11.2300
1303.3410;-29.5600;-17.4600;-12.1000
1303.5400;-30.6900;-17.4600;-13.2300
1303.7390;-31.9000;-17.4600;-14.4400
1303.9380;-33.0900;-17.4700;-15.6200
1304.1370;-34.0800;-17.4800;-16.6000
1304.3360;-34.6500;-17.5000;-17.1500
1304.5350;-34.5100;-17.5000;-17.0100
1304.7350;-33.7800;-17.5100;-16.2700
1304.9340;-32.7000;-17.5200;-15.1800
1305.1330;-31.5000;-17.5300;-13.9700
1305.3320;-30.3400;-17.5500;-12.7900
1305.5310;-29.2400;-17.5600;-11.6800
1305.7300;-28.2400;-17.5800;-10.6600
1305.9290;-27.3200;-17.5800;-9.7400
1306.1280;-26.5000;-17.6000;-8.9000
1306.3270;-25.6700;-17.6100;-8.0600
1306.5270;-25.1200;-17.6300;-7.4900
1306.7260;-24.5400;-17.6500;-6.8900
1306.9250;-23.9900;-17.6500;-6.3400
1307.1240;-23.5100;-17.6800;-5.8300
1307.3230;-23.0700;-17.6900;-5.3800
1307.5220;-22.6600;-17.7100;-4.9500
1307.7210;-22.3200;-17.7400;-4.5800
1307.9200;-21.9900;-17.7500;-4.2400
1308.1200;-21.7100;-17.7900;-3.9200
1308.3190;-21.4500;-17.8000;-3.6500
1308.5180;-21.2300;-17.8400;-3.3900
1308.7170;-21.0400;-17.8800;-3.1600
1308.9160;-20.8700;-17.8900;-2.9800
1309.1150;-20.7400;-17.9400;-2.8000
1309.3140;-20.6300;-17.9600;-2.6700
1309.5130;-20.5400;-18.0100;-2.5300
1309.7120;-20.4900;-18.0500;-2.4400
1309.9120;-20.4400;-18.0700;-2.3700
1310.1110;-20.4400;-18.1300;-2.3100
1310.3100;-20.4500;-18.1600;-2.2900
1310.5090;-20.5000;-18.2100;-2.2900
1310.7080;-20.5600;-18.2500;-2.3100
1310.9070;-20.6500;-18.2900;-2.3600
1311.1060;-20.7700;-18.3500;-2.4200
1311.3050;-20.9100;-18.3800;-2.5300
1311.5040;-21.0800;-18.4500;-2.6300
1311.7040;-21.2700;-18.4800;-2.7900
1311.9030;-21.4800;-18.5300;-2.9500
1312.1020;-21.7400;-18.5800;-3.1600
1312.3010;-22.0100;-18.6300;-3.3800
1312.5000;-22.3300;-18.7000;-3.6300
1312.6990;-22.6700;-18.7400;-3.9300
1312.8980;-23.0500;-18.8000;-4.2500
1313.0970;-23.4700;-18.8500;-4.6200
1313.2970;-23.9300;-18.9000;-5.0300
1313.4960;-24.4500;-18.9800;-5.4700
1313.6950;-24.9900;-19.0300;-5.9600
1313.8940;-25.6000;-19.0900;-6.5100
1314.0930;-26.2600;-19.1400;-7.1200
1314.2920;-26.9900;-19.2000;-7.7900
1314.4910;-27.7900;-19.2700;-8.5200
1314.6900;-28.8400;-19.3200;-9.5200
1314.8890;-29.6000;-19.3800;-10.2200
1315.0890;-30.5700;-19.4300;-11.1400
1315.2880;-31.6200;-19.5000;-12.1200
1315.4870;-32.6600;-19.5500;-13.1100
1315.6860;-33.6200;-19.6100;-14.0100
1315.8850;-34.4000;-19.6700;-14.7300
1316.0840;-34.7700;-19.7300;-15.0400
1316.2830;-34.7000;-19.8000;-14.9000
1316.4820;-34.1800;-19.8500;-14.3300
1316.6810;-33.4000;-19.9200;-13.4800
1316.8810;-32.5000;-19.9800;-12.5200
1317.0800;-31.5800;-20.0500;-11.5300
1317.2790;-30.7000;-20.1200;-10.5800
1317.4780;-29.8700;-20.1900;-9.6800
1317.6770;-29.1300;-20.2600;-8.8700
1317.8760;-28.4500;-20.3200;-8.1300
1318.0750;-27.8300;-20.3900;-7.4400
1318.2740;-27.2900;-20.4600;-6.8300
1318.4740;-26.7900;-20.5300;-6.2600
1318.6730;-26.3700;-20.6200;-5.7500
1318.8720;-25.9100;-20.6800;-5.2300
1319.0710;-25.6400;-20.7800;-4.8600
1319.2700;-25.3400;-20.8500;-4.4900
1319.4690;-25.0700;-20.9300;-4.1400
1319.6680;-24.8600;-21.0200;-3.8400
1319.8670;-24.6500;-21.1000;-3.5500
1320.0660;-24.5000;-21.2000;-3.3000
1320.2660;-24.3600;-21.2800;-3.0800
1320.4650;-24.2500;-21.3700;-2.8800
1320.6640;-24.1800;-21.4700;-2.7100
1320.8630;-24.1100;-21.5600;-2.5500
1321.0620;-24.0900;-21.6600;-2.4300
1321.2610;-24.0700;-21.7500;-2.3200
1321.4600;-24.0900;-21.8600;-2.2300
1321.6590;-24.1300;-21.9500;-2.1800
1321.8580;-24.1700;-22.0500;-2.1200
1322.0580;-24.2600;-22.1600;-2.1000
1322.2570;-24.3500;-22.2600;-2.0900
1322.4560;-24.4700;-22.3700;-2.1000
1322.6550;-24.5900;-22.4700;-2.1200
1322.8540;-24.7300;-22.5900;-2.1400
1323.0530;-24.8900;-22.6900;-2.2000
1323.2520;-25.0500;-22.8100;-2.2400
1323.4510;-25.2500;-22.9200;-2.3300
1323.6500;-25.4300;-23.0300;-2.4000
1323.8500;-25.6400;-23.1600;-2.4800
1324.0490;-25.8500;-23.2700;-2.5800
1324.2480;-26.0600;-23.4000;-2.6600
1324.4470;-26.2900;-23.5100;-2.7800
1324.6460;-26.5000;-23.6300;-2.8700
1324.8450;-26.7300;-23.7600;-2.9700
1325.0440;-26.9300;-23.8700;-3.0600
1325.2430;-27.1300;-24.0100;-3.1200
1325.4430;-27.3300;-24.1200;-3.2100
1325.6420;-27.4900;-24.2600;-3.2300
1325.8410;-27.6600;-24.3900;-3.2700
1326.0400;-27.7800;-24.5200;-3.2600
1326.2390;-27.8900;-24.6500;-3.2400
1326.4380;-27.9800;-24.7800;-3.2000
1326.6370;-28.0400;-24.9100;-3.1300
1326.8360;-28.0900;-25.0400;-3.0500
1327.0350;-28.0900;-25.1800;-2.9100
1327.2350;-28.0800;-25.3200;-2.7600
1327.4340;-28.0500;-25.4500;-2.6000
1327.6330;-28.0000;-25.6000;-2.4000
1327.8320;-27.9500;-25.7200;-2.2300
1328.0310;-27.8800;-25.8700;-2.0100
1328.2300;-27.8100;-26.0100;-1.8000
1328.4290;-27.7300;-26.1500;-1.5800
1328.6280;-27.6600;-26.3000;-1.3600
1328.8270;-27.5900;-26.4400;-1.1500
1329.0270;-27.5100;-26.6000;-0.9100
1329.2260;-27.4600;-26.7300;-0.7300
1329.4250;-27.3800;-26.8900;-0.4900
1329.6240;-27.3300;-27.0300;-0.3000
1329.8230;-27.2900;-27.1700;-0.1200
1330.0220;-27.2600;-27.3300;0.0700
1330.2210;-27.2500;-27.4700;0.2200
1330.4200;-27.2300;-27.6300;0.4000
1330.6200;-27.2300;-27.7700;0.5400
1330.8190;-27.2500;-27.9200;0.6700
1331.0180;-27.2600;-28.0700;0.8100
1331.2170;-27.3100;-28.2300;0.9200
1331.4160;-27.3400;-28.3900;1.0500
1331.6150;-27.4000;-28.5700;1.1700
1331.8140;-27.4600;-28.7100;1.2500
1332.0130;-27.5400;-28.8500;1.3100
1332.2120;-27.6300;-29.0200;1.3900
1332.4120;-27.7200;-29.1700;1.4500
1332.6110;-27.8400;-29.3400;1.5000
1332.8100;-27.9500;-29.5000;1.5500
1333.0090;-28.0800;-29.6600;1.5800
1333.2080;-28.2200;-29.8300;1.6100
1333.4070;-28.3700;-29.9800;1.6100
1333.6060;-28.5800;-30.1500;1.5700
1333.8050;-28.7300;-30.3100;1.5800
1334.0040;-28.9200;-30.4700;1.5500
1334.2040;-29.1300;-30.6500;1.5200
1334.4030;-29.3500;-30.8100;1.4600
1334.6020;-29.5800;-30.9800;1.4000
1334.8010;-29.8200;-31.1500;1.3300
1335.0000;-30.0900;-31.3200;1.2300
1335.1990;-30.3700;-31.4900;1.1200
1335.3980;-30.6900;-31.6600;0.9700
1335.5970;-31.0100;-31.8500;0.8400
1335.7970;-31.3700;-32.0200;0.6500
1335.9960;-31.7500;-32.2100;0.4600
1336.1950;-32.1700;-32.3800;0.2100
1336.3940;-32.6300;-32.5600;-0.0700
1336.5930;-33.1000;-32.7400;-0.3600
1336.7920;-33.6300;-32.9100;-0.7200
1336.9910;-34.1800;-33.1000;-1.0800
1337.1900;-34.8000;-33.2800;-1.5200
1337.3890;-35.4700;-33.4700;-2.0000
1337.5890;-36.1900;-33.6500;-2.5400
1337.7880;-37.0100;-33.8300;-3.1800
1337.9870;-37.8600;-34.0300;-3.8300
1338.1860;-39.0300;-34.2000;-4.8300
1338.3850;-39.8900;-34.3900;-5.5000
1338.5840;-41.0400;-34.5700;-6.4700
1338.7830;-42.3300;-34.7500;-7.5800
1338.9820;-43.7300;-34.9500;-8.7800
1339.1810;-45.2300;-35.1300;-10.1000
1339.3810;-46.6800;-35.3200;-11.3600
1339.5800;-47.8700;-35.4900;-12.3800
1339.7790;-48.5200;-35.6800;-12.8400
1339.9780;-48.2000;-35.8700;-12.3300
1340.1770;-47.3200;-36.0500;-11.2700
1340.3760;-46.0300;-36.2600;-9.7700
1340.5750;-45.0800;-36.4400;-8.6400
1340.7740;-44.0600;-36.6300;-7.4300
1340.9740;-43.1600;-36.8100;-6.3500
1341.1730;-42.3700;-36.9900;-5.3800
1341.3720;-41.7000;-37.1800;-4.5200
1341.5710;-41.1000;-37.3700;-3.7300
1341.7700;-40.6200;-37.5600;-3.0600
1341.9690;-40.2100;-37.7300;-2.4800
1342.1680;-39.8800;-37.9300;-1.9500
1342.3670;-39.6300;-38.1100;-1.5200
1342.5660;-39.4300;-38.2900;-1.1400
1342.7660;-39.3000;-38.5300;-0.7700
1342.9650;-39.2000;-38.6900;-0.5100
1343.1640;-39.1700;-38.8900;-0.2800
1343.3630;-39.1900;-39.0700;-0.1200
1343.5620;-39.2400;-39.2600;0.0200
1343.7610;-39.3600;-39.4500;0.0900
1343.9600;-39.5000;-39.6500;0.1500
1344.1590;-39.6900;-39.8600;0.1700
1344.3580;-39.9200;-40.0500;0.1300
1344.5580;-40.1800;-40.2500;0.0700
1344.7570;-40.4900;-40.4400;-0.0500
1344.9560;-40.8200;-40.6300;-0.1900
1345.1550;-41.2000;-40.8200;-0.3800
1345.3540;-41.5900;-41.0000;-0.5900
1345.5530;-42.0200;-41.2000;-0.8200
1345.7520;-42.4700;-41.3800;-1.0900
1345.9510;-42.9300;-41.5800;-1.3500
1346.1500;-43.4100;-41.7800;-1.6300
1346.3500;-43.8800;-41.9700;-1.9100
1346.5490;-44.3500;-42.1900;-2.1600
1346.7480;-44.8100;-42.3700;-2.4400
1346.9470;-45.2500;-42.5600;-2.6900
1347.1460;-45.6600;-42.7500;-2.9100
1347.3450;-46.0100;-42.9200;-3.0900
1347.5440;-46.3100;-43.1600;-3.1500
1347.7430;-46.5400;-43.3900;-3.1500
1347.9430;-46.7200;-43.6200;-3.1000
1348.1420;-46.8400;-43.8000;-3.0400
1348.3410;-46.9000;-44.0000;-2.9000
1348.5400;-46.9300;-44.1600;-2.7700
1348.7390;-46.9000;-44.3400;-2.5600
1348.9380;-46.8500;-44.5200;-2.3300
1349.1370;-46.7900;-44.6800;-2.1100
1349.3360;-46.7000;-44.8500;-1.8500
1349.5350;-46.6300;-45.0200;-1.6100
1349.7350;-46.5500;-45.1900;-1.3600
1349.9340;-46.4800;-45.3800;-1.1000
1350.1330;-46.3800;-45.5800;-0.8000
1350.3320;-46.3100;-45.8400;-0.4700
1350.5310;-46.2500;-46.0500;-0.2000
1350.7300;-46.2000;-46.2300;0.0300
1350.9290;-46.1700;-46.4000;0.2300
1351.1280;-46.1300;-46.5200;0.3900
1351.3270;-46.1300;-46.7000;0.5700
1351.5270;-46.1200;-46.8700;0.7500
1351.7260;-46.1400;-47.1200;0.9800
1351.9250;-46.1600;-47.3100;1.1500
1352.1240;-46.1600;-47.4900;1.3300
1352.3230;-46.1900;-47.6800;1.4900
1352.5220;-46.2100;-47.8800;1.6700
1352.7210;-46.2900;-48.0500;1.7600
1352.9200;-46.4000;-48.2000;1.8000
1353.1200;-46.4700;-48.5500;2.0800
1353.3190;-46.5500;-48.5900;2.0400
1353.5180;-46.6200;-48.7700;2.1500
1353.7170;-46.6600;-48.9500;2.2900
1353.9160;-46.7400;-49.0600;2.3200
1354.1150;-46.8100;-49.2200;2.4100
1354.3140;-46.9000;-49.4500;2.5500
1354.5130;-46.9600;-49.6500;2.6900
1354.7120;-47.0600;-49.9600;2.9000
1354.9120;-47.1600;-50.2500;3.0900
1355.1110;-47.2700;-50.4400;3.1700
1355.3100;-47.4300;-50.5700;3.1400
1355.5090;-47.6300;-50.5900;2.9600
1355.7080;-47.8000;-50.8500;3.0500
1355.9070;-47.9200;-51.1300;3.2100
1356.1060;-48.0400;-51.3000;3.2600
1356.3050;-48.1400;-51.3900;3.2500
1356.5040;-48.2800;-51.5200;3.2400
1356.7040;-48.4900;-51.4300;2.9400
1356.9030;-48.6800;-51.6000;2.9200
1357.1020;-48.8800;-51.9700;3.0900
1357.3010;-49.0500;-52.2100;3.1600
1357.5000;-49.2600;-52.4000;3.1400
1357.6990;-49.4800;-52.5900;3.1100
1357.8980;-49.6600;-52.6600;3.0000
1358.0970;-49.8600;-52.7300;2.8700
1358.2970;-50.1600;-52.9200;2.7600
1358.4960;-50.3300;-53.1500;2.8200
1358.6950;-50.5400;-53.3000;2.7600
1358.8940;-50.8100;-53.4700;2.6600
1359.0930;-50.9800;-53.6300;2.6500
1359.2920;-51.2100;-53.6900;2.4800
1359.4910;-51.5300;-54.0700;2.5400
1359.6900;-51.8100;-54.3800;2.5700
1359.8890;-52.2400;-54.5800;2.3400
1360.0890;-52.6200;-54.6600;2.0400
1360.2880;-52.9200;-54.7100;1.7900
1360.4870;-53.1800;-54.7000;1.5200
1360.6860;-53.3000;-54.8900;1.5900
1360.8850;-53.6900;-55.2300;1.5400
1361.0840;-54.0800;-55.5400;1.4600
1361.2830;-54.3800;-55.7200;1.3400
1361.4820;-54.6100;-55.9000;1.2900
1361.6810;-54.8600;-56.1400;1.2800
1361.8810;-54.9000;-56.2800;1.3800
1362.0800;-55.1600;-56.5200;1.3600
1362.2790;-55.6500;-56.9500;1.3000
1362.4780;-55.9800;-57.1900;1.2100
1362.6770;-56.2700;-57.3600;1.0900
1362.8760;-56.5400;-57.2600;0.7200
1363.0750;-56.6800;-57.2300;0.5500
1363.2740;-56.8100;-57.0100;0.2000
1363.4740;-57.0300;-57.1000;0.0700
1363.6730;-57.3100;-57.2000;-0.1100
1363.8720;-57.4600;-57.3700;-0.0900
1364.0710;-57.6300;-57.6000;-0.0300
1364.2700;-57.7800;-57.8100;0.0300
1364.4690;-57.8100;-58.1500;0.3400
1364.6680;-58.1600;-58.7300;0.5700
1364.8670;-58.4700;-58.9500;0.4800
1365.0660;-58.5800;-58.9300;0.3500
1365.2660;-58.5800;-59.1400;0.5600
1365.4650;-58.5400;-59.0900;0.5500
1365.6640;-58.4600;-59.1700;0.7100
1365.8630;-58.5400;-59.2500;0.7100
1366.0620;-58.8100;-59.2700;0.4600
1366.2610;-59.0100;-59.3000;0.2900
1366.4600;-59.0900;-59.3800;0.2900
1366.6590;-59.1500;-59.5700;0.4200
1366.8580;-59.2800;-59.8400;0.5600
1367.0580;-59.3300;-59.9800;0.6500
1367.2570;-59.4500;-60.1200;0.6700
1367.4560;-59.8100;-60.4100;0.6000
1367.6550;-59.9400;-60.6300;0.6900
1367.8540;-60.0000;-60.9300;0.9300
1368.0530;-59.7800;-61.0900;1.3100
1368.2520;-59.6400;-61.0900;1.4500
1368.4510;-59.3400;-61.4300;2.0900
1368.6500;-59.3500;-61.5800;2.2300
1368.8500;-59.3700;-61.7000;2.3300
1369.0490;-59.4500;-61.7400;2.2900
1369.2480;-59.6100;-61.7400;2.1300
1369.4470;-59.7700;-61.6700;1.9000
1369.6460;-60.0100;-61.8400;1.8300
1369.8450;-60.5000;-62.2100;1.7100
1370.0440;-60.6700;-62.4200;1.7500
1370.2430;-60.6000;-62.6000;2.0000
1370.4430;-60.7500;-62.6800;1.9300
1370.6420;-60.6700;-62.7500;2.0800
1370.8410;-60.7300;-63.1200;2.3900
1371.0400;-60.7700;-63.4200;2.6500
1371.2390;-60.7700;-63.6400;2.8700
1371.4380;-60.7700;-63.7700;3.0000
1371.6370;-60.8300;-63.7600;2.9300
1371.8360;-61.0000;-63.7400;2.7400
1372.0350;-61.2600;-63.9900;2.7300
1372.2350;-61.4500;-64.2600;2.8100
1372.4340;-61.5600;-64.4200;2.8600
1372.6330;-61.8600;-64.5300;2.6700
1372.8320;-62.0800;-64.6600;2.5800
1373.0310;-62.4000;-64.7000;2.3000
1373.2300;-62.5700;-64.9000;2.3300
1373.4290;-62.6100;-65.1500;2.5400
1373.6280;-63.0200;-65.3400;2.3200
1373.8270;-63.1700;-65.5100;2.3400
1374.0270;-63.3500;-65.6200;2.2700
1374.2260;-63.4300;-65.8200;2.3900
1374.4250;-63.4500;-66.0600;2.6100
1374.6240;-63.4700;-66.2300;2.7600
1374.8230;-63.6900;-66.5400;2.8500
1375.0220;-64.1000;-66.6900;2.5900
1375.2210;-64.4300;-66.8700;2.4400
1375.4200;-64.7000;-67.0300;2.3300
1375.6200;-64.8800;-67.2300;2.3500
1375.8190;-65.0200;-67.3400;2.3200
1376.0180;-65.5100;-67.5500;2.0400
1376.2170;-65.9200;-67.7200;1.8000
1376.4160;-66.3500;-68.0100;1.6600
1376.6150;-66.5100;-68.2900;1.7800
1376.8140;-66.7600;-68.4400;1.6800
1377.0130;-66.8900;-68.7600;1.8700
1377.2120;-67.3200;-69.0800;1.7600
1377.4120;-67.7500;-69.1500;1.4000
1377.6110;-68.1600;-69.2500;1.0900
1377.8100;-68.6400;-69.2800;0.6400
1378.0090;-68.9400;-69.4300;0.4900
1378.2080;-69.3300;-69.6300;0.3000
1378.4070;-69.7300;-69.8500;0.1200
1378.6060;-70.3100;-70.2800;-0.0300
1378.8050;-70.8600;-70.5400;-0.3200
1379.0040;-71.6600;-70.5900;-1.0700
1379.2040;-71.9600;-70.8700;-1.0900
1379.4030;-72.7300;-71.0200;-1.7100
1379.6020;-73.0700;-70.7300;-2.3400
1379.8010;-73.5800;-71.0400;-2.5400
1380.0000;-74.7500;-71.3100;-3.4400
1380.1990;-75.0500;-71.4500;-3.6000
1380.3980;-76.1300;-71.7300;-4.4000
1380.5970;-76.3600;-72.3200;-4.0400
1380.7970;-77.0400;-72.8500;-4.1900
1380.9960;-76.8300;-72.8900;-3.9400
1381.1950;-77.5900;-72.9500;-4.6400
1381.3940;-77.4000;-72.7500;-4.6500
1381.5930;-77.4200;-72.4600;-4.9600
1381.7920;-77.4500;-72.6100;-4.8400
1381.9910;-77.0300;-72.7200;-4.3100
1382.1900;-77.2500;-72.7500;-4.5000
1382.3890;-77.1400;-73.4100;-3.7300
1382.5890;-76.7500;-73.4600;-3.2900
1382.7880;-76.4200;-74.4200;-2.0000
1382.9870;-75.9600;-74.7300;-1.2300
1383.1860;-75.8200;-74.9500;-0.8700
1383.3850;-75.2900;-74.2800;-1.0100
1383.5840;-75.2600;-74.1500;-1.1100
1383.7830;-74.9100;-73.7600;-1.1500
1383.9820;-74.6200;-74.1100;-0.5100
1384.1810;-74.3600;-74.2600;-0.1000
1384.3810;-74.0900;-74.3000;0.2100
1384.5800;-73.7200;-74.0300;0.3100
1384.7790;-73.8100;-74.1000;0.2900
1384.9780;-73.4400;-74.8900;1.4500
1385.1770;-73.6800;-74.7000;1.0200
1385.3760;-73.9000;-75.1300;1.2300
1385.5750;-73.7700;-75.0800;1.3100
1385.7740;-74.2700;-75.3000;1.0300
1385.9740;-74.6600;-75.3000;0.6400
1386.1730;-75.1600;-75.3000;0.1400
1386.3720;-74.8800;-74.9700;0.0900
1386.5710;-74.8800;-75.3200;0.4400
1386.7700;-74.6900;-75.0900;0.4000
1386.9690;-75.1200;-75.1400;0.0200
1387.1680;-75.1600;-75.7600;0.6000
1387.3670;-75.7100;-75.5900;-0.1200
1387.5660;-76.0600;-76.0100;-0.0500
1387.7660;-76.9300;-75.9100;-1.0200
1387.9650;-77.2900;-76.4800;-0.8100
1388.1640;-78.0500;-76.9800;-1.0700
1388.3630;-78.9100;-76.8100;-2.1000
1388.5620;-78.0700;-76.5500;-1.5200
1388.7610;-78.0000;-77.0200;-0.9800
1388.9600;-78.2400;-76.8100;-1.4300
1389.1590;-79.6900;-76.3100;-3.3800
1389.3580;-80.1800;-76.5800;-3.6000
1389.5580;-80.3000;-76.6900;-3.6100
1389.7570;-82.8500;-77.7000;-5.1500
1389.9560;-81.4700;-77.7000;-3.7700
1390.1550;-81.8700;-76.6900;-5.1800
1390.3540;-82.2300;-76.5600;-5.6700
1390.5530;-81.4200;-76.6500;-4.7700
1390.7520;-83.3200;-76.8900;-6.4300
1390.9510;-83.0800;-76.6500;-6.4300
1391.1500;-89.1000;-78.2300;-10.8700
1391.3500;-81.8700;-76.9400;-4.9300
1391.5490;-82.5000;-77.5600;-4.9400
1391.7480;-83.0800;-77.1100;-5.9700
1391.9470;-83.5700;-77.0300;-6.5400
1392.1460;-81.6400;-77.1800;-4.4600
1392.3450;-82.1700;-77.4700;-4.7000
1392.5440;-82.2300;-78.4200;-3.8100
1392.7430;-83.2400;-79.2700;-3.9700
1392.9430;-82.3600;-78.4700;-3.8900
1393.1420;-81.9900;-77.7100;-4.2800
1393.3410;-81.6400;-77.8300;-3.8100
1393.5400;-82.7100;-77.7400;-4.9700
1393.7390;-80.9200;-77.4900;-3.4300
1393.9380;-82.4300;-78.6400;-3.7900
1394.1370;-80.6900;-78.6700;-2.0200
1394.3360;-82.1100;-78.6900;-3.4200
1394.5350;-81.0200;-78.3200;-2.7000
1394.7350;-80.9200;-77.3900;-3.5300
1394.9340;-80.8300;-78.1600;-2.6700
1395.1330;-81.7500;-78.2600;-3.4900
1395.3320;-81.6900;-78.8400;-2.8500
1395.5310;-81.3200;-79.2300;-2.0900
1395.7300;-80.5600;-78.9900;-1.5700
1395.9290;-79.9500;-78.3200;-1.6300
1396.1280;-81.6400;-77.9700;-3.6700
1396.3270;-83.7500;-77.6200;-6.1300
1396.5270;-82.5000;-78.4200;-4.0800
1396.7260;-84.3400;-79.5000;-4.8400
1396.9250;-80.8800;-79.7100;-1.1700
1397.1240;-85.5200;-79.3600;-6.1600
1397.3230;-83.3300;-79.4300;-3.9000
1397.5220;-83.2500;-79.1700;-4.0800
1397.7210;-89.7800;-78.9900;-10.7900
1397.9200;-84.7700;-78.3900;-6.3800
1398.1200;-85.0100;-77.4300;-7.5800
1398.3190;-85.0100;-77.8700;-7.1400
1398.5180;-84.2300;-79.0000;-5.2300
1398.7170;-83.3300;-78.3800;-4.9500
1398.9160;-83.3300;-78.3500;-4.9800
1399.1150;-84.1300;-78.6500;-5.4800
1399.3140;-83.5800;-79.2100;-4.3700
1399.5130;-84.3400;-78.3800;-5.9600
1399.7120;-84.3400;-79.8600;-4.4800
1399.9120;-83.7600;-80.3300;-3.4300
1400.1110;-81.2800;-80.0100;-1.2700
1400.3100;-82.9400;-78.5400;-4.4000
1400.5090;-84.4400;-79.0000;-5.4400
1400.7080;-81.8800;-78.7000;-3.1800
1400.9070;-84.2300;-79.6100;-4.6200
1401.1060;-80.4000;-78.0300;-2.3700
1401.3050;-82.4400;-79.8600;-2.5800
1401.5040;-82.9400;-79.0600;-3.8800
1401.7040;-82.1200;-79.6800;-2.4400
1401.9030;-84.5500;-80.4100;-4.1400
1402.1020;-82.5100;-80.0900;-2.4200
1402.3010;-85.8000;-80.4900;-5.3100
1402.5000;-82.5100;-78.1500;-4.3600
1402.6990;-85.5200;-79.9000;-5.6200
1402.8980;-82.7900;-78.7600;-4.0300
1403.0970;-81.8800;-78.4800;-3.4000
1403.2970;-81.2800;-79.0300;-2.2500
1403.4960;-81.8800;-79.9300;-1.9500
1403.6950;-82.8000;-79.0000;-3.8000
1403.8940;-82.2500;-79.7200;-2.5300
1404.0930;-84.1400;-79.5100;-4.6300
1404.2920;-81.8900;-80.7100;-1.1800
1404.4910;-81.8300;-78.5400;-3.2900
1404.6900;-83.9500;-79.6500;-4.3000
1404.8890;-82.3800;-78.4800;-3.9000
1405.0890;-81.4400;-81.1800;-0.2600
1405.2880;-83.5900;-79.9000;-3.6900
1405.4870;-83.3400;-80.0500;-3.2900
1405.6860;-83.2600;-79.7200;-3.5400
1405.8850;-85.0200;-78.6500;-6.3700
1406.0840;-83.1000;-78.9700;-4.1300
1406.2830;-81.3400;-79.0600;-2.2800
1406.4820;-80.3700;-79.2100;-1.1600
1406.6810;-83.1000;-79.3500;-3.7500
1406.8810;-80.2500;-78.9200;-1.3300
1407.0800;-82.5200;-78.3600;-4.1600
1407.2790;-82.5200;-80.1000;-2.4200
1407.4780;-87.1600;-80.9500;-6.2100
1407.6770;-82.7300;-79.2500;-3.4800
1407.8760;-82.5200;-79.5200;-3.0000
1408.0750;-82.3800;-78.9500;-3.4300
1408.2740;-81.4400;-79.2500;-2.1900
1408.4740;-82.5200;-78.1300;-4.3900
1408.6730;-86.7800;-78.8300;-7.9500
1408.8720;-81.7700;-78.4400;-3.3300
1409.0710;-83.2600;-78.9200;-4.3400
1409.2700;-83.1800;-78.4400;-4.7400
1409.4690;-91.0400;-80.3800;-10.6600
1409.6680;-84.1400;-80.0200;-4.1200
1409.8670;-81.6600;-79.5200;-2.1400
1410.0660;-81.2900;-79.2200;-2.0700
1410.2660;-85.0200;-78.2600;-6.7600
1410.4650;-85.9600;-79.5200;-6.4400
1410.6640;-84.5600;-79.0100;-5.5500
1410.8630;-88.5400;-78.6900;-9.8500
1411.0620;-83.5900;-78.8000;-4.7900
1411.2610;-82.0700;-79.6600;-2.4100
1411.4600;-83.5000;-78.8000;-4.7000
1411.6590;-81.8300;-78.2600;-3.5700
1411.8580;-81.4500;-78.1300;-3.3200
1412.0580;-83.3500;-77.9600;-5.3900
1412.2570;-83.0300;-78.0900;-4.9400
1412.4560;-83.1100;-78.8600;-4.2500
1412.6550;-82.9600;-78.0400;-4.9200
1412.8540;-83.3500;-79.4800;-3.8700
1413.0530;-85.4000;-78.7100;-6.6900
1413.2520;-83.7800;-78.5500;-5.2300
1413.4510;-83.3500;-77.6700;-5.6800
1413.6500;-79.9100;-78.5000;-1.4100
1413.8500;-82.5300;-78.1700;-4.3600
1414.0490;-82.7400;-78.6700;-4.0700
1414.2480;-81.8400;-79.2600;-2.5800
1414.4470;-81.8400;-78.9900;-2.8500
1414.6460;-83.2700;-79.7400;-3.5300
1414.8450;-82.5300;-79.4600;-3.0700
1415.0440;-89.1300;-78.4500;-10.6800
1415.2430;-89.8000;-78.6700;-11.1300
1415.4430;-85.5400;-79.2300;-6.3100
1415.6420;-83.7800;-78.9000;-4.8800
1415.8410;-83.8700;-78.7200;-5.1500
1416.0400;-84.0600;-78.1400;-5.9200
1416.2390;-85.6800;-78.7200;-6.9600
1416.4380;-81.5600;-78.1900;-3.3700
1416.6370;-81.1400;-78.9000;-2.2400
1416.8360;-82.3900;-79.7000;-2.6900
1417.0350;-85.0300;-78.8400;-6.1900
1417.2350;-82.4600;-77.8800;-4.5800
1417.4340;-85.9700;-77.4600;-8.5100
1417.6330;-82.5300;-78.1200;-4.4100
1417.8320;-85.2700;-78.0000;-7.2700
1418.0310;-82.4600;-77.4200;-5.0400
1418.2300;-81.3500;-77.8100;-3.5400
1418.4290;-82.9600;-78.2400;-4.7200
1418.6280;-81.0000;-77.6800;-3.3200
1418.8270;-83.6100;-78.6100;-5.0000
1419.0270;-83.1200;-79.1400;-3.9800
1419.2260;-82.7500;-78.0500;-4.7000
1419.4250;-82.4700;-78.6700;-3.8000
1419.6240;-82.2100;-78.6100;-3.6000
1419.8230;-83.4400;-78.0500;-5.3900
1420.0220;-82.5400;-78.4500;-4.0900
1420.2210;-80.6000;-78.1000;-2.5000
1420.4200;-81.3600;-78.2400;-3.1200
1420.6200;-85.5500;-77.5500;-8.0000
1420.8190;-82.2700;-78.4800;-3.7900
1421.0180;-81.7300;-78.0200;-3.7100
1421.2170;-83.7900;-78.1000;-5.6900
1421.4160;-83.7900;-78.2200;-5.5700
1421.6150;-86.2900;-78.5700;-7.7200
1421.8140;-82.8900;-77.9400;-4.9500
1422.0130;-81.7900;-77.7800;-4.0100
1422.2120;-84.9200;-78.4600;-6.4600
1422.4120;-80.8700;-77.6900;-3.1800
1422.6110;-82.1500;-78.1500;-4.0000
1422.8100;-81.2000;-77.7100;-3.4900
1423.0090;-80.9100;-78.6200;-2.2900
1423.2080;-82.4700;-78.1100;-4.3600
1423.4070;-82.0300;-77.8700;-4.1600
1423.6060;-82.0300;-78.4600;-3.5700
1423.8050;-82.0300;-78.1100;-3.9200
1424.0040;-82.5400;-78.2000;-4.3400
1424.2040;-80.7800;-78.8200;-1.9600
1424.4030;-81.8500;-78.7900;-3.0600
1424.6020;-81.6800;-77.9600;-3.7200
1424.8010;-82.8900;-77.0900;-5.8000
1425.0000;-83.2000;-77.1900;-6.0100
