Wavelength;Intensity_Meas;Intensity_Ref;Difference_dB
1200.0000;-61.3100;-57.3300;-3.9800
1200.1990;-61.2400;-57.3100;-3.9300
1200.3980;-61.1900;-57.2900;-3.9000
1200.5970;-61.1700;-57.2600;-3.9100
1200.7970;-61.1100;-57.2100;-3.9000
1200.9960;-61.0600;-57.2000;-3.8600
1201.1950;-61.0400;-57.1800;-3.8600
1201.3940;-61.0200;-57.1100;-3.9100
1201.5930;-60.9900;-57.0700;-3.9200
1201.7920;-60.9400;-57.0200;-3.9200
1201.9910;-60.9200;-56.9800;-3.9400
1202.1900;-60.8900;-56.9500;-3.9400
1202.3890;-60.8900;-56.8700;-4.0200
1202.5890;-60.9000;-56.8000;-4.1000
1202.7880;-60.8700;-56.7800;-4.0900
1202.9870;-60.8600;-56.7300;-4.1300
1203.1860;-60.8600;-56.6800;-4.1800
1203.3850;-60.8600;-56.6000;-4.2600
1203.5840;-60.8200;-56.5700;-4.2500
1203.7830;-60.8000;-56.5400;-4.2600
1203.9820;-60.8200;-56.4900;-4.3300
1204.1810;-60.8300;-56.4500;-4.3800
1204.3810;-60.8000;-56.3900;-4.4100
1204.5800;-60.7700;-56.3900;-4.3800
1204.7790;-60.7800;-56.3700;-4.4100
1204.9780;-60.8000;-56.3100;-4.4900
1205.1770;-60.8100;-56.2800;-4.5300
1205.3760;-60.7800;-56.2700;-4.5100
1205.5750;-60.7400;-56.2500;-4.4900
1205.7740;-60.7700;-56.2300;-4.5400
1205.9740;-60.7500;-56.2100;-4.5400
1206.1730;-60.6900;-56.2000;-4.4900
1206.3720;-60.6500;-56.1800;-4.4700
1206.5710;-60.6200;-56.1600;-4.4600
1206.7700;-60.5700;-56.1400;-4.4300
1206.9690;-60.5100;-56.1000;-4.4100
1207.1680;-60.4200;-56.1000;-4.3200
1207.3670;-60.3600;-56.0800;-4.2800
1207.5660;-60.3100;-56.0200;-4.2900
1207.7660;-60.2100;-56.0100;-4.2000
1207.9650;-60.1300;-55.9800;-4.1500
1208.1640;-60.0600;-55.9400;-4.1200
1208.3630;-60.0100;-55.8900;-4.1200
1208.5620;-59.9400;-55.8600;-4.0800
1208.7610;-59.8100;-55.8300;-3.9800
1208.9600;-59.7800;-55.7800;-4.0000
1209.1590;-59.7200;-55.7300;-3.9900
1209.3580;-59.6300;-55.6600;-3.9700
1209.5580;-59.5500;-55.6200;-3.9300
1209.7570;-59.4900;-55.6000;-3.8900
1209.9560;-59.4600;-55.5300;-3.9300
1210.1550;-59.3900;-55.4600;-3.9300
1210.3540;-59.3200;-55.4200;-3.9000
1210.5530;-59.2600;-55.3900;-3.8700
1210.7520;-59.2300;-55.3400;-3.8900
1210.9510;-59.2100;-55.2800;-3.9300
1211.1500;-59.1200;-55.2400;-3.8800
1211.3500;-59.0500;-55.2000;-3.8500
1211.5490;-59.0400;-55.1800;-3.8600
1211.7480;-59.0200;-55.1500;-3.8700
1211.9470;-58.9700;-55.0800;-3.8900
1212.1460;-58.9300;-55.0700;-3.8600
1212.3450;-58.9100;-55.0500;-3.8600
1212.5440;-58.9300;-55.0100;-3.9200
1212.7430;-58.8900;-54.9800;-3.9100
1212.9430;-58.8600;-54.9500;-3.9100
1213.1420;-58.8300;-54.9200;-3.9100
1213.3410;-58.8500;-54.8900;-3.9600
1213.5400;-58.8600;-54.8700;-3.9900
1213.7390;-58.8200;-54.8500;-3.9700
1213.9380;-58.8300;-54.8000;-4.0300
1214.1370;-58.8200;-54.7900;-4.0300
1214.3360;-58.8200;-54.7300;-4.0900
1214.5350;-58.7900;-54.7000;-4.0900
1214.7350;-58.7600;-54.6800;-4.0800
1214.9340;-58.8000;-54.6300;-4.1700
1215.1330;-58.7800;-54.5800;-4.2000
1215.3320;-58.7400;-54.5300;-4.2100
1215.5310;-58.7100;-54.4900;-4.2200
1215.7300;-58.7100;-54.4500;-4.2600
1215.9290;-58.7000;-54.3900;-4.3100
1216.1280;-58.6500;-54.3300;-4.3200
1216.3270;-58.6100;-54.2600;-4.3500
1216.5270;-58.6000;-54.2300;-4.3700
1216.7260;-58.5900;-54.1800;-4.4100
1216.9250;-58.5700;-54.1000;-4.4700
1217.1240;-58.5000;-54.0500;-4.4500
1217.3230;-58.4900;-53.9900;-4.5000
1217.5220;-58.5000;-53.9400;-4.5600
1217.7210;-58.4700;-53.9000;-4.5700
1217.9200;-58.4400;-53.8400;-4.6000
1218.1200;-58.4000;-53.8000;-4.6000
1218.3190;-58.4300;-53.7500;-4.6800
1218.5180;-58.4200;-53.7100;-4.7100
1218.7170;-58.3600;-53.6600;-4.7000
1218.9160;-58.3700;-53.6300;-4.7400
1219.1150;-58.3700;-53.6100;-4.7600
1219.3140;-58.3600;-53.5500;-4.8100
1219.5130;-58.3200;-53.5300;-4.7900
1219.7120;-58.2900;-53.5100;-4.7800
1219.9120;-58.3100;-53.4600;-4.8500
1220.1110;-58.2900;-53.4300;-4.8600
1220.3100;-58.2400;-53.3900;-4.8500
1220.5090;-58.1700;-53.3500;-4.8200
1220.7080;-58.1700;-53.3300;-4.8400
1220.9070;-58.1600;-53.2800;-4.8800
1221.1060;-58.0600;-53.2200;-4.8400
1221.3050;-57.9900;-53.1900;-4.8000
1221.5040;-57.9300;-53.1400;-4.7900
1221.7040;-57.8700;-53.0800;-4.7900
1221.9030;-57.7700;-53.0300;-4.7400
1222.1020;-57.6600;-52.9700;-4.6900
1222.3010;-57.6100;-52.9100;-4.7000
1222.5000;-57.5100;-52.8400;-4.6700
1222.6990;-57.4000;-52.7900;-4.6100
1222.8980;-57.2900;-52.7100;-4.5800
1223.0970;-57.1900;-52.6500;-4.5400
1223.2970;-57.1000;-52.5800;-4.5200
1223.4960;-56.9700;-52.5000;-4.4700
1223.6950;-56.8300;-52.4500;-4.3800
1223.8940;-56.7600;-52.3800;-4.3800
1224.0930;-56.6600;-52.3100;-4.3500
1224.2920;-56.5400;-52.2400;-4.3000
1224.4910;-56.3900;-52.1800;-4.2100
1224.6900;-56.2900;-52.1300;-4.1600
1224.8890;-56.2000;-52.0500;-4.1500
1225.0890;-56.0600;-52.0100;-4.0500
1225.2880;-55.9100;-51.9300;-3.9800
1225.4870;-55.7600;-51.8700;-3.8900
1225.6860;-55.6800;-51.8400;-3.8400
1225.8850;-55.5500;-51.7800;-3.7700
1226.0840;-55.3900;-51.7300;-3.6600
1226.2830;-55.3100;-51.6800;-3.6300
1226.4820;-55.1900;-51.6200;-3.5700
1226.6810;-55.0800;-51.5900;-3.4900
1226.8810;-54.9800;-51.5400;-3.4400
1227.0800;-54.9000;-51.4800;-3.4200
1227.2790;-54.8500;-51.4400;-3.4100
1227.4780;-54.7700;-51.3800;-3.3900
1227.6770;-54.7200;-51.3400;-3.3800
1227.8760;-54.7100;-51.2700;-3.4400
1228.0750;-54.7000;-51.2200;-3.4800
1228.2740;-54.7100;-51.1500;-3.5600
1228.4740;-54.7000;-51.0800;-3.6200
1228.6730;-54.7500;-51.0300;-3.7200
1228.8720;-54.8100;-50.9500;-3.8600
1229.0710;-54.8300;-50.8900;-3.9400
1229.2700;-54.8900;-50.8100;-4.0800
1229.4690;-54.9500;-50.7200;-4.2300
1229.6680;-55.0100;-50.6700;-4.3400
1229.8670;-55.0700;-50.5700;-4.5000
1230.0660;-55.1200;-50.4900;-4.6300
1230.2660;-55.1600;-50.4100;-4.7500
1230.4650;-55.1900;-50.3300;-4.8600
1230.6640;-55.1800;-50.2600;-4.9200
1230.8630;-55.2000;-50.1800;-5.0200
1231.0620;-55.1800;-50.1100;-5.0700
1231.2610;-55.1600;-50.0500;-5.1100
1231.4600;-55.0700;-49.9800;-5.0900
1231.6590;-54.9600;-49.9300;-5.0300
1231.8580;-54.8600;-49.8500;-5.0100
1232.0580;-54.7000;-49.8100;-4.8900
1232.2570;-54.5200;-49.7400;-4.7800
1232.4560;-54.3200;-49.6800;-4.6400
1232.6550;-54.1200;-49.6400;-4.4800
1232.8540;-53.9100;-49.5700;-4.3400
1233.0530;-53.6800;-49.5300;-4.1500
1233.2520;-53.4700;-49.4600;-4.0100
1233.4510;-53.2700;-49.4100;-3.8600
1233.6500;-53.0800;-49.3700;-3.7100
1233.8500;-52.9000;-49.3000;-3.6000
1234.0490;-52.7600;-49.2500;-3.5100
1234.2480;-52.6400;-49.1800;-3.4600
1234.4470;-52.5200;-49.1200;-3.4000
1234.6460;-52.4400;-49.0600;-3.3800
1234.8450;-52.4000;-48.9900;-3.4100
1235.0440;-52.3700;-48.9300;-3.4400
1235.2430;-52.3600;-48.8400;-3.5200
1235.4430;-52.3400;-48.7600;-3.5800
1235.6420;-52.3600;-48.6900;-3.6700
1235.8410;-52.4000;-48.6000;-3.8000
1236.0400;-52.4200;-48.5300;-3.8900
1236.2390;-52.4600;-48.4200;-4.0400
1236.4380;-52.4800;-48.3300;-4.1500
1236.6370;-52.5300;-48.2500;-4.2800
1236.8360;-52.5300;-48.1500;-4.3800
1237.0350;-52.5300;-48.0800;-4.4500
1237.2350;-52.5400;-47.9900;-4.5500
1237.4340;-52.5100;-47.9000;-4.6100
1237.6330;-52.4700;-47.8100;-4.6600
1237.8320;-52.4200;-47.7400;-4.6800
1238.0310;-52.3500;-47.6600;-4.6900
1238.2300;-52.2900;-47.5700;-4.7200
1238.4290;-52.1700;-47.5000;-4.6700
1238.6280;-52.0700;-47.4200;-4.6500
1238.8270;-51.9700;-47.3400;-4.6300
1239.0270;-51.8600;-47.2700;-4.5900
1239.2260;-51.7300;-47.1800;-4.5500
1239.4250;-51.6100;-47.1100;-4.5000
1239.6240;-51.5100;-47.0300;-4.4800
1239.8230;-51.3800;-46.9400;-4.4400
1240.0220;-51.2600;-46.8700;-4.3900
1240.2210;-51.1700;-46.7700;-4.4000
1240.4200;-51.0700;-46.6900;-4.3800
1240.6200;-50.9700;-46.5900;-4.3800
1240.8190;-50.8600;-46.4900;-4.3700
1241.0180;-50.7700;-46.3800;-4.3900
1241.2170;-50.7000;-46.2700;-4.4300
1241.4160;-50.5800;-46.1700;-4.4100
1241.6150;-50.4800;-46.0300;-4.4500
1241.8140;-50.4000;-45.9100;-4.4900
1242.0130;-50.3000;-45.8000;-4.5000
1242.2120;-50.2000;-45.6900;-4.5100
1242.4120;-50.0900;-45.5600;-4.5300
1242.6110;-49.9900;-45.4200;-4.5700
1242.8100;-49.8600;-45.3100;-4.5500
1243.0090;-49.7300;-45.1700;-4.5600
1243.2080;-49.6400;-45.0500;-4.5900
1243.4070;-49.5200;-44.9200;-4.6000
1243.6060;-49.4000;-44.7900;-4.6100
1243.8050;-49.2900;-44.6800;-4.6100
1244.0040;-49.1900;-44.5400;-4.6500
1244.2040;-49.1000;-44.4100;-4.6900
1244.4030;-49.0100;-44.2900;-4.7200
1244.6020;-48.9400;-44.1600;-4.7800
1244.8010;-48.8700;-44.0500;-4.8200
1245.0000;-48.8100;-43.9100;-4.9000
1245.1990;-48.7600;-43.7900;-4.9700
1245.3980;-48.7000;-43.6700;-5.0300
1245.5970;-48.6400;-43.5300;-5.1100
1245.7970;-48.5500;-43.4100;-5.1400
1245.9960;-48.4400;-43.2600;-5.1800
1246.1950;-48.3400;-43.1400;-5.2000
1246.3940;-48.1900;-43.0000;-5.1900
1246.5930;-47.9900;-42.8500;-5.1400
1246.7920;-47.7700;-42.7300;-5.0400
1246.9910;-47.5100;-42.5600;-4.9500
1247.1900;-47.2200;-42.4200;-4.8000
1247.3890;-46.8800;-42.2700;-4.6100
1247.5890;-46.5400;-42.1100;-4.4300
1247.7880;-46.1700;-41.9700;-4.2000
1247.9870;-45.7300;-41.8000;-3.9300
1248.1860;-45.4100;-41.6500;-3.7600
1248.3850;-45.0400;-41.5000;-3.5400
1248.5840;-44.6800;-41.3300;-3.3500
1248.7830;-44.3200;-41.1800;-3.1400
1248.9820;-44.0000;-41.0200;-2.9800
1249.1810;-43.6900;-40.8700;-2.8200
1249.3810;-43.4000;-40.7200;-2.6800
1249.5800;-43.1400;-40.5600;-2.5800
1249.7790;-42.9000;-40.4200;-2.4800
1249.9780;-42.6800;-40.2500;-2.4300
1250.1770;-42.4900;-40.1100;-2.3800
1250.3760;-42.3400;-39.9700;-2.3700
1250.5750;-42.2100;-39.8100;-2.4000
1250.7740;-42.0800;-39.6700;-2.4100
1250.9740;-42.0000;-39.5200;-2.4800
1251.1730;-41.9200;-39.3800;-2.5400
1251.3720;-41.8500;-39.2300;-2.6200
1251.5710;-41.8100;-39.0900;-2.7200
1251.7700;-41.7600;-38.9500;-2.8100
1251.9690;-41.7300;-38.7900;-2.9400
1252.1680;-41.6700;-38.6400;-3.0300
1252.3670;-41.6300;-38.4700;-3.1600
1252.5660;-41.6000;-38.3200;-3.2800
1252.7660;-41.5400;-38.1700;-3.3700
1252.9650;-41.4900;-38.0100;-3.4800
1253.1640;-41.4000;-37.8500;-3.5500
1253.3630;-41.3200;-37.6800;-3.6400
1253.5620;-41.2300;-37.5200;-3.7100
1253.7610;-41.1100;-37.3500;-3.7600
1253.9600;-41.0100;-37.1900;-3.8200
1254.1590;-40.8600;-37.0300;-3.8300
1254.3580;-40.7100;-36.8500;-3.8600
1254.5580;-40.5800;-36.7000;-3.8800
1254.7570;-40.4200;-36.5400;-3.8800
1254.9560;-40.2600;-36.3700;-3.8900
1255.1550;-40.0900;-36.2300;-3.8600
1255.3540;-39.9100;-36.0600;-3.8500
1255.5530;-39.7500;-35.9200;-3.8300
1255.7520;-39.5600;-35.7400;-3.8200
1255.9510;-39.4000;-35.6300;-3.7700
1256.1500;-39.2100;-35.4900;-3.7200
1256.3500;-39.0200;-35.3400;-3.6800
1256.5490;-38.8400;-35.2200;-3.6200
1256.7480;-38.6400;-35.0700;-3.5700
1256.9470;-38.4600;-34.9400;-3.5200
1257.1460;-38.2400;-34.8000;-3.4400
1257.3450;-38.0400;-34.6600;-3.3800
1257.5440;-37.8400;-34.5400;-3.3000
1257.7430;-37.6200;-34.3900;-3.2300
1257.9430;-37.4000;-34.2500;-3.1500
1258.1420;-37.1900;-34.1200;-3.0700
1258.3410;-36.9600;-33.9700;-2.9900
1258.5400;-36.7400;-33.8400;-2.9000
1258.7390;-36.5000;-33.6800;-2.8200
1258.9380;-36.2900;-33.5400;-2.7500
1259.1370;-36.0500;-33.3900;-2.6600
1259.3360;-35.8000;-33.2400;-2.5600
1259.5350;-35.6200;-33.1000;-2.5200
1259.7350;-35.4000;-32.9400;-2.4600
1259.9340;-35.1800;-32.8000;-2.3800
1260.1330;-34.9700;-32.6500;-2.3200
1260.3320;-34.7800;-32.4900;-2.2900
1260.5310;-34.5800;-32.3600;-2.2200
1260.7300;-34.3900;-32.2000;-2.1900
1260.9290;-34.1900;-32.0700;-2.1200
1261.1280;-34.0000;-31.9200;-2.0800
1261.3270;-33.8300;-31.7700;-2.0600
1261.5270;-33.6600;-31.6500;-2.0100
1261.7260;-33.5000;-31.5100;-1.9900
1261.9250;-33.3200;-31.3800;-1.9400
1262.1240;-33.1600;-31.2400;-1.9200
1262.3230;-33.0200;-31.1100;-1.9100
1262.5220;-32.8600;-31.0000;-1.8600
1262.7210;-32.7200;-30.8600;-1.8600
1262.9200;-32.5600;-30.7400;-1.8200
1263.1200;-32.4200;-30.6000;-1.8200
1263.3190;-32.2800;-30.4700;-1.8100
1263.5180;-32.1400;-30.3600;-1.7800
1263.7170;-32.0000;-30.2100;-1.7900
1263.9160;-31.8500;-30.0900;-1.7600
1264.1150;-31.7100;-29.9500;-1.7600
1264.3140;-31.5700;-29.8100;-1.7600
1264.5130;-31.4300;-29.6900;-1.7400
1264.7120;-31.2900;-29.5500;-1.7400
1264.9120;-31.1400;-29.4200;-1.7200
1265.1110;-31.0000;-29.2700;-1.7300
1265.3100;-30.8700;-29.1400;-1.7300
1265.5090;-30.7400;-29.0100;-1.7300
1265.7080;-30.6200;-28.8700;-1.7500
1265.9070;-30.4900;-28.7500;-1.7400
1266.1060;-30.3600;-28.6100;-1.7500
1266.3050;-30.2500;-28.4800;-1.7700
1266.5040;-30.1500;-28.3700;-1.7800
1266.7040;-30.0600;-28.2400;-1.8200
1266.9030;-29.9700;-28.1200;-1.8500
1267.1020;-29.8900;-27.9900;-1.9000
1267.3010;-29.8200;-27.8700;-1.9500
1267.5000;-29.7700;-27.7700;-2.0000
1267.6990;-29.7300;-27.6500;-2.0800
1267.8980;-29.6900;-27.5500;-2.1400
1268.0970;-29.6800;-27.4300;-2.2500
1268.2970;-29.6800;-27.3200;-2.3600
1268.4960;-29.7000;-27.2200;-2.4800
1268.6950;-29.7400;-27.1000;-2.6400
1268.8940;-29.7700;-27.0000;-2.7700
1269.0930;-29.8400;-26.8800;-2.9600
1269.2920;-29.9400;-26.7700;-3.1700
1269.4910;-30.0600;-26.6600;-3.4000
1269.6900;-30.2100;-26.5400;-3.6700
1269.8890;-30.3700;-26.4400;-3.9300
1270.0890;-30.5700;-26.3100;-4.2600
1270.2880;-30.8100;-26.2000;-4.6100
1270.4870;-31.0900;-26.0700;-5.0200
1270.6860;-31.4300;-25.9700;-5.4600
1270.8850;-31.7800;-25.8500;-5.9300
1271.0840;-32.1900;-25.7300;-6.4600
1271.2830;-32.6500;-25.6300;-7.0200
1271.4820;-33.1500;-25.5000;-7.6500
1271.6810;-33.7000;-25.3900;-8.3100
1271.8810;-34.2600;-25.2800;-8.9800
1272.0800;-34.8300;-25.1700;-9.6600
1272.2790;-35.3300;-25.0600;-10.2700
1272.4780;-35.7100;-24.9500;-10.7600
1272.6770;-35.9100;-24.8500;-11.0600
1272.8760;-35.8600;-24.7400;-11.1200
1273.0750;-35.5500;-24.6500;-10.9000
1273.2740;-34.9900;-24.5600;-10.4300
1273.4740;-34.2900;-24.4500;-9.8400
1273.6730;-33.5100;-24.3700;-9.1400
1273.8720;-32.6800;-24.2700;-8.4100
1274.0710;-31.8900;-24.1800;-7.7100
1274.2700;-31.1100;-24.0900;-7.0200
1274.4690;-30.3800;-23.9900;-6.3900
1274.6680;-29.7100;-23.9100;-5.8000
1274.8670;-29.0900;-23.8100;-5.2800
1275.0660;-28.5300;-23.7200;-4.8100
1275.2660;-28.0100;-23.6400;-4.3700
1275.4650;-27.5500;-23.5400;-4.0100
1275.6640;-27.1300;-23.4600;-3.6700
1275.8630;-26.7600;-23.3600;-3.4000
1276.0620;-26.4400;-23.2700;-3.1700
1276.2610;-26.1500;-23.1800;-2.9700
1276.4600;-25.8800;-23.0900;-2.7900
1276.6590;-25.6900;-23.0000;-2.6900
1276.8580;-25.5300;-22.9000;-2.6300
1277.0580;-25.4000;-22.8200;-2.5800
1277.2570;-25.3000;-22.7300;-2.5700
1277.4560;-25.2400;-22.6400;-2.6000
1277.6550;-25.2000;-22.5700;-2.6300
1277.8540;-25.2000;-22.4700;-2.7300
1278.0530;-25.2000;-22.4000;-2.8000
1278.2520;-25.2300;-22.3100;-2.9200
1278.4510;-25.2900;-22.2300;-3.0600
1278.6500;-25.3500;-22.1600;-3.1900
1278.8500;-25.4300;-22.0700;-3.3600
1279.0490;-25.4900;-22.0000;-3.4900
1279.2480;-25.5700;-21.9200;-3.6500
1279.4470;-25.6400;-21.8400;-3.8000
1279.6460;-25.6900;-21.7700;-3.9200
1279.8450;-25.7400;-21.6800;-4.0600
1280.0440;-25.7500;-21.6200;-4.1300
1280.2430;-25.7400;-21.5400;-4.2000
1280.4430;-25.7200;-21.4600;-4.2600
1280.6420;-25.6600;-21.3900;-4.2700
1280.8410;-25.6000;-21.3100;-4.2900
1281.0400;-25.5000;-21.2400;-4.2600
1281.2390;-25.3900;-21.1600;-4.2300
1281.4380;-25.2800;-21.0800;-4.2000
1281.6370;-25.1400;-21.0100;-4.1300
1281.8360;-25.0200;-20.9300;-4.0900
1282.0350;-24.8900;-20.8700;-4.0200
1282.2350;-24.7700;-20.7800;-3.9900
1282.4340;-24.6500;-20.7100;-3.9400
1282.6330;-24.5600;-20.6500;-3.9100
1282.8320;-24.4900;-20.5800;-3.9100
1283.0310;-24.4200;-20.5200;-3.9000
1283.2300;-24.3800;-20.4500;-3.9300
1283.4290;-24.3500;-20.3900;-3.9600
1283.6280;-24.3400;-20.3200;-4.0200
1283.8270;-24.3800;-20.2600;-4.1200
1284.0270;-24.4100;-20.2100;-4.2000
1284.2260;-24.4800;-20.1400;-4.3400
1284.4250;-24.5600;-20.0900;-4.4700
1284.6240;-24.6700;-20.0300;-4.6400
1284.8230;-24.8000;-19.9700;-4.8300
1285.0220;-24.9300;-19.9300;-5.0000
1285.2210;-25.1000;-19.8600;-5.2400
1285.4200;-25.2500;-19.8100;-5.4400
1285.6200;-25.4200;-19.7500;-5.6700
1285.8190;-25.6000;-19.6900;-5.9100
1286.0180;-25.7500;-19.6500;-6.1000
1286.2170;-25.9100;-19.5800;-6.3300
1286.4160;-26.0200;-19.5400;-6.4800
1286.6150;-26.1100;-19.4900;-6.6200
1286.8140;-26.1600;-19.4300;-6.7300
1287.0130;-26.1400;-19.3900;-6.7500
1287.2120;-26.0800;-19.3300;-6.7500
1287.4120;-25.9400;-19.2900;-6.6500
1287.6110;-25.7600;-19.2300;-6.5300
1287.8100;-25.5100;-19.1800;-6.3300
1288.0090;-25.2200;-19.1400;-6.0800
1288.2080;-24.9100;-19.0800;-5.8300
1288.4070;-24.5400;-19.0500;-5.4900
1288.6060;-24.1500;-19.0000;-5.1500
1288.8050;-23.7600;-18.9600;-4.8000
1289.0040;-23.3600;-18.9200;-4.4400
1289.2040;-22.9800;-18.8700;-4.1100
1289.4030;-22.5900;-18.8500;-3.7400
1289.6020;-22.2300;-18.8000;-3.4300
1289.8010;-21.8700;-18.7600;-3.1100
1290.0000;-21.5300;-18.7200;-2.8100
1290.1990;-21.2200;-18.6800;-2.5400
1290.3980;-20.9100;-18.6600;-2.2500
1290.5970;-20.6500;-18.6200;-2.0300
1290.7970;-20.3900;-18.5900;-1.8000
1290.9960;-20.1500;-18.5300;-1.6200
1291.1950;-19.9400;-18.5000;-1.4400
1291.3940;-19.7500;-18.4700;-1.2800
1291.5930;-19.5900;-18.4100;-1.1800
1291.7920;-19.4500;-18.3900;-1.0600
1291.9910;-19.3400;-18.3400;-1.0000
1292.1900;-19.2500;-18.3100;-0.9400
1292.3890;-19.1900;-18.2700;-0.9200
1292.5890;-19.1500;-18.2200;-0.9300
1292.7880;-19.1300;-18.2000;-0.9300
1292.9870;-19.1500;-18.1500;-1.0000
1293.1860;-19.1900;-18.1300;-1.0600
1293.3850;-19.2500;-18.0900;-1.1600
1293.5840;-19.3400;-18.0500;-1.2900
1293.7830;-19.4500;-18.0200;-1.4300
1293.9820;-19.6100;-17.9900;-1.6200
1294.1810;-19.7800;-17.9700;-1.8100
1294.3810;-19.9900;-17.9300;-2.0600
1294.5800;-20.2200;-17.8900;-2.3300
1294.7790;-20.4800;-17.8700;-2.6100
1294.9780;-20.7900;-17.8400;-2.9500
1295.1770;-21.1200;-17.8200;-3.3000
1295.3760;-21.4900;-17.7900;-3.7000
1295.5750;-21.8900;-17.7600;-4.1300
1295.7740;-22.3400;-17.7300;-4.6100
1295.9740;-22.8300;-17.6900;-5.1400
1296.1730;-23.3600;-17.6800;-5.6800
1296.3720;-23.9500;-17.6500;-6.3000
1296.5710;-24.5700;-17.6300;-6.9400
1296.7700;-25.2500;-17.6000;-7.6500
1296.9690;-25.9800;-17.5800;-8.4000
1297.1680;-26.7500;-17.5700;-9.1800
1297.3670;-27.5600;-17.5500;-10.0100
1297.5660;-28.5000;-17.5300;-10.9700
1297.7660;-29.1300;-17.5100;-11.6200
1297.9650;-29.7800;-17.4900;-12.2900
1298.1640;-30.2600;-17.4800;-12.7800
1298.3630;-30.4600;-17.4700;-12.9900
1298.5620;-30.3400;-17.4600;-12.8800
1298.7610;-29.9500;-17.4400;-12.5100
1298.9600;-29.3200;-17.4400;-11.8800
1299.1590;-28.5900;-17.4300;-11.1600
1299.3580;-27.8000;-17.4200;-10.3800
1299.5580;-27.0000;-17.4200;-9.5800
1299.7570;-26.2400;-17.4100;-8.8300
1299.9560;-25.3900;-17.4100;-7.9800
1300.1550;-24.8500;-17.4000;-7.4500
1300.3540;-24.2200;-17.4000;-6.8200
1300.5530;-23.6400;-17.4000;-6.2400
1300.7520;-23.0900;-17.3900;-5.7000
1300.9510;-22.6000;-17.4000;-5.2000
1301.1500;-22.1600;-17.4000;-4.7600
1301.3500;-21.7400;-17.4000;-4.3400
1301.5490;-21.3800;-17.4100;-3.9700
1301.7480;-21.0200;-17.4100;-3.6100
1301.9470;-20.7100;-17.4200;-3.2900
1302.1460;-20.4300;-17.4200;-3.0100
1302.3450;-20.1600;-17.4300;-2.7300
1302.5440;-19.9500;-17.4300;-2.5200
1302.7430;-19.7300;-17.4300;-2.3000
1302.9430;-19.5500;-17.4400;-2.1100
1303.1420;-19.4000;-17.4400;-1.9600
1303.3410;-19.2600;-17.4600;-1.8000
1303.5400;-19.1600;-17.4600;-1.7000
1303.7390;-19.0500;-17.4600;-1.5900
1303.9380;-18.9800;-17.4700;-1.5100
1304.1370;-18.9300;-17.4800;-1.4500
1304.3360;-18.8900;-17.5000;-1.3900
1304.5350;-18.9000;-17.5000;-1.4000
1304.7350;-18.8900;-17.5100;-1.3800
1304.9340;-18.9300;-17.5200;-1.4100
1305.1330;-18.9800;-17.5300;-1.4500
1305.3320;-19.0400;-17.5500;-1.4900
1305.5310;-19.1500;-17.5600;-1.5900
1305.7300;-19.2500;-17.5800;-1.6700
1305.9290;-19.3900;-17.5800;-1.8100
1306.1280;-19.5400;-17.6000;-1.9400
1306.3270;-19.7200;-17.6100;-2.1100
1306.5270;-19.9300;-17.6300;-2.3000
1306.7260;-20.1500;-17.6500;-2.5000
1306.9250;-20.4100;-17.6500;-2.7600
1307.1240;-20.6900;-17.6800;-3.0100
1307.3230;-20.9900;-17.6900;-3.3000
1307.5220;-21.3300;-17.7100;-3.6200
1307.7210;-21.6900;-17.7400;-3.9500
1307.9200;-22.0900;-17.7500;-4.3400
1308.1200;-22.5200;-17.7900;-4.7300
1308.3190;-22.9900;-17.8000;-5.1900
1308.5180;-23.4900;-17.8400;-5.6500
1308.7170;-24.0300;-17.8800;-6.1500
1308.9160;-24.6200;-17.8900;-6.7300
1309.1150;-25.2300;-17.9400;-7.2900
1309.3140;-25.8700;-17.9600;-7.9100
1309.5130;-26.5400;-18.0100;-8.5300
1309.7120;-27.2000;-18.0500;-9.1500
1309.9120;-27.8600;-18.0700;-9.7900
1310.1110;-28.5800;-18.1300;-10.4500
1310.3100;-28.9900;-18.1600;-10.8300
1310.5090;-29.3500;-18.2100;-11.1400
1310.7080;-29.5400;-18.2500;-11.2900
1310.9070;-29.5200;-18.2900;-11.2300
1311.1060;-29.3000;-18.3500;-10.9500
1311.3050;-28.9200;-18.3800;-10.5400
1311.5040;-28.4300;-18.4500;-9.9800
1311.7040;-27.8600;-18.4800;-9.3800
1311.9030;-27.2700;-18.5300;-8.7400
1312.1020;-26.6900;-18.5800;-8.1100
1312.3010;-26.0300;-18.6300;-7.4000
1312.5000;-25.6000;-18.7000;-6.9000
1312.6990;-25.1100;-18.7400;-6.3700
1312.8980;-24.6400;-18.8000;-5.8400
1313.0970;-24.2200;-18.8500;-5.3700
1313.2970;-23.8300;-18.9000;-4.9300
1313.4960;-23.4900;-18.9800;-4.5100
1313.6950;-23.1800;-19.0300;-4.1500
1313.8940;-22.8900;-19.0900;-3.8000
1314.0930;-22.6600;-19.1400;-3.5200
1314.2920;-22.4400;-19.2000;-3.2400
1314.4910;-22.2600;-19.2700;-2.9900
1314.6900;-22.1000;-19.3200;-2.7800
1314.8890;-21.9600;-19.3800;-2.5800
1315.0890;-21.8600;-19.4300;-2.4300
1315.2880;-21.7700;-19.5000;-2.2700
1315.4870;-21.7200;-19.5500;-2.1700
1315.6860;-21.6800;-19.6100;-2.0700
1315.8850;-21.6600;-19.6700;-1.9900
1316.0840;-21.6600;-19.7300;-1.9300
1316.2830;-21.6800;-19.8000;-1.8800
1316.4820;-21.7400;-19.8500;-1.8900
1316.6810;-21.7800;-19.9200;-1.8600
1316.8810;-21.8600;-19.9800;-1.8800
1317.0800;-21.9600;-20.0500;-1.9100
1317.2790;-22.0500;-20.1200;-1.9300
1317.4780;-22.1900;-20.1900;-2.0000
1317.6770;-22.3100;-20.2600;-2.0500
1317.8760;-22.4500;-20.3200;-2.1300
1318.0750;-22.5900;-20.3900;-2.2000
1318.2740;-22.7500;-20.4600;-2.2900
1318.4740;-22.9200;-20.5300;-2.3900
1318.6730;-23.0900;-20.6200;-2.4700
1318.8720;-23.2700;-20.6800;-2.5900
1319.0710;-23.4400;-20.7800;-2.6600
1319.2700;-23.6100;-20.8500;-2.7600
1319.4690;-23.7900;-20.9300;-2.8600
1319.6680;-23.9600;-21.0200;-2.9400
1319.8670;-24.1300;-21.1000;-3.0300
1320.0660;-24.2700;-21.2000;-3.0700
1320.2660;-24.4200;-21.2800;-3.1400
1320.4650;-24.5600;-21.3700;-3.1900
1320.6640;-24.6900;-21.4700;-3.2200
1320.8630;-24.8000;-21.5600;-3.2400
1321.0620;-24.8900;-21.6600;-3.2300
1321.2610;-24.9800;-21.7500;-3.2300
1321.4600;-25.0500;-21.8600;-3.1900
1321.6590;-25.1100;-21.9500;-3.1600
1321.8580;-25.1700;-22.0500;-3.1200
1322.0580;-25.1900;-22.1600;-3.0300
1322.2570;-25.2300;-22.2600;-2.9700
1322.4560;-25.2500;-22.3700;-2.8800
1322.6550;-25.2600;-22.4700;-2.7900
1322.8540;-25.2800;-22.5900;-2.6900
1323.0530;-25.2800;-22.6900;-2.5900
1323.2520;-25.3100;-22.8100;-2.5000
1323.4510;-25.3100;-22.9200;-2.3900
1323.6500;-25.3200;-23.0300;-2.2900
1323.8500;-25.3400;-23.1600;-2.1800
1324.0490;-25.3600;-23.2700;-2.0900
1324.2480;-25.4000;-23.4000;-2.0000
1324.4470;-25.4200;-23.5100;-1.9100
1324.6460;-25.4600;-23.6300;-1.8300
1324.8450;-25.4900;-23.7600;-1.7300
1325.0440;-25.5400;-23.8700;-1.6700
1325.2430;-25.6100;-24.0100;-1.6000
1325.4430;-25.6700;-24.1200;-1.5500
1325.6420;-25.7600;-24.2600;-1.5000
1325.8410;-25.8300;-24.3900;-1.4400
1326.0400;-25.9100;-24.5200;-1.3900
1326.2390;-26.0100;-24.6500;-1.3600
1326.4380;-26.1000;-24.7800;-1.3200
1326.6370;-26.2100;-24.9100;-1.3000
1326.8360;-26.3100;-25.0400;-1.2700
1327.0350;-26.4300;-25.1800;-1.2500
1327.2350;-26.5500;-25.3200;-1.2300
1327.4340;-26.6700;-25.4500;-1.2200
1327.6330;-26.8100;-25.6000;-1.2100
1327.8320;-26.9400;-25.7200;-1.2200
1328.0310;-27.0900;-25.8700;-1.2200
1328.2300;-27.2300;-26.0100;-1.2200
1328.4290;-27.3800;-26.1500;-1.2300
1328.6280;-27.5500;-26.3000;-1.2500
1328.8270;-27.7100;-26.4400;-1.2700
1329.0270;-27.9000;-26.6000;-1.3000
1329.2260;-28.0600;-26.7300;-1.3300
1329.4250;-28.2600;-26.8900;-1.3700
1329.6240;-28.5000;-27.0300;-1.4700
1329.8230;-28.6700;-27.1700;-1.5000
1330.0220;-28.8900;-27.3300;-1.5600
1330.2210;-29.1300;-27.4700;-1.6600
1330.4200;-29.3800;-27.6300;-1.7500
1330.6200;-29.6400;-27.7700;-1.8700
1330.8190;-29.9400;-27.9200;-2.0200
1331.0180;-30.2400;-28.0700;-2.1700
1331.2170;-30.5700;-28.2300;-2.3400
1331.4160;-30.9300;-28.3900;-2.5400
1331.6150;-31.3000;-28.5700;-2.7300
1331.8140;-31.7000;-28.7100;-2.9900
1332.0130;-32.1300;-28.8500;-3.2800
1332.2120;-32.5900;-29.0200;-3.5700
1332.4120;-33.0800;-29.1700;-3.9100
1332.6110;-33.6200;-29.3400;-4.2800
1332.8100;-34.1800;-29.5000;-4.6800
1333.0090;-34.7700;-29.6600;-5.1100
1333.2080;-35.4000;-29.8300;-5.5700
1333.4070;-36.0600;-29.9800;-6.0800
1333.6060;-36.7300;-30.1500;-6.5800
1333.8050;-37.4400;-30.3100;-7.1300
1334.0040;-38.1200;-30.4700;-7.6500
1334.2040;-38.9200;-30.6500;-8.2700
1334.4030;-39.3700;-30.8100;-8.5600
1334.6020;-39.8700;-30.9800;-8.8900
1334.8010;-40.2000;-31.1500;-9.0500
1335.0000;-40.3700;-31.3200;-9.0500
1335.1990;-40.3600;-31.4900;-8.8700
1335.3980;-40.1900;-31.6600;-8.5300
1335.5970;-39.9300;-31.8500;-8.0800
1335.7970;-39.5800;-32.0200;-7.5600
1335.9960;-39.2100;-32.2100;-7.0000
1336.1950;-38.8000;-32.3800;-6.4200
1336.3940;-38.4000;-32.5600;-5.8400
1336.5930;-38.0300;-32.7400;-5.2900
1336.7920;-37.7000;-32.9100;-4.7900
1336.9910;-37.4200;-33.1000;-4.3200
1337.1900;-37.1700;-33.2800;-3.8900
1337.3890;-36.9700;-33.4700;-3.5000
1337.5890;-36.8100;-33.6500;-3.1600
1337.7880;-36.6900;-33.8300;-2.8600
1337.9870;-36.6300;-34.0300;-2.6000
1338.1860;-36.5900;-34.2000;-2.3900
1338.3850;-36.6100;-34.3900;-2.2200
1338.5840;-36.6600;-34.5700;-2.0900
1338.7830;-36.7500;-34.7500;-2.0000
1338.9820;-36.8800;-34.9500;-1.9300
1339.1810;-37.0500;-35.1300;-1.9200
1339.3810;-37.2700;-35.3200;-1.9500
1339.5800;-37.5100;-35.4900;-2.0200
1339.7790;-37.8000;-35.6800;-2.1200
1339.9780;-38.1200;-35.8700;-2.2500
1340.1770;-38.4800;-36.0500;-2.4300
1340.3760;-38.8900;-36.2600;-2.6300
1340.5750;-39.3200;-36.4400;-2.8800
1340.7740;-39.8000;-36.6300;-3.1700
1340.9740;-40.2900;-36.8100;-3.4800
1341.1730;-40.8200;-36.9900;-3.8300
1341.3720;-41.3900;-37.1800;-4.2100
1341.5710;-42.0000;-37.3700;-4.6300
1341.7700;-42.6500;-37.5600;-5.0900
1341.9690;-43.3100;-37.7300;-5.5800
1342.1680;-44.0000;-37.9300;-6.0700
1342.3670;-44.7100;-38.1100;-6.6000
1342.5660;-45.4400;-38.2900;-7.1500
1342.7660;-46.2000;-38.5300;-7.6700
1342.9650;-46.9300;-38.6900;-8.2400
1343.1640;-47.6600;-38.8900;-8.7700
1343.3630;-48.3400;-39.0700;-9.2700
1343.5620;-49.1100;-39.2600;-9.8500
1343.7610;-49.5400;-39.4500;-10.0900
1343.9600;-50.0200;-39.6500;-10.3700
1344.1590;-50.3900;-39.8600;-10.5300
1344.3580;-50.6500;-40.0500;-10.6000
1344.5580;-50.8200;-40.2500;-10.5700
1344.7570;-50.8800;-40.4400;-10.4400
1344.9560;-50.8600;-40.6300;-10.2300
1345.1550;-50.7900;-40.8200;-9.9700
1345.3540;-50.6700;-41.0000;-9.6700
1345.5530;-50.5500;-41.2000;-9.3500
1345.7520;-50.4000;-41.3800;-9.0200
1345.9510;-50.2700;-41.5800;-8.6900
1346.1500;-50.1200;-41.7800;-8.3400
1346.3500;-49.9800;-41.9700;-8.0100
1346.5490;-49.8700;-42.1900;-7.6800
1346.7480;-49.7400;-42.3700;-7.3700
1346.9470;-49.6300;-42.5600;-7.0700
1347.1460;-49.5100;-42.7500;-6.7600
1347.3450;-49.4100;-42.9200;-6.4900
1347.5440;-49.3700;-43.1600;-6.2100
1347.7430;-49.3400;-43.3900;-5.9500
1347.9430;-49.3100;-43.6200;-5.6900
1348.1420;-49.2400;-43.8000;-5.4400
1348.3410;-49.2000;-44.0000;-5.2000
1348.5400;-49.1100;-44.1600;-4.9500
1348.7390;-49.0600;-44.3400;-4.7200
1348.9380;-49.0200;-44.5200;-4.5000
1349.1370;-48.9600;-44.6800;-4.2800
1349.3360;-48.9200;-44.8500;-4.0700
1349.5350;-48.8800;-45.0200;-3.8600
1349.7350;-48.8400;-45.1900;-3.6500
1349.9340;-48.8300;-45.3800;-3.4500
1350.1330;-48.8500;-45.5800;-3.2700
1350.3320;-48.9200;-45.8400;-3.0800
1350.5310;-48.9400;-46.0500;-2.8900
1350.7300;-48.9500;-46.2300;-2.7200
1350.9290;-48.9200;-46.4000;-2.5200
1351.1280;-48.8900;-46.5200;-2.3700
1351.3270;-48.9100;-46.7000;-2.2100
1351.5270;-48.9500;-46.8700;-2.0800
1351.7260;-49.0600;-47.1200;-1.9400
1351.9250;-49.1200;-47.3100;-1.8100
1352.1240;-49.1800;-47.4900;-1.6900
1352.3230;-49.2700;-47.6800;-1.5900
1352.5220;-49.3800;-47.8800;-1.5000
1352.7210;-49.4700;-48.0500;-1.4200
1352.9200;-49.5600;-48.2000;-1.3600
1353.1200;-49.7800;-48.5500;-1.2300
1353.3190;-49.8400;-48.5900;-1.2500
1353.5180;-49.9900;-48.7700;-1.2200
1353.7170;-50.1700;-48.9500;-1.2200
1353.9160;-50.2700;-49.0600;-1.2100
1354.1150;-50.4500;-49.2200;-1.2300
1354.3140;-50.6900;-49.4500;-1.2400
1354.5130;-50.9200;-49.6500;-1.2700
1354.7120;-51.2700;-49.9600;-1.3100
1354.9120;-51.6100;-50.2500;-1.3600
1355.1110;-51.8600;-50.4400;-1.4200
1355.3100;-52.0700;-50.5700;-1.5000
1355.5090;-52.1500;-50.5900;-1.5600
1355.7080;-52.4800;-50.8500;-1.6300
1355.9070;-52.8300;-51.1300;-1.7000
1356.1060;-53.0800;-51.3000;-1.7800
1356.3050;-53.2500;-51.3900;-1.8600
1356.5040;-53.4600;-51.5200;-1.9400
1356.7040;-53.4400;-51.4300;-2.0100
1356.9030;-53.6700;-51.6000;-2.0700
1357.1020;-54.1000;-51.9700;-2.1300
1357.3010;-54.3900;-52.2100;-2.1800
1357.5000;-54.6300;-52.4000;-2.2300
1357.6990;-54.8600;-52.5900;-2.2700
1357.8980;-54.9600;-52.6600;-2.3000
1358.0970;-55.0300;-52.7300;-2.3000
1358.2970;-55.2300;-52.9200;-2.3100
1358.4960;-55.4600;-53.1500;-2.3100
1358.6950;-55.5900;-53.3000;-2.2900
1358.8940;-55.7300;-53.4700;-2.2600
1359.0930;-55.8600;-53.6300;-2.2300
1359.2920;-55.8900;-53.6900;-2.2000
1359.4910;-56.2200;-54.0700;-2.1500
1359.6900;-56.4700;-54.3800;-2.0900
1359.8890;-56.6200;-54.5800;-2.0400
1360.0890;-56.6300;-54.6600;-1.9700
1360.2880;-56.6200;-54.7100;-1.9100
1360.4870;-56.5500;-54.7000;-1.8500
1360.6860;-56.6800;-54.8900;-1.7900
1360.8850;-56.9700;-55.2300;-1.7400
1361.0840;-57.2100;-55.5400;-1.6700
1361.2830;-57.3300;-55.7200;-1.6100
1361.4820;-57.4500;-55.9000;-1.5500
1361.6810;-57.6700;-56.1400;-1.5300
1361.8810;-57.7400;-56.2800;-1.4600
1362.0800;-57.9300;-56.5200;-1.4100
1362.2790;-58.3500;-56.9500;-1.4000
1362.4780;-58.5300;-57.1900;-1.3400
1362.6770;-58.6800;-57.3600;-1.3200
1362.8760;-58.5600;-57.2600;-1.3000
1363.0750;-58.5200;-57.2300;-1.2900
1363.2740;-58.2700;-57.0100;-1.2600
1363.4740;-58.3900;-57.1000;-1.2900
1363.6730;-58.4800;-57.2000;-1.2800
1363.8720;-58.6500;-57.3700;-1.2800
1364.0710;-58.8800;-57.6000;-1.2800
1364.2700;-59.1200;-57.8100;-1.3100
1364.4690;-59.4800;-58.1500;-1.3300
1364.6680;-60.0100;-58.7300;-1.2800
1364.8670;-60.3200;-58.9500;-1.3700
1365.0660;-60.3400;-58.9300;-1.4100
1365.2660;-60.6200;-59.1400;-1.4800
1365.4650;-60.6000;-59.0900;-1.5100
1365.6640;-60.7400;-59.1700;-1.5700
1365.8630;-60.8700;-59.2500;-1.6200
1366.0620;-60.9800;-59.2700;-1.7100
1366.2610;-61.0600;-59.3000;-1.7600
1366.4600;-61.2300;-59.3800;-1.8500
1366.6590;-61.4900;-59.5700;-1.9200
1366.8580;-61.8400;-59.8400;-2.0000
1367.0580;-62.0700;-59.9800;-2.0900
1367.2570;-62.3200;-60.1200;-2.2000
1367.4560;-62.6700;-60.4100;-2.2600
1367.6550;-62.9700;-60.6300;-2.3400
1367.8540;-63.4000;-60.9300;-2.4700
1368.0530;-63.6500;-61.0900;-2.5600
1368.2520;-63.7200;-61.0900;-2.6300
1368.4510;-64.2200;-61.4300;-2.7900
1368.6500;-64.4500;-61.5800;-2.8700
1368.8500;-64.7300;-61.7000;-3.0300
1369.0490;-64.8600;-61.7400;-3.1200
1369.2480;-64.9700;-61.7400;-3.2300
1369.4470;-64.9800;-61.6700;-3.3100
1369.6460;-65.2700;-61.8400;-3.4300
1369.8450;-65.7500;-62.2100;-3.5400
1370.0440;-66.0500;-62.4200;-3.6300
1370.2430;-66.3200;-62.6000;-3.7200
1370.4430;-66.4800;-62.6800;-3.8000
1370.6420;-66.7200;-62.7500;-3.9700
1370.8410;-67.1200;-63.1200;-4.0000
1371.0400;-67.5500;-63.4200;-4.1300
1371.2390;-67.9000;-63.6400;-4.2600
1371.4380;-68.0700;-63.7700;-4.3000
1371.6370;-68.1300;-63.7600;-4.3700
1371.8360;-68.2400;-63.7400;-4.5000
1372.0350;-68.5300;-63.9900;-4.5400
1372.2350;-68.9200;-64.2600;-4.6600
1372.4340;-69.2800;-64.4200;-4.8600
1372.6330;-69.5400;-64.5300;-5.0100
1372.8320;-69.5700;-64.6600;-4.9100
1373.0310;-69.6400;-64.7000;-4.9400
1373.2300;-70.0200;-64.9000;-5.1200
1373.4290;-70.4000;-65.1500;-5.2500
1373.6280;-70.6600;-65.3400;-5.3200
1373.8270;-70.7300;-65.5100;-5.2200
1374.0270;-71.0400;-65.6200;-5.4200
1374.2260;-71.3600;-65.8200;-5.5400
1374.4250;-71.6400;-66.0600;-5.5800
1374.6240;-71.7700;-66.2300;-5.5400
1374.8230;-72.3700;-66.5400;-5.8300
1375.0220;-72.6900;-66.6900;-6.0000
1375.2210;-72.6000;-66.8700;-5.7300
1375.4200;-72.9500;-67.0300;-5.9200
1375.6200;-73.1800;-67.2300;-5.9500
1375.8190;-73.4100;-67.3400;-6.0700
1376.0180;-73.6900;-67.5500;-6.1400
1376.2170;-74.1100;-67.7200;-6.3900
1376.4160;-74.0100;-68.0100;-6.0000
1376.6150;-74.0200;-68.2900;-5.7300
1376.8140;-74.2000;-68.4400;-5.7600
1377.0130;-74.1800;-68.7600;-5.4200
1377.2120;-74.2800;-69.0800;-5.2000
1377.4120;-74.2600;-69.1500;-5.1100
1377.6110;-74.4600;-69.2500;-5.2100
1377.8100;-74.2700;-69.2800;-4.9900
1378.0090;-73.7300;-69.4300;-4.3000
1378.2080;-73.9400;-69.6300;-4.3100
1378.4070;-73.7600;-69.8500;-3.9100
1378.6060;-74.3600;-70.2800;-4.0800
1378.8050;-73.8400;-70.5400;-3.3000
1379.0040;-73.9400;-70.5900;-3.3500
1379.2040;-73.8700;-70.8700;-3.0000
1379.4030;-73.7700;-71.0200;-2.7500
1379.6020;-73.5900;-70.7300;-2.8600
1379.8010;-73.8700;-71.0400;-2.8300
1380.0000;-73.6800;-71.3100;-2.3700
1380.1990;-74.0700;-71.4500;-2.6200
1380.3980;-74.2000;-71.7300;-2.4700
1380.5970;-74.3200;-72.3200;-2.0000
1380.7970;-74.6200;-72.8500;-1.7700
1380.9960;-74.9100;-72.8900;-2.0200
1381.1950;-74.7100;-72.9500;-1.7600
1381.3940;-74.3300;-72.7500;-1.5800
1381.5930;-73.9100;-72.4600;-1.4500
1381.7920;-74.4600;-72.6100;-1.8500
1381.9910;-74.3300;-72.7200;-1.6100
1382.1900;-74.6100;-72.7500;-1.8600
1382.3890;-75.4300;-73.4100;-2.0200
1382.5890;-76.4000;-73.4600;-2.9400
1382.7880;-76.9500;-74.4200;-2.5300
1382.9870;-77.1400;-74.7300;-2.4100
1383.1860;-76.6000;-74.9500;-1.6500
1383.3850;-76.6600;-74.2800;-2.3800
1383.5840;-77.2700;-74.1500;-3.1200
1383.7830;-77.1600;-73.7600;-3.4000
1383.9820;-77.7800;-74.1100;-3.6700
1384.1810;-77.7200;-74.2600;-3.4600
1384.3810;-78.7900;-74.3000;-4.4900
1384.5800;-80.0700;-74.0300;-6.0400
1384.7790;-81.3200;-74.1000;-7.2200
1384.9780;-80.8700;-74.8900;-5.9800
1385.1770;-80.0300;-74.7000;-5.3300
1385.3760;-80.7400;-75.1300;-5.6100
1385.5750;-84.7600;-75.0800;-9.6800
1385.7740;-84.1200;-75.3000;-8.8200
1385.9740;-81.6900;-75.3000;-6.3900
1386.1730;-84.1200;-75.3000;-8.8200
1386.3720;-83.2400;-74.9700;-8.2700
1386.5710;-86.0900;-75.3200;-10.7700
1386.7700;-83.4000;-75.0900;-8.3100
1386.9690;-84.3300;-75.1400;-9.1900
1387.1680;-82.9300;-75.7600;-7.1700
1387.3670;-82.1700;-75.5900;-6.5800
1387.5660;-83.7500;-76.0100;-7.7400
1387.7660;-86.4100;-75.9100;-10.5000
1387.9650;-83.7500;-76.4800;-7.2700
1388.1640;-81.9300;-76.9800;-4.9500
1388.3630;-84.6500;-76.8100;-7.8400
1388.5620;-84.4300;-76.5500;-7.8800
1388.7610;-82.1700;-77.0200;-5.1500
1388.9600;-86.7600;-76.8100;-9.9500
1389.1590;-83.4800;-76.3100;-7.1700
1389.3580;-84.5400;-76.5800;-7.9600
1389.5580;-81.3200;-76.6900;-4.6300
1389.7570;-83.0800;-77.7000;-5.3800
1389.9560;-85.2400;-77.7000;-7.5400
1390.1550;-81.6400;-76.6900;-4.9500
1390.3540;-86.0900;-76.5600;-9.5300
1390.5530;-81.8700;-76.6500;-5.2200
1390.7520;-81.5300;-76.8900;-4.6400
1390.9510;-81.6900;-76.6500;-5.0400
1391.1500;-81.3200;-78.2300;-3.0900
1391.3500;-80.2700;-76.9400;-3.3300
1391.5490;-87.7800;-77.5600;-10.2200
1391.7480;-84.3400;-77.1100;-7.2300
1391.9470;-80.7000;-77.0300;-3.6700
1392.1460;-83.2500;-77.1800;-6.0700
1392.3450;-83.1700;-77.4700;-5.7000
1392.5440;-82.6500;-78.4200;-4.2300
1392.7430;-81.7600;-79.2700;-2.4900
1392.9430;-82.9400;-78.4700;-4.4700
1393.1420;-82.0000;-77.7100;-4.2900
1393.3410;-83.4100;-77.8300;-5.5800
1393.5400;-83.0100;-77.7400;-5.2700
1393.7390;-81.8800;-77.4900;-4.3900
1393.9380;-88.5300;-78.6400;-9.8900
1394.1370;-85.2500;-78.6700;-6.5800
1394.3360;-89.1100;-78.6900;-10.4200
1394.5350;-82.1200;-78.3200;-3.8000
1394.7350;-83.6700;-77.3900;-6.2800
1394.9340;-82.5100;-78.1600;-4.3500
1395.1330;-83.4900;-78.2600;-5.2300
1395.3320;-83.0100;-78.8400;-4.1700
1395.5310;-87.1500;-79.2300;-7.9200
1395.7300;-81.7000;-78.9900;-2.7100
1395.9290;-81.4300;-78.3200;-3.1100
1396.1280;-82.2400;-77.9700;-4.2700
1396.3270;-82.9400;-77.6200;-5.3200
1396.5270;-83.6700;-78.4200;-5.2500
1396.7260;-85.0100;-79.5000;-5.5100
1396.9250;-81.8800;-79.7100;-2.1700
1397.1240;-82.5100;-79.3600;-3.1500
1397.3230;-82.0600;-79.4300;-2.6300
1397.5220;-81.7000;-79.1700;-2.5300
1397.7210;-80.0800;-78.9900;-1.0900
1397.9200;-85.5200;-78.3900;-7.1300
1398.1200;-82.2400;-77.4300;-4.8100
1398.3190;-82.5100;-77.8700;-4.6400
1398.5180;-83.6800;-79.0000;-4.6800
1398.7170;-83.5900;-78.3800;-5.2100
1398.9160;-82.7300;-78.3500;-4.3800
1399.1150;-83.4200;-78.6500;-4.7700
1399.3140;-83.9500;-79.2100;-4.7400
1399.5130;-80.0100;-78.3800;-1.6300
1399.7120;-82.8000;-79.8600;-2.9400
1399.9120;-82.5200;-80.3300;-2.1900
1400.1110;-81.3400;-80.0100;-1.3300
1400.3100;-82.2500;-78.5400;-3.7100
1400.5090;-82.2500;-79.0000;-3.2500
1400.7080;-83.5000;-78.7000;-4.8000
1400.9070;-85.0200;-79.6100;-5.4100
1401.1060;-82.5200;-78.0300;-4.4900
1401.3050;-83.1800;-79.8600;-3.3200
1401.5040;-84.0500;-79.0600;-4.9900
1401.7040;-84.1400;-79.6800;-4.4600
1401.9030;-83.7700;-80.4100;-3.3600
1402.1020;-85.2600;-80.0900;-5.1700
1402.3010;-84.5600;-80.4900;-4.0700
1402.5000;-81.7100;-78.1500;-3.5600
1402.6990;-80.5800;-79.9000;-0.6800
1402.8980;-81.3400;-78.7600;-2.5800
1403.0970;-82.8000;-78.4800;-4.3200
1403.2970;-83.2600;-79.0300;-4.2300
1403.4960;-82.0700;-79.9300;-2.1400
1403.6950;-84.3500;-79.0000;-5.3500
1403.8940;-82.4500;-79.7200;-2.7300
1404.0930;-83.3400;-79.5100;-3.8300
1404.2920;-83.6800;-80.7100;-2.9700
1404.4910;-88.0300;-78.5400;-9.4900
1404.6900;-83.6800;-79.6500;-4.0300
1404.8890;-84.7800;-78.4800;-6.3000
1405.0890;-81.7700;-81.1800;-0.5900
1405.2880;-86.7800;-79.9000;-6.8800
1405.4870;-84.0500;-80.0500;-4.0000
1405.6860;-81.8300;-79.7200;-2.1100
1405.8850;-82.0100;-78.6500;-3.3600
1406.0840;-83.1800;-78.9700;-4.2100
1406.2830;-82.8700;-79.0600;-3.8100
1406.4820;-82.5200;-79.2100;-3.3100
1406.6810;-82.5300;-79.3500;-3.1800
1406.8810;-81.6100;-78.9200;-2.6900
1407.0800;-83.5100;-78.3600;-5.1500
1407.2790;-84.9100;-80.1000;-4.8100
1407.4780;-83.2700;-80.9500;-2.3200
1407.6770;-82.8100;-79.2500;-3.5600
1407.8760;-81.6700;-79.5200;-2.1500
1408.0750;-81.3500;-78.9500;-2.4000
1408.2740;-83.9600;-79.2500;-4.7100
1408.4740;-82.6700;-78.1300;-4.5400
1408.6730;-83.7800;-78.8300;-4.9500
1408.8720;-84.9100;-78.4400;-6.4700
1409.0710;-81.9000;-78.9200;-2.9800
1409.2700;-82.2600;-78.4400;-3.8200
1409.4690;-84.4600;-80.3800;-4.0800
1409.6680;-82.3900;-80.0200;-2.3700
1409.8670;-83.1100;-79.5200;-3.5900
1410.0660;-83.4300;-79.2200;-4.2100
1410.2660;-84.3600;-78.2600;-6.1000
1410.4650;-82.5300;-79.5200;-3.0100
1410.6640;-83.6900;-79.0100;-4.6800
1410.8630;-81.5600;-78.6900;-2.8700
1411.0620;-97.5800;-78.8000;-18.7800
1411.2610;-83.5100;-79.6600;-3.8500
1411.4600;-82.2600;-78.8000;-3.4600
1411.6590;-81.1400;-78.2600;-2.8800
1411.8580;-81.5000;-78.1300;-3.3700
1412.0580;-82.3900;-77.9600;-4.4300
1412.2570;-83.3500;-78.0900;-5.2600
1412.4560;-83.4300;-78.8600;-4.5700
1412.6550;-82.4600;-78.0400;-4.4200
1412.8540;-81.7800;-79.4800;-2.3000
1413.0530;-83.6000;-78.7100;-4.8900
1413.2520;-82.2600;-78.5500;-3.7100
1413.4510;-84.1500;-77.6700;-6.4800
1413.6500;-81.0100;-78.5000;-2.5100
1413.8500;-84.1600;-78.1700;-5.9900
1414.0490;-82.0900;-78.6700;-3.4200
1414.2480;-81.5700;-79.2600;-2.3100
1414.4470;-82.4000;-78.9900;-3.4100
1414.6460;-83.3600;-79.7400;-3.6200
1414.8450;-81.6800;-79.4600;-2.2200
1415.0440;-81.3600;-78.4500;-2.9100
1415.2430;-82.4000;-78.6700;-3.7300
1415.4430;-83.3600;-79.2300;-4.1300
1415.6420;-81.5700;-78.9000;-2.6700
1415.8410;-82.0300;-78.7200;-3.3100
1416.0400;-83.9700;-78.1400;-5.8300
1416.2390;-81.5700;-78.7200;-2.8500
1416.4380;-83.2800;-78.1900;-5.0900
1416.6370;-84.8000;-78.9000;-5.9000
1416.8360;-82.7500;-79.7000;-3.0500
1417.0350;-88.5600;-78.8400;-9.7200
1417.2350;-83.7900;-77.8800;-5.9100
1417.4340;-83.4400;-77.4600;-5.9800
1417.6330;-81.5100;-78.1200;-3.3900
1417.8320;-84.0700;-78.0000;-6.0700
1418.0310;-82.8200;-77.4200;-5.4000
1418.2300;-82.8200;-77.8100;-5.0100
1418.4290;-81.0600;-78.2400;-2.8200
1418.6280;-81.7900;-77.6800;-4.1100
1418.8270;-82.2700;-78.6100;-3.6600
1419.0270;-82.3400;-79.1400;-3.2000
1419.2260;-82.7500;-78.0500;-4.7000
1419.4250;-82.3400;-78.6700;-3.6700
1419.6240;-81.2500;-78.6100;-2.6400
1419.8230;-81.8500;-78.0500;-3.8000
1420.0220;-84.0700;-78.4500;-5.6200
1420.2210;-82.0900;-78.1000;-3.9900
1420.4200;-83.8800;-78.2400;-5.6400
1420.6200;-80.4300;-77.5500;-2.8800
1420.8190;-82.0300;-78.4800;-3.5500
1421.0180;-82.0900;-78.0200;-4.0700
1421.2170;-82.4700;-78.1000;-4.3700
1421.4160;-81.5700;-78.2200;-3.3500
1421.6150;-81.8000;-78.5700;-3.2300
1421.8140;-81.1200;-77.9400;-3.1800
1422.0130;-81.8000;-77.7800;-4.0200
1422.2120;-82.1600;-78.4600;-3.7000
1422.4120;-80.8800;-77.6900;-3.1900
1422.6110;-82.5500;-78.1500;-4.4000
1422.8100;-81.2600;-77.7100;-3.5500
1423.0090;-82.8300;-78.6200;-4.2100
1423.2080;-80.7900;-78.1100;-2.6800
1423.4070;-82.7600;-77.8700;-4.8900
1423.6060;-82.1600;-78.4600;-3.7000
1423.8050;-82.2800;-78.1100;-4.1700
1424.0040;-81.3700;-78.2000;-3.1700
1424.2040;-82.4100;-78.8200;-3.5900
1424.4030;-81.2100;-78.7900;-2.4200
1424.6020;-85.4200;-77.9600;-7.4600
1424.8010;-82.9000;-77.0900;-5.8100
1425.0000;-81.2600;-77.1900;-4.0700
