Wavelength;Intensity_Meas;Intensity_Ref;Difference_dB
1200.0000;-61.3800;-57.3300;-4.0500
1200.1990;-61.3300;-57.3100;-4.0200
1200.3980;-61.3100;-57.2900;-4.0200
1200.5970;-61.3000;-57.2600;-4.0400
1200.7970;-61.2700;-57.2100;-4.0600
1200.9960;-61.2500;-57.2000;-4.0500
1201.1950;-61.2100;-57.1800;-4.0300
1201.3940;-61.2500;-57.1100;-4.1400
1201.5930;-61.2200;-57.0700;-4.1500
1201.7920;-61.2000;-57.0200;-4.1800
1201.9910;-61.2000;-56.9800;-4.2200
1202.1900;-61.1700;-56.9500;-4.2200
1202.3890;-61.1800;-56.8700;-4.3100
1202.5890;-61.2000;-56.8000;-4.4000
1202.7880;-61.1800;-56.7800;-4.4000
1202.9870;-61.1600;-56.7300;-4.4300
1203.1860;-61.1400;-56.6800;-4.4600
1203.3850;-61.1300;-56.6000;-4.5300
1203.5840;-61.0900;-56.5700;-4.5200
1203.7830;-61.0600;-56.5400;-4.5200
1203.9820;-61.0800;-56.4900;-4.5900
1204.1810;-61.0100;-56.4500;-4.5600
1204.3810;-60.9300;-56.3900;-4.5400
1204.5800;-60.9200;-56.3900;-4.5300
1204.7790;-60.8600;-56.3700;-4.4900
1204.9780;-60.8600;-56.3100;-4.5500
1205.1770;-60.8100;-56.2800;-4.5300
1205.3760;-60.7500;-56.2700;-4.4800
1205.5750;-60.7300;-56.2500;-4.4800
1205.7740;-60.7200;-56.2300;-4.4900
1205.9740;-60.6800;-56.2100;-4.4700
1206.1730;-60.5900;-56.2000;-4.3900
1206.3720;-60.5400;-56.1800;-4.3600
1206.5710;-60.5400;-56.1600;-4.3800
1206.7700;-60.4700;-56.1400;-4.3300
1206.9690;-60.3900;-56.1000;-4.2900
1207.1680;-60.3000;-56.1000;-4.2000
1207.3670;-60.2700;-56.0800;-4.1900
1207.5660;-60.2300;-56.0200;-4.2100
1207.7660;-60.1400;-56.0100;-4.1300
1207.9650;-60.0700;-55.9800;-4.0900
1208.1640;-59.9900;-55.9400;-4.0500
1208.3630;-59.9600;-55.8900;-4.0700
1208.5620;-59.9000;-55.8600;-4.0400
1208.7610;-59.8000;-55.8300;-3.9700
1208.9600;-59.7700;-55.7800;-3.9900
1209.1590;-59.7200;-55.7300;-3.9900
1209.3580;-59.6600;-55.6600;-4.0000
1209.5580;-59.6400;-55.6200;-4.0200
1209.7570;-59.5700;-55.6000;-3.9700
1209.9560;-59.5700;-55.5300;-4.0400
1210.1550;-59.5200;-55.4600;-4.0600
1210.3540;-59.4500;-55.4200;-4.0300
1210.5530;-59.4100;-55.3900;-4.0200
1210.7520;-59.4000;-55.3400;-4.0600
1210.9510;-59.3700;-55.2800;-4.0900
1211.1500;-59.3300;-55.2400;-4.0900
1211.3500;-59.2800;-55.2000;-4.0800
1211.5490;-59.2900;-55.1800;-4.1100
1211.7480;-59.2700;-55.1500;-4.1200
1211.9470;-59.2300;-55.0800;-4.1500
1212.1460;-59.1600;-55.0700;-4.0900
1212.3450;-59.1500;-55.0500;-4.1000
1212.5440;-59.1800;-55.0100;-4.1700
1212.7430;-59.1300;-54.9800;-4.1500
1212.9430;-59.0900;-54.9500;-4.1400
1213.1420;-59.0700;-54.9200;-4.1500
1213.3410;-59.0700;-54.8900;-4.1800
1213.5400;-59.0600;-54.8700;-4.1900
1213.7390;-59.0000;-54.8500;-4.1500
1213.9380;-58.9800;-54.8000;-4.1800
1214.1370;-58.9800;-54.7900;-4.1900
1214.3360;-58.9400;-54.7300;-4.2100
1214.5350;-58.8900;-54.7000;-4.1900
1214.7350;-58.8500;-54.6800;-4.1700
1214.9340;-58.8600;-54.6300;-4.2300
1215.1330;-58.8200;-54.5800;-4.2400
1215.3320;-58.7500;-54.5300;-4.2200
1215.5310;-58.7100;-54.4900;-4.2200
1215.7300;-58.6700;-54.4500;-4.2200
1215.9290;-58.6600;-54.3900;-4.2700
1216.1280;-58.5700;-54.3300;-4.2400
1216.3270;-58.5000;-54.2600;-4.2400
1216.5270;-58.5100;-54.2300;-4.2800
1216.7260;-58.4700;-54.1800;-4.2900
1216.9250;-58.4200;-54.1000;-4.3200
1217.1240;-58.3400;-54.0500;-4.2900
1217.3230;-58.3000;-53.9900;-4.3100
1217.5220;-58.3000;-53.9400;-4.3600
1217.7210;-58.2300;-53.9000;-4.3300
1217.9200;-58.1700;-53.8400;-4.3300
1218.1200;-58.1400;-53.8000;-4.3400
1218.3190;-58.1500;-53.7500;-4.4000
1218.5180;-58.1100;-53.7100;-4.4000
1218.7170;-58.0500;-53.6600;-4.3900
1218.9160;-58.0400;-53.6300;-4.4100
1219.1150;-58.0200;-53.6100;-4.4100
1219.3140;-57.9800;-53.5500;-4.4300
1219.5130;-57.9400;-53.5300;-4.4100
1219.7120;-57.8900;-53.5100;-4.3800
1219.9120;-57.9100;-53.4600;-4.4500
1220.1110;-57.8500;-53.4300;-4.4200
1220.3100;-57.7900;-53.3900;-4.4000
1220.5090;-57.7300;-53.3500;-4.3800
1220.7080;-57.7000;-53.3300;-4.3700
1220.9070;-57.6600;-53.2800;-4.3800
1221.1060;-57.5500;-53.2200;-4.3300
1221.3050;-57.4700;-53.1900;-4.2800
1221.5040;-57.4300;-53.1400;-4.2900
1221.7040;-57.3500;-53.0800;-4.2700
1221.9030;-57.2600;-53.0300;-4.2300
1222.1020;-57.1400;-52.9700;-4.1700
1222.3010;-57.0500;-52.9100;-4.1400
1222.5000;-56.9700;-52.8400;-4.1300
1222.6990;-56.8600;-52.7900;-4.0700
1222.8980;-56.7600;-52.7100;-4.0500
1223.0970;-56.6600;-52.6500;-4.0100
1223.2970;-56.6000;-52.5800;-4.0200
1223.4960;-56.4800;-52.5000;-3.9800
1223.6950;-56.3700;-52.4500;-3.9200
1223.8940;-56.3200;-52.3800;-3.9400
1224.0930;-56.2400;-52.3100;-3.9300
1224.2920;-56.1500;-52.2400;-3.9100
1224.4910;-56.0800;-52.1800;-3.9000
1224.6900;-56.0200;-52.1300;-3.8900
1224.8890;-55.9700;-52.0500;-3.9200
1225.0890;-55.9100;-52.0100;-3.9000
1225.2880;-55.8200;-51.9300;-3.8900
1225.4870;-55.7800;-51.8700;-3.9100
1225.6860;-55.7600;-51.8400;-3.9200
1225.8850;-55.7100;-51.7800;-3.9300
1226.0840;-55.6500;-51.7300;-3.9200
1226.2830;-55.6400;-51.6800;-3.9600
1226.4820;-55.6200;-51.6200;-4.0000
1226.6810;-55.5900;-51.5900;-4.0000
1226.8810;-55.5800;-51.5400;-4.0400
1227.0800;-55.5800;-51.4800;-4.1000
1227.2790;-55.6000;-51.4400;-4.1600
1227.4780;-55.5900;-51.3800;-4.2100
1227.6770;-55.6100;-51.3400;-4.2700
1227.8760;-55.6700;-51.2700;-4.4000
1228.0750;-55.7100;-51.2200;-4.4900
1228.2740;-55.7400;-51.1500;-4.5900
1228.4740;-55.7700;-51.0800;-4.6900
1228.6730;-55.8300;-51.0300;-4.8000
1228.8720;-55.8900;-50.9500;-4.9400
1229.0710;-55.8900;-50.8900;-5.0000
1229.2700;-55.9100;-50.8100;-5.1000
1229.4690;-55.9200;-50.7200;-5.2000
1229.6680;-55.9200;-50.6700;-5.2500
1229.8670;-55.8700;-50.5700;-5.3000
1230.0660;-55.8100;-50.4900;-5.3200
1230.2660;-55.7400;-50.4100;-5.3300
1230.4650;-55.6400;-50.3300;-5.3100
1230.6640;-55.5100;-50.2600;-5.2500
1230.8630;-55.4100;-50.1800;-5.2300
1231.0620;-55.2700;-50.1100;-5.1600
1231.2610;-55.1300;-50.0500;-5.0800
1231.4600;-54.9600;-49.9800;-4.9800
1231.6590;-54.7900;-49.9300;-4.8600
1231.8580;-54.6200;-49.8500;-4.7700
1232.0580;-54.4400;-49.8100;-4.6300
1232.2570;-54.2600;-49.7400;-4.5200
1232.4560;-54.0700;-49.6800;-4.3900
1232.6550;-53.9000;-49.6400;-4.2600
1232.8540;-53.7400;-49.5700;-4.1700
1233.0530;-53.5700;-49.5300;-4.0400
1233.2520;-53.4300;-49.4600;-3.9700
1233.4510;-53.3000;-49.4100;-3.8900
1233.6500;-53.1900;-49.3700;-3.8200
1233.8500;-53.0900;-49.3000;-3.7900
1234.0490;-53.0100;-49.2500;-3.7600
1234.2480;-52.9800;-49.1800;-3.8000
1234.4470;-52.9300;-49.1200;-3.8100
1234.6460;-52.9100;-49.0600;-3.8500
1234.8450;-52.9400;-48.9900;-3.9500
1235.0440;-52.9500;-48.9300;-4.0200
1235.2430;-52.9900;-48.8400;-4.1500
1235.4430;-53.0000;-48.7600;-4.2400
1235.6420;-53.0600;-48.6900;-4.3700
1235.8410;-53.1100;-48.6000;-4.5100
1236.0400;-53.1300;-48.5300;-4.6000
1236.2390;-53.1500;-48.4200;-4.7300
1236.4380;-53.1500;-48.3300;-4.8200
1236.6370;-53.1400;-48.2500;-4.8900
1236.8360;-53.1000;-48.1500;-4.9500
1237.0350;-53.0400;-48.0800;-4.9600
1237.2350;-52.9900;-47.9900;-5.0000
1237.4340;-52.8900;-47.9000;-4.9900
1237.6330;-52.7800;-47.8100;-4.9700
1237.8320;-52.6700;-47.7400;-4.9300
1238.0310;-52.5500;-47.6600;-4.8900
1238.2300;-52.4300;-47.5700;-4.8600
1238.4290;-52.2800;-47.5000;-4.7800
1238.6280;-52.1400;-47.4200;-4.7200
1238.8270;-52.0200;-47.3400;-4.6800
1239.0270;-51.8900;-47.2700;-4.6200
1239.2260;-51.7600;-47.1800;-4.5800
1239.4250;-51.6400;-47.1100;-4.5300
1239.6240;-51.5500;-47.0300;-4.5200
1239.8230;-51.4400;-46.9400;-4.5000
1240.0220;-51.3500;-46.8700;-4.4800
1240.2210;-51.2800;-46.7700;-4.5100
1240.4200;-51.2000;-46.6900;-4.5100
1240.6200;-51.1300;-46.5900;-4.5400
1240.8190;-51.0600;-46.4900;-4.5700
1241.0180;-50.9900;-46.3800;-4.6100
1241.2170;-50.9400;-46.2700;-4.6700
1241.4160;-50.8500;-46.1700;-4.6800
1241.6150;-50.7700;-46.0300;-4.7400
1241.8140;-50.6900;-45.9100;-4.7800
1242.0130;-50.5800;-45.8000;-4.7800
1242.2120;-50.4700;-45.6900;-4.7800
1242.4120;-50.3300;-45.5600;-4.7700
1242.6110;-50.1900;-45.4200;-4.7700
1242.8100;-50.0300;-45.3100;-4.7200
1243.0090;-49.8500;-45.1700;-4.6800
1243.2080;-49.6900;-45.0500;-4.6400
1243.4070;-49.5000;-44.9200;-4.5800
1243.6060;-49.3000;-44.7900;-4.5100
1243.8050;-49.1100;-44.6800;-4.4300
1244.0040;-48.9300;-44.5400;-4.3900
1244.2040;-48.7700;-44.4100;-4.3600
1244.4030;-48.5800;-44.2900;-4.2900
1244.6020;-48.4300;-44.1600;-4.2700
1244.8010;-48.2900;-44.0500;-4.2400
1245.0000;-48.1500;-43.9100;-4.2400
1245.1990;-48.0300;-43.7900;-4.2400
1245.3980;-47.9200;-43.6700;-4.2500
1245.5970;-47.8100;-43.5300;-4.2800
1245.7970;-47.6900;-43.4100;-4.2800
1245.9960;-47.5700;-43.2600;-4.3100
1246.1950;-47.4800;-43.1400;-4.3400
1246.3940;-47.3500;-43.0000;-4.3500
1246.5930;-47.2000;-42.8500;-4.3500
1246.7920;-47.0500;-42.7300;-4.3200
1246.9910;-46.8800;-42.5600;-4.3200
1247.1900;-46.7000;-42.4200;-4.2800
1247.3890;-46.4700;-42.2700;-4.2000
1247.5890;-46.2500;-42.1100;-4.1400
1247.7880;-46.0000;-41.9700;-4.0300
1247.9870;-45.6900;-41.8000;-3.8900
1248.1860;-45.4700;-41.6500;-3.8200
1248.3850;-45.1900;-41.5000;-3.6900
1248.5840;-44.9100;-41.3300;-3.5800
1248.7830;-44.6200;-41.1800;-3.4400
1248.9820;-44.3600;-41.0200;-3.3400
1249.1810;-44.0900;-40.8700;-3.2200
1249.3810;-43.8300;-40.7200;-3.1100
1249.5800;-43.5900;-40.5600;-3.0300
1249.7790;-43.3600;-40.4200;-2.9400
1249.9780;-43.1400;-40.2500;-2.8900
1250.1770;-42.9400;-40.1100;-2.8300
1250.3760;-42.7600;-39.9700;-2.7900
1250.5750;-42.6000;-39.8100;-2.7900
1250.7740;-42.4300;-39.6700;-2.7600
1250.9740;-42.3100;-39.5200;-2.7900
1251.1730;-42.1900;-39.3800;-2.8100
1251.3720;-42.0700;-39.2300;-2.8400
1251.5710;-41.9800;-39.0900;-2.8900
1251.7700;-41.8800;-38.9500;-2.9300
1251.9690;-41.8000;-38.7900;-3.0100
1252.1680;-41.7000;-38.6400;-3.0600
1252.3670;-41.6100;-38.4700;-3.1400
1252.5660;-41.5500;-38.3200;-3.2300
1252.7660;-41.4600;-38.1700;-3.2900
1252.9650;-41.3900;-38.0100;-3.3800
1253.1640;-41.2900;-37.8500;-3.4400
1253.3630;-41.2100;-37.6800;-3.5300
1253.5620;-41.1400;-37.5200;-3.6200
1253.7610;-41.0400;-37.3500;-3.6900
1253.9600;-40.9700;-37.1900;-3.7800
1254.1590;-40.8700;-37.0300;-3.8400
1254.3580;-40.7800;-36.8500;-3.9300
1254.5580;-40.7100;-36.7000;-4.0100
1254.7570;-40.6200;-36.5400;-4.0800
1254.9560;-40.5400;-36.3700;-4.1700
1255.1550;-40.4500;-36.2300;-4.2200
1255.3540;-40.3800;-36.0600;-4.3200
1255.5530;-40.3100;-35.9200;-4.3900
1255.7520;-40.2300;-35.7400;-4.4900
1255.9510;-40.1600;-35.6300;-4.5300
1256.1500;-40.0900;-35.4900;-4.6000
1256.3500;-40.0100;-35.3400;-4.6700
1256.5490;-39.9300;-35.2200;-4.7100
1256.7480;-39.8400;-35.0700;-4.7700
1256.9470;-39.7600;-34.9400;-4.8200
1257.1460;-39.6400;-34.8000;-4.8400
1257.3450;-39.5300;-34.6600;-4.8700
1257.5440;-39.4200;-34.5400;-4.8800
1257.7430;-39.2700;-34.3900;-4.8800
1257.9430;-39.1300;-34.2500;-4.8800
1258.1420;-38.9700;-34.1200;-4.8500
1258.3410;-38.7900;-33.9700;-4.8200
1258.5400;-38.6100;-33.8400;-4.7700
1258.7390;-38.4000;-33.6800;-4.7200
1258.9380;-38.2000;-33.5400;-4.6600
1259.1370;-37.9800;-33.3900;-4.5900
1259.3360;-37.7500;-33.2400;-4.5100
1259.5350;-37.5200;-33.1000;-4.4200
1259.7350;-37.2800;-32.9400;-4.3400
1259.9340;-37.0500;-32.8000;-4.2500
1260.1330;-36.8000;-32.6500;-4.1500
1260.3320;-36.5700;-32.4900;-4.0800
1260.5310;-36.3300;-32.3600;-3.9700
1260.7300;-36.1000;-32.2000;-3.9000
1260.9290;-35.8300;-32.0700;-3.7600
1261.1280;-35.6500;-31.9200;-3.7300
1261.3270;-35.4500;-31.7700;-3.6800
1261.5270;-35.2400;-31.6500;-3.5900
1261.7260;-35.0500;-31.5100;-3.5400
1261.9250;-34.8500;-31.3800;-3.4700
1262.1240;-34.6700;-31.2400;-3.4300
1262.3230;-34.5000;-31.1100;-3.3900
1262.5220;-34.3400;-31.0000;-3.3400
1262.7210;-34.1800;-30.8600;-3.3200
1262.9200;-34.0200;-30.7400;-3.2800
1263.1200;-33.8700;-30.6000;-3.2700
1263.3190;-33.7200;-30.4700;-3.2500
1263.5180;-33.5900;-30.3600;-3.2300
1263.7170;-33.4600;-30.2100;-3.2500
1263.9160;-33.3200;-30.0900;-3.2300
1264.1150;-33.1900;-29.9500;-3.2400
1264.3140;-33.0700;-29.8100;-3.2600
1264.5130;-32.9400;-29.6900;-3.2500
1264.7120;-32.8300;-29.5500;-3.2800
1264.9120;-32.7100;-29.4200;-3.2900
1265.1110;-32.6000;-29.2700;-3.3300
1265.3100;-32.4800;-29.1400;-3.3400
1265.5090;-32.3900;-29.0100;-3.3800
1265.7080;-32.3000;-28.8700;-3.4300
1265.9070;-32.2000;-28.7500;-3.4500
1266.1060;-32.1300;-28.6100;-3.5200
1266.3050;-32.0600;-28.4800;-3.5800
1266.5040;-32.0100;-28.3700;-3.6400
1266.7040;-31.9800;-28.2400;-3.7400
1266.9030;-31.9400;-28.1200;-3.8200
1267.1020;-31.9300;-27.9900;-3.9400
1267.3010;-31.9300;-27.8700;-4.0600
1267.5000;-31.9700;-27.7700;-4.2000
1267.6990;-32.0200;-27.6500;-4.3700
1267.8980;-32.0800;-27.5500;-4.5300
1268.0970;-32.1900;-27.4300;-4.7600
1268.2970;-32.3000;-27.3200;-4.9800
1268.4960;-32.4600;-27.2200;-5.2400
1268.6950;-32.6500;-27.1000;-5.5500
1268.8940;-32.8700;-27.0000;-5.8700
1269.0930;-33.1300;-26.8800;-6.2500
1269.2920;-33.4400;-26.7700;-6.6700
1269.4910;-33.8000;-26.6600;-7.1400
1269.6900;-34.2300;-26.5400;-7.6900
1269.8890;-34.6900;-26.4400;-8.2500
1270.0890;-35.2500;-26.3100;-8.9400
1270.2880;-35.8700;-26.2000;-9.6700
1270.4870;-36.5900;-26.0700;-10.5200
1270.6860;-37.4100;-25.9700;-11.4400
1270.8850;-38.4700;-25.8500;-12.6200
1271.0840;-39.2600;-25.7300;-13.5300
1271.2830;-40.1600;-25.6300;-14.5300
1271.4820;-40.9000;-25.5000;-15.4000
1271.6810;-41.2100;-25.3900;-15.8200
1271.8810;-40.9000;-25.2800;-15.6200
1272.0800;-40.0500;-25.1700;-14.8800
1272.2790;-38.8300;-25.0600;-13.7700
1272.4780;-37.5200;-24.9500;-12.5700
1272.6770;-36.2000;-24.8500;-11.3500
1272.8760;-34.7900;-24.7400;-10.0500
1273.0750;-33.8200;-24.6500;-9.1700
1273.2740;-32.7800;-24.5600;-8.2200
1273.4740;-31.8400;-24.4500;-7.3900
1273.6730;-30.9700;-24.3700;-6.6000
1273.8720;-30.2100;-24.2700;-5.9400
1274.0710;-29.4900;-24.1800;-5.3100
1274.2700;-28.8400;-24.0900;-4.7500
1274.4690;-28.2500;-23.9900;-4.2600
1274.6680;-27.7100;-23.9100;-3.8000
1274.8670;-27.2300;-23.8100;-3.4200
1275.0660;-26.7800;-23.7200;-3.0600
1275.2660;-26.3800;-23.6400;-2.7400
1275.4650;-25.9600;-23.5400;-2.4200
1275.6640;-25.6900;-23.4600;-2.2300
1275.8630;-25.4100;-23.3600;-2.0500
1276.0620;-25.1400;-23.2700;-1.8700
1276.2610;-24.9300;-23.1800;-1.7500
1276.4600;-24.7200;-23.0900;-1.6300
1276.6590;-24.5400;-23.0000;-1.5400
1276.8580;-24.3900;-22.9000;-1.4900
1277.0580;-24.2500;-22.8200;-1.4300
1277.2570;-24.1500;-22.7300;-1.4200
1277.4560;-24.0500;-22.6400;-1.4100
1277.6550;-23.9800;-22.5700;-1.4100
1277.8540;-23.9100;-22.4700;-1.4400
1278.0530;-23.8500;-22.4000;-1.4500
1278.2520;-23.8200;-22.3100;-1.5100
1278.4510;-23.7700;-22.2300;-1.5400
1278.6500;-23.7400;-22.1600;-1.5800
1278.8500;-23.7000;-22.0700;-1.6300
1279.0490;-23.6600;-22.0000;-1.6600
1279.2480;-23.6300;-21.9200;-1.7100
1279.4470;-23.5700;-21.8400;-1.7300
1279.6460;-23.5400;-21.7700;-1.7700
1279.8450;-23.4700;-21.6800;-1.7900
1280.0440;-23.4200;-21.6200;-1.8000
1280.2430;-23.3600;-21.5400;-1.8200
1280.4430;-23.2800;-21.4600;-1.8200
1280.6420;-23.2200;-21.3900;-1.8300
1280.8410;-23.1300;-21.3100;-1.8200
1281.0400;-23.0500;-21.2400;-1.8100
1281.2390;-22.9800;-21.1600;-1.8200
1281.4380;-22.9000;-21.0800;-1.8200
1281.6370;-22.8400;-21.0100;-1.8300
1281.8360;-22.7600;-20.9300;-1.8300
1282.0350;-22.7100;-20.8700;-1.8400
1282.2350;-22.6500;-20.7800;-1.8700
1282.4340;-22.6100;-20.7100;-1.9000
1282.6330;-22.6000;-20.6500;-1.9500
1282.8320;-22.5700;-20.5800;-1.9900
1283.0310;-22.5700;-20.5200;-2.0500
1283.2300;-22.5800;-20.4500;-2.1300
1283.4290;-22.6100;-20.3900;-2.2200
1283.6280;-22.6600;-20.3200;-2.3400
1283.8270;-22.7100;-20.2600;-2.4500
1284.0270;-22.7800;-20.2100;-2.5700
1284.2260;-22.8600;-20.1400;-2.7200
1284.4250;-22.9600;-20.0900;-2.8700
1284.6240;-23.0900;-20.0300;-3.0600
1284.8230;-23.2100;-19.9700;-3.2400
1285.0220;-23.3600;-19.9300;-3.4300
1285.2210;-23.5100;-19.8600;-3.6500
1285.4200;-23.6800;-19.8100;-3.8700
1285.6200;-23.8700;-19.7500;-4.1200
1285.8190;-24.0500;-19.6900;-4.3600
1286.0180;-24.2600;-19.6500;-4.6100
1286.2170;-24.4500;-19.5800;-4.8700
1286.4160;-24.6500;-19.5400;-5.1100
1286.6150;-24.8700;-19.4900;-5.3800
1286.8140;-25.0600;-19.4300;-5.6300
1287.0130;-25.2600;-19.3900;-5.8700
1287.2120;-25.4100;-19.3300;-6.0800
1287.4120;-25.5500;-19.2900;-6.2600
1287.6110;-25.6500;-19.2300;-6.4200
1287.8100;-25.6900;-19.1800;-6.5100
1288.0090;-25.7100;-19.1400;-6.5700
1288.2080;-25.6400;-19.0800;-6.5600
1288.4070;-25.5300;-19.0500;-6.4800
1288.6060;-25.3600;-19.0000;-6.3600
1288.8050;-25.1400;-18.9600;-6.1800
1289.0040;-24.8800;-18.9200;-5.9600
1289.2040;-24.5700;-18.8700;-5.7000
1289.4030;-24.2400;-18.8500;-5.3900
1289.6020;-23.8900;-18.8000;-5.0900
1289.8010;-23.5300;-18.7600;-4.7700
1290.0000;-23.1800;-18.7200;-4.4600
1290.1990;-22.8100;-18.6800;-4.1300
1290.3980;-22.4600;-18.6600;-3.8000
1290.5970;-22.1100;-18.6200;-3.4900
1290.7970;-21.7700;-18.5900;-3.1800
1290.9960;-21.4600;-18.5300;-2.9300
1291.1950;-21.1500;-18.5000;-2.6500
1291.3940;-20.8800;-18.4700;-2.4100
1291.5930;-20.6100;-18.4100;-2.2000
1291.7920;-20.3800;-18.3900;-1.9900
1291.9910;-20.1700;-18.3400;-1.8300
1292.1900;-19.9700;-18.3100;-1.6600
1292.3890;-19.8200;-18.2700;-1.5500
1292.5890;-19.6600;-18.2200;-1.4400
1292.7880;-19.5400;-18.2000;-1.3400
1292.9870;-19.4400;-18.1500;-1.2900
1293.1860;-19.3700;-18.1300;-1.2400
1293.3850;-19.3300;-18.0900;-1.2400
1293.5840;-19.2800;-18.0500;-1.2300
1293.7830;-19.2800;-18.0200;-1.2600
1293.9820;-19.2900;-17.9900;-1.3000
1294.1810;-19.3200;-17.9700;-1.3500
1294.3810;-19.3900;-17.9300;-1.4600
1294.5800;-19.4500;-17.8900;-1.5600
1294.7790;-19.5600;-17.8700;-1.6900
1294.9780;-19.6700;-17.8400;-1.8300
1295.1770;-19.8100;-17.8200;-1.9900
1295.3760;-19.9700;-17.7900;-2.1800
1295.5750;-20.1300;-17.7600;-2.3700
1295.7740;-20.3400;-17.7300;-2.6100
1295.9740;-20.5200;-17.6900;-2.8300
1296.1730;-20.7600;-17.6800;-3.0800
1296.3720;-20.9900;-17.6500;-3.3400
1296.5710;-21.2200;-17.6300;-3.5900
1296.7700;-21.4800;-17.6000;-3.8800
1296.9690;-21.7300;-17.5800;-4.1500
1297.1680;-22.0100;-17.5700;-4.4400
1297.3670;-22.2500;-17.5500;-4.7000
1297.5660;-22.4900;-17.5300;-4.9600
1297.7660;-22.7200;-17.5100;-5.2100
1297.9650;-22.9300;-17.4900;-5.4400
1298.1640;-23.1300;-17.4800;-5.6500
1298.3630;-23.2700;-17.4700;-5.8000
1298.5620;-23.3800;-17.4600;-5.9200
1298.7610;-23.4400;-17.4400;-6.0000
1298.9600;-23.4700;-17.4400;-6.0300
1299.1590;-23.4600;-17.4300;-6.0300
1299.3580;-23.3900;-17.4200;-5.9700
1299.5580;-23.2800;-17.4200;-5.8600
1299.7570;-23.1300;-17.4100;-5.7200
1299.9560;-22.9600;-17.4100;-5.5500
1300.1550;-22.7500;-17.4000;-5.3500
1300.3540;-22.5200;-17.4000;-5.1200
1300.5530;-22.2900;-17.4000;-4.8900
1300.7520;-22.0300;-17.3900;-4.6400
1300.9510;-21.7700;-17.4000;-4.3700
1301.1500;-21.5300;-17.4000;-4.1300
1301.3500;-21.2700;-17.4000;-3.8700
1301.5490;-21.0400;-17.4100;-3.6300
1301.7480;-20.7900;-17.4100;-3.3800
1301.9470;-20.5600;-17.4200;-3.1400
1302.1460;-20.3400;-17.4200;-2.9200
1302.3450;-20.1200;-17.4300;-2.6900
1302.5440;-19.9400;-17.4300;-2.5100
1302.7430;-19.7400;-17.4300;-2.3100
1302.9430;-19.5700;-17.4400;-2.1300
1303.1420;-19.4100;-17.4400;-1.9700
1303.3410;-19.2600;-17.4600;-1.8000
1303.5400;-19.1300;-17.4600;-1.6700
1303.7390;-19.0000;-17.4600;-1.5400
1303.9380;-18.9000;-17.4700;-1.4300
1304.1370;-18.8000;-17.4800;-1.3200
1304.3360;-18.7300;-17.5000;-1.2300
1304.5350;-18.6700;-17.5000;-1.1700
1304.7350;-18.6100;-17.5100;-1.1000
1304.9340;-18.5800;-17.5200;-1.0600
1305.1330;-18.5600;-17.5300;-1.0300
1305.3320;-18.5600;-17.5500;-1.0100
1305.5310;-18.5700;-17.5600;-1.0100
1305.7300;-18.5900;-17.5800;-1.0100
1305.9290;-18.6400;-17.5800;-1.0600
1306.1280;-18.7000;-17.6000;-1.1000
1306.3270;-18.7800;-17.6100;-1.1700
1306.5270;-18.8700;-17.6300;-1.2400
1306.7260;-18.9800;-17.6500;-1.3300
1306.9250;-19.1000;-17.6500;-1.4500
1307.1240;-19.2400;-17.6800;-1.5600
1307.3230;-19.4100;-17.6900;-1.7200
1307.5220;-19.5900;-17.7100;-1.8800
1307.7210;-19.7900;-17.7400;-2.0500
1307.9200;-20.0000;-17.7500;-2.2500
1308.1200;-20.2400;-17.7900;-2.4500
1308.3190;-20.5000;-17.8000;-2.7000
1308.5180;-20.7800;-17.8400;-2.9400
1308.7170;-21.0800;-17.8800;-3.2000
1308.9160;-21.3800;-17.8900;-3.4900
1309.1150;-21.7200;-17.9400;-3.7800
1309.3140;-22.0600;-17.9600;-4.1000
1309.5130;-22.4200;-18.0100;-4.4100
1309.7120;-22.8000;-18.0500;-4.7500
1309.9120;-23.1600;-18.0700;-5.0900
1310.1110;-23.5500;-18.1300;-5.4200
1310.3100;-23.9000;-18.1600;-5.7400
1310.5090;-24.2500;-18.2100;-6.0400
1310.7080;-24.5900;-18.2500;-6.3400
1310.9070;-24.8700;-18.2900;-6.5800
1311.1060;-25.1400;-18.3500;-6.7900
1311.3050;-25.3100;-18.3800;-6.9300
1311.5040;-25.4300;-18.4500;-6.9800
1311.7040;-25.4800;-18.4800;-7.0000
1311.9030;-25.4500;-18.5300;-6.9200
1312.1020;-25.3700;-18.5800;-6.7900
1312.3010;-25.2100;-18.6300;-6.5800
1312.5000;-25.0300;-18.7000;-6.3300
1312.6990;-24.8000;-18.7400;-6.0600
1312.8980;-24.5300;-18.8000;-5.7300
1313.0970;-24.2700;-18.8500;-5.4200
1313.2970;-23.9800;-18.9000;-5.0800
1313.4960;-23.7300;-18.9800;-4.7500
1313.6950;-23.4500;-19.0300;-4.4200
1313.8940;-23.1900;-19.0900;-4.1000
1314.0930;-22.9400;-19.1400;-3.8000
1314.2920;-22.7100;-19.2000;-3.5100
1314.4910;-22.5100;-19.2700;-3.2400
1314.6900;-22.3000;-19.3200;-2.9800
1314.8890;-22.1400;-19.3800;-2.7600
1315.0890;-21.9700;-19.4300;-2.5400
1315.2880;-21.8300;-19.5000;-2.3300
1315.4870;-21.7200;-19.5500;-2.1700
1315.6860;-21.6000;-19.6100;-1.9900
1315.8850;-21.5300;-19.6700;-1.8600
1316.0840;-21.4500;-19.7300;-1.7200
1316.2830;-21.4000;-19.8000;-1.6000
1316.4820;-21.3700;-19.8500;-1.5200
1316.6810;-21.3400;-19.9200;-1.4200
1316.8810;-21.3500;-19.9800;-1.3700
1317.0800;-21.3600;-20.0500;-1.3100
1317.2790;-21.4000;-20.1200;-1.2800
1317.4780;-21.4400;-20.1900;-1.2500
1317.6770;-21.4800;-20.2600;-1.2200
1317.8760;-21.5400;-20.3200;-1.2200
1318.0750;-21.6000;-20.3900;-1.2100
1318.2740;-21.7000;-20.4600;-1.2400
1318.4740;-21.7700;-20.5300;-1.2400
1318.6730;-21.8900;-20.6200;-1.2700
1318.8720;-21.9800;-20.6800;-1.3000
1319.0710;-22.0900;-20.7800;-1.3100
1319.2700;-22.2100;-20.8500;-1.3600
1319.4690;-22.3200;-20.9300;-1.3900
1319.6680;-22.4600;-21.0200;-1.4400
1319.8670;-22.5600;-21.1000;-1.4600
1320.0660;-22.6900;-21.2000;-1.4900
1320.2660;-22.8100;-21.2800;-1.5300
1320.4650;-22.9200;-21.3700;-1.5500
1320.6640;-23.0600;-21.4700;-1.5900
1320.8630;-23.1600;-21.5600;-1.6000
1321.0620;-23.2900;-21.6600;-1.6300
1321.2610;-23.3900;-21.7500;-1.6400
1321.4600;-23.5000;-21.8600;-1.6400
1321.6590;-23.6000;-21.9500;-1.6500
1321.8580;-23.6900;-22.0500;-1.6400
1322.0580;-23.8000;-22.1600;-1.6400
1322.2570;-23.8900;-22.2600;-1.6300
1322.4560;-23.9800;-22.3700;-1.6100
1322.6550;-24.0600;-22.4700;-1.5900
1322.8540;-24.1500;-22.5900;-1.5600
1323.0530;-24.2500;-22.6900;-1.5600
1323.2520;-24.3300;-22.8100;-1.5200
1323.4510;-24.4300;-22.9200;-1.5100
1323.6500;-24.5100;-23.0300;-1.4800
1323.8500;-24.6000;-23.1600;-1.4400
1324.0490;-24.6900;-23.2700;-1.4200
1324.2480;-24.7800;-23.4000;-1.3800
1324.4470;-24.8900;-23.5100;-1.3800
1324.6460;-24.9800;-23.6300;-1.3500
1324.8450;-25.0900;-23.7600;-1.3300
1325.0440;-25.1900;-23.8700;-1.3200
1325.2430;-25.3000;-24.0100;-1.2900
1325.4430;-25.4100;-24.1200;-1.2900
1325.6420;-25.5300;-24.2600;-1.2700
1325.8410;-25.6600;-24.3900;-1.2700
1326.0400;-25.7600;-24.5200;-1.2400
1326.2390;-25.9000;-24.6500;-1.2500
1326.4380;-26.0100;-24.7800;-1.2300
1326.6370;-26.1300;-24.9100;-1.2200
1326.8360;-26.2500;-25.0400;-1.2100
1327.0350;-26.3800;-25.1800;-1.2000
1327.2350;-26.5100;-25.3200;-1.1900
1327.4340;-26.6200;-25.4500;-1.1700
1327.6330;-26.7600;-25.6000;-1.1600
1327.8320;-26.8700;-25.7200;-1.1500
1328.0310;-27.0000;-25.8700;-1.1300
1328.2300;-27.1400;-26.0100;-1.1300
1328.4290;-27.2600;-26.1500;-1.1100
1328.6280;-27.4000;-26.3000;-1.1000
1328.8270;-27.5200;-26.4400;-1.0800
1329.0270;-27.6500;-26.6000;-1.0500
1329.2260;-27.7900;-26.7300;-1.0600
1329.4250;-27.9200;-26.8900;-1.0300
1329.6240;-28.0700;-27.0300;-1.0400
1329.8230;-28.2100;-27.1700;-1.0400
1330.0220;-28.3800;-27.3300;-1.0500
1330.2210;-28.5700;-27.4700;-1.1000
1330.4200;-28.7200;-27.6300;-1.0900
1330.6200;-28.9000;-27.7700;-1.1300
1330.8190;-29.0900;-27.9200;-1.1700
1331.0180;-29.3100;-28.0700;-1.2400
1331.2170;-29.5300;-28.2300;-1.3000
1331.4160;-29.7900;-28.3900;-1.4000
1331.6150;-30.0300;-28.5700;-1.4600
1331.8140;-30.3200;-28.7100;-1.6100
1332.0130;-30.6100;-28.8500;-1.7600
1332.2120;-30.9200;-29.0200;-1.9000
1332.4120;-31.2700;-29.1700;-2.1000
1332.6110;-31.6300;-29.3400;-2.2900
1332.8100;-32.0200;-29.5000;-2.5200
1333.0090;-32.4100;-29.6600;-2.7500
1333.2080;-32.8300;-29.8300;-3.0000
1333.4070;-33.2800;-29.9800;-3.3000
1333.6060;-33.7300;-30.1500;-3.5800
1333.8050;-34.2200;-30.3100;-3.9100
1334.0040;-34.6900;-30.4700;-4.2200
1334.2040;-35.1700;-30.6500;-4.5200
1334.4030;-35.6300;-30.8100;-4.8200
1334.6020;-36.0700;-30.9800;-5.0900
1334.8010;-36.4900;-31.1500;-5.3400
1335.0000;-36.8500;-31.3200;-5.5300
1335.1990;-37.1600;-31.4900;-5.6700
1335.3980;-37.3800;-31.6600;-5.7200
1335.5970;-37.5300;-31.8500;-5.6800
1335.7970;-37.6200;-32.0200;-5.6000
1335.9960;-37.6300;-32.2100;-5.4200
1336.1950;-37.5900;-32.3800;-5.2100
1336.3940;-37.4700;-32.5600;-4.9100
1336.5930;-37.3400;-32.7400;-4.6000
1336.7920;-37.1900;-32.9100;-4.2800
1336.9910;-37.0300;-33.1000;-3.9300
1337.1900;-36.8900;-33.2800;-3.6100
1337.3890;-36.7500;-33.4700;-3.2800
1337.5890;-36.6400;-33.6500;-2.9900
1337.7880;-36.5400;-33.8300;-2.7100
1337.9870;-36.4700;-34.0300;-2.4400
1338.1860;-36.4300;-34.2000;-2.2300
1338.3850;-36.4100;-34.3900;-2.0200
1338.5840;-36.4400;-34.5700;-1.8700
1338.7830;-36.4800;-34.7500;-1.7300
1338.9820;-36.5700;-34.9500;-1.6200
1339.1810;-36.6800;-35.1300;-1.5500
1339.3810;-36.8300;-35.3200;-1.5100
1339.5800;-37.0100;-35.4900;-1.5200
1339.7790;-37.2200;-35.6800;-1.5400
1339.9780;-37.4700;-35.8700;-1.6000
1340.1770;-37.7300;-36.0500;-1.6800
1340.3760;-38.0500;-36.2600;-1.7900
1340.5750;-38.3900;-36.4400;-1.9500
1340.7740;-38.8200;-36.6300;-2.1900
1340.9740;-39.1500;-36.8100;-2.3400
1341.1730;-39.5500;-36.9900;-2.5600
1341.3720;-40.0000;-37.1800;-2.8200
1341.5710;-40.4700;-37.3700;-3.1000
1341.7700;-40.9700;-37.5600;-3.4100
1341.9690;-41.5000;-37.7300;-3.7700
1342.1680;-42.0400;-37.9300;-4.1100
1342.3670;-42.6100;-38.1100;-4.5000
1342.5660;-43.1800;-38.2900;-4.8900
1342.7660;-43.7800;-38.5300;-5.2500
1342.9650;-44.4000;-38.6900;-5.7100
1343.1640;-45.0300;-38.8900;-6.1400
1343.3630;-45.6600;-39.0700;-6.5900
1343.5620;-46.2800;-39.2600;-7.0200
1343.7610;-46.8900;-39.4500;-7.4400
1343.9600;-47.4900;-39.6500;-7.8400
1344.1590;-48.0700;-39.8600;-8.2100
1344.3580;-48.7500;-40.0500;-8.7000
1344.5580;-49.1500;-40.2500;-8.9000
1344.7570;-49.6200;-40.4400;-9.1800
1344.9560;-50.0300;-40.6300;-9.4000
1345.1550;-50.3900;-40.8200;-9.5700
1345.3540;-50.7000;-41.0000;-9.7000
1345.5530;-50.9500;-41.2000;-9.7500
1345.7520;-51.1900;-41.3800;-9.8100
1345.9510;-51.3500;-41.5800;-9.7700
1346.1500;-51.5000;-41.7800;-9.7200
1346.3500;-51.6100;-41.9700;-9.6400
1346.5490;-51.7100;-42.1900;-9.5200
1346.7480;-51.8000;-42.3700;-9.4300
1346.9470;-51.8300;-42.5600;-9.2700
1347.1460;-51.8800;-42.7500;-9.1300
1347.3450;-51.8800;-42.9200;-8.9600
1347.5440;-51.9400;-43.1600;-8.7800
1347.7430;-52.0100;-43.3900;-8.6200
1347.9430;-52.0400;-43.6200;-8.4200
1348.1420;-52.0400;-43.8000;-8.2400
1348.3410;-52.0200;-44.0000;-8.0200
1348.5400;-51.9600;-44.1600;-7.8000
1348.7390;-51.9200;-44.3400;-7.5800
1348.9380;-51.8500;-44.5200;-7.3300
1349.1370;-51.7900;-44.6800;-7.1100
1349.3360;-51.6800;-44.8500;-6.8300
1349.5350;-51.5900;-45.0200;-6.5700
1349.7350;-51.4800;-45.1900;-6.2900
1349.9340;-51.3800;-45.3800;-6.0000
1350.1330;-51.3200;-45.5800;-5.7400
1350.3320;-51.2800;-45.8400;-5.4400
1350.5310;-51.2000;-46.0500;-5.1500
1350.7300;-51.0800;-46.2300;-4.8500
1350.9290;-50.9400;-46.4000;-4.5400
1351.1280;-50.7800;-46.5200;-4.2600
1351.3270;-50.6700;-46.7000;-3.9700
1351.5270;-50.6000;-46.8700;-3.7300
1351.7260;-50.5700;-47.1200;-3.4500
1351.9250;-50.5200;-47.3100;-3.2100
1352.1240;-50.4600;-47.4900;-2.9700
1352.3230;-50.4200;-47.6800;-2.7400
1352.5220;-50.4400;-47.8800;-2.5600
1352.7210;-50.3900;-48.0500;-2.3400
1352.9200;-50.3900;-48.2000;-2.1900
1353.1200;-50.4900;-48.5500;-1.9400
1353.3190;-50.4600;-48.5900;-1.8700
1353.5180;-50.5000;-48.7700;-1.7300
1353.7170;-50.5700;-48.9500;-1.6200
1353.9160;-50.5900;-49.0600;-1.5300
1354.1150;-50.6500;-49.2200;-1.4300
1354.3140;-50.8200;-49.4500;-1.3700
1354.5130;-50.9500;-49.6500;-1.3000
1354.7120;-51.2200;-49.9600;-1.2600
1354.9120;-51.4800;-50.2500;-1.2300
1355.1110;-51.6300;-50.4400;-1.1900
1355.3100;-51.7700;-50.5700;-1.2000
1355.5090;-51.7500;-50.5900;-1.1600
1355.7080;-52.0200;-50.8500;-1.1700
1355.9070;-52.3000;-51.1300;-1.1700
1356.1060;-52.4800;-51.3000;-1.1800
1356.3050;-52.5900;-51.3900;-1.2000
1356.5040;-52.7300;-51.5200;-1.2100
1356.7040;-52.6800;-51.4300;-1.2500
1356.9030;-52.8600;-51.6000;-1.2600
1357.1020;-53.2600;-51.9700;-1.2900
1357.3010;-53.5100;-52.2100;-1.3000
1357.5000;-53.7300;-52.4000;-1.3300
1357.6990;-53.9500;-52.5900;-1.3600
1357.8980;-54.0200;-52.6600;-1.3600
1358.0970;-54.1100;-52.7300;-1.3800
1358.2970;-54.3100;-52.9200;-1.3900
1358.4960;-54.5600;-53.1500;-1.4100
1358.6950;-54.7100;-53.3000;-1.4100
1358.8940;-54.8600;-53.4700;-1.3900
1359.0930;-55.0400;-53.6300;-1.4100
1359.2920;-55.0800;-53.6900;-1.3900
1359.4910;-55.4700;-54.0700;-1.4000
1359.6900;-55.7600;-54.3800;-1.3800
1359.8890;-55.9400;-54.5800;-1.3600
1360.0890;-56.0200;-54.6600;-1.3600
1360.2880;-56.0500;-54.7100;-1.3400
1360.4870;-56.0300;-54.7000;-1.3300
1360.6860;-56.1900;-54.8900;-1.3000
1360.8850;-56.5400;-55.2300;-1.3100
1361.0840;-56.8300;-55.5400;-1.2900
1361.2830;-56.9900;-55.7200;-1.2700
1361.4820;-57.1900;-55.9000;-1.2900
1361.6810;-57.4000;-56.1400;-1.2600
1361.8810;-57.5500;-56.2800;-1.2700
1362.0800;-57.7800;-56.5200;-1.2600
1362.2790;-58.2400;-56.9500;-1.2900
1362.4780;-58.4600;-57.1900;-1.2700
1362.6770;-58.6600;-57.3600;-1.3000
1362.8760;-58.5700;-57.2600;-1.3100
1363.0750;-58.5500;-57.2300;-1.3200
1363.2740;-58.3500;-57.0100;-1.3400
1363.4740;-58.4700;-57.1000;-1.3700
1363.6730;-58.6300;-57.2000;-1.4300
1363.8720;-58.8200;-57.3700;-1.4500
1364.0710;-59.1100;-57.6000;-1.5100
1364.2700;-59.3700;-57.8100;-1.5600
1364.4690;-59.7400;-58.1500;-1.5900
1364.6680;-60.3400;-58.7300;-1.6100
1364.8670;-60.6500;-58.9500;-1.7000
1365.0660;-60.7300;-58.9300;-1.8000
1365.2660;-61.0200;-59.1400;-1.8800
1365.4650;-61.0400;-59.0900;-1.9500
1365.6640;-61.2300;-59.1700;-2.0600
1365.8630;-61.4000;-59.2500;-2.1500
1366.0620;-61.5400;-59.2700;-2.2700
1366.2610;-61.6500;-59.3000;-2.3500
1366.4600;-61.8500;-59.3800;-2.4700
1366.6590;-62.1400;-59.5700;-2.5700
1366.8580;-62.5000;-59.8400;-2.6600
1367.0580;-62.8100;-59.9800;-2.8300
1367.2570;-63.0600;-60.1200;-2.9400
1367.4560;-63.4900;-60.4100;-3.0800
1367.6550;-63.7700;-60.6300;-3.1400
1367.8540;-64.2500;-60.9300;-3.3200
1368.0530;-64.5200;-61.0900;-3.4300
1368.2520;-64.6400;-61.0900;-3.5500
1368.4510;-65.1100;-61.4300;-3.6800
1368.6500;-65.3500;-61.5800;-3.7700
1368.8500;-65.5700;-61.7000;-3.8700
1369.0490;-65.7600;-61.7400;-4.0200
1369.2480;-65.8400;-61.7400;-4.1000
1369.4470;-65.8200;-61.6700;-4.1500
1369.6460;-66.0200;-61.8400;-4.1800
1369.8450;-66.4300;-62.2100;-4.2200
1370.0440;-66.6800;-62.4200;-4.2600
1370.2430;-66.8700;-62.6000;-4.2700
1370.4430;-67.0300;-62.6800;-4.3500
1370.6420;-66.9700;-62.7500;-4.2200
1370.8410;-67.3200;-63.1200;-4.2000
1371.0400;-67.6600;-63.4200;-4.2400
1371.2390;-67.8700;-63.6400;-4.2300
1371.4380;-67.8400;-63.7700;-4.0700
1371.6370;-67.8000;-63.7600;-4.0400
1371.8360;-67.7400;-63.7400;-4.0000
1372.0350;-67.9000;-63.9900;-3.9100
1372.2350;-68.1500;-64.2600;-3.8900
1372.4340;-68.1800;-64.4200;-3.7600
1372.6330;-68.2200;-64.5300;-3.6900
1372.8320;-68.3400;-64.6600;-3.6800
1373.0310;-68.3600;-64.7000;-3.6600
1373.2300;-68.4700;-64.9000;-3.5700
1373.4290;-68.6200;-65.1500;-3.4700
1373.6280;-68.8600;-65.3400;-3.5200
1373.8270;-68.8900;-65.5100;-3.3800
1374.0270;-69.1400;-65.6200;-3.5200
1374.2260;-69.2400;-65.8200;-3.4200
1374.4250;-69.5300;-66.0600;-3.4700
1374.6240;-69.8500;-66.2300;-3.6200
1374.8230;-70.1000;-66.5400;-3.5600
1375.0220;-70.4600;-66.6900;-3.7700
1375.2210;-70.3700;-66.8700;-3.5000
1375.4200;-70.7800;-67.0300;-3.7500
1375.6200;-71.4000;-67.2300;-4.1700
1375.8190;-71.3900;-67.3400;-4.0500
1376.0180;-71.5900;-67.5500;-4.0400
1376.2170;-72.0500;-67.7200;-4.3300
1376.4160;-72.0500;-68.0100;-4.0400
1376.6150;-72.5100;-68.2900;-4.2200
1376.8140;-73.1300;-68.4400;-4.6900
1377.0130;-73.2100;-68.7600;-4.4500
1377.2120;-73.7400;-69.0800;-4.6600
1377.4120;-74.1300;-69.1500;-4.9800
1377.6110;-74.1500;-69.2500;-4.9000
1377.8100;-74.2600;-69.2800;-4.9800
1378.0090;-74.8200;-69.4300;-5.3900
1378.2080;-75.1700;-69.6300;-5.5400
1378.4070;-75.5000;-69.8500;-5.6500
1378.6060;-74.8400;-70.2800;-4.5600
1378.8050;-75.2900;-70.5400;-4.7500
1379.0040;-74.9400;-70.5900;-4.3500
1379.2040;-75.0300;-70.8700;-4.1600
1379.4030;-74.9700;-71.0200;-3.9500
1379.6020;-75.0300;-70.7300;-4.3000
1379.8010;-74.5100;-71.0400;-3.4700
1380.0000;-74.7100;-71.3100;-3.4000
1380.1990;-74.7100;-71.4500;-3.2600
1380.3980;-74.5900;-71.7300;-2.8600
1380.5970;-75.0200;-72.3200;-2.7000
1380.7970;-75.0800;-72.8500;-2.2300
1380.9960;-75.2700;-72.8900;-2.3800
1381.1950;-75.1300;-72.9500;-2.1800
1381.3940;-74.8300;-72.7500;-2.0800
1381.5930;-74.5100;-72.4600;-2.0500
1381.7920;-74.4900;-72.6100;-1.8800
1381.9910;-74.5800;-72.7200;-1.8600
1382.1900;-74.6400;-72.7500;-1.8900
1382.3890;-74.5900;-73.4100;-1.1800
1382.5890;-75.1600;-73.4600;-1.7000
1382.7880;-75.1200;-74.4200;-0.7000
1382.9870;-75.6200;-74.7300;-0.8900
1383.1860;-76.3300;-74.9500;-1.3800
1383.3850;-76.6400;-74.2800;-2.3600
1383.5840;-76.3300;-74.1500;-2.1800
1383.7830;-76.2500;-73.7600;-2.4900
1383.9820;-76.8800;-74.1100;-2.7700
1384.1810;-76.9700;-74.2600;-2.7100
1384.3810;-77.9000;-74.3000;-3.6000
1384.5800;-78.3600;-74.0300;-4.3300
1384.7790;-78.5200;-74.1000;-4.4200
1384.9780;-78.7100;-74.8900;-3.8200
1385.1770;-79.3200;-74.7000;-4.6200
1385.3760;-81.5300;-75.1300;-6.4000
1385.5750;-80.6900;-75.0800;-5.6100
1385.7740;-81.2100;-75.3000;-5.9100
1385.9740;-83.2400;-75.3000;-7.9400
1386.1730;-80.3100;-75.3000;-5.0100
1386.3720;-81.3200;-74.9700;-6.3500
1386.5710;-81.8700;-75.3200;-6.5500
1386.7700;-83.4000;-75.0900;-8.3100
1386.9690;-82.1100;-75.1400;-6.9700
1387.1680;-81.1100;-75.7600;-5.3500
1387.3670;-82.6400;-75.5900;-7.0500
1387.5660;-81.6900;-76.0100;-5.6800
1387.7660;-85.5100;-75.9100;-9.6000
1387.9650;-84.4300;-76.4800;-7.9500
1388.1640;-82.0500;-76.9800;-5.0700
1388.3630;-89.1000;-76.8100;-12.2900
1388.5620;-84.0300;-76.5500;-7.4800
1388.7610;-84.0300;-77.0200;-7.0100
1388.9600;-86.0900;-76.8100;-9.2800
1389.1590;-83.7500;-76.3100;-7.4400
1389.3580;-81.9300;-76.5800;-5.3500
1389.5580;-86.0900;-76.6900;-9.4000
1389.7570;-82.7800;-77.7000;-5.0800
1389.9560;-81.8100;-77.7000;-4.1100
1390.1550;-81.9900;-76.6900;-5.3000
1390.3540;-83.4800;-76.5600;-6.9200
1390.5530;-82.1700;-76.6500;-5.5200
1390.7520;-81.4200;-76.8900;-4.5300
1390.9510;-83.3200;-76.6500;-6.6700
1391.1500;-82.4300;-78.2300;-4.2000
1391.3500;-80.7400;-76.9400;-3.8000
1391.5490;-81.3300;-77.5600;-3.7700
1391.7480;-83.4100;-77.1100;-6.3000
1391.9470;-81.7000;-77.0300;-4.6700
1392.1460;-80.9300;-77.1800;-3.7500
1392.3450;-84.0400;-77.4700;-6.5700
1392.5440;-81.5400;-78.4200;-3.1200
1392.7430;-80.9300;-79.2700;-1.6600
1392.9430;-86.1000;-78.4700;-7.6300
1393.1420;-83.5800;-77.7100;-5.8700
1393.3410;-82.0000;-77.8300;-4.1700
1393.5400;-82.2400;-77.7400;-4.5000
1393.7390;-83.0900;-77.4900;-5.6000
1393.9380;-80.1600;-78.6400;-1.5200
1394.1370;-81.0300;-78.6700;-2.3600
1394.3360;-81.1200;-78.6900;-2.4300
1394.5350;-81.7600;-78.3200;-3.4400
1394.7350;-83.7600;-77.3900;-6.3700
1394.9340;-82.5100;-78.1600;-4.3500
1395.1330;-81.7600;-78.2600;-3.5000
1395.3320;-82.1200;-78.8400;-3.2800
1395.5310;-80.9300;-79.2300;-1.7000
1395.7300;-83.2500;-78.9900;-4.2600
1395.9290;-82.1200;-78.3200;-3.8000
1396.1280;-81.6500;-77.9700;-3.6800
1396.3270;-80.9800;-77.6200;-3.3600
1396.5270;-82.5100;-78.4200;-4.0900
1396.7260;-83.7600;-79.5000;-4.2600
1396.9250;-84.2300;-79.7100;-4.5200
1397.1240;-81.7600;-79.3600;-2.4000
1397.3230;-83.2500;-79.4300;-3.8200
1397.5220;-81.2200;-79.1700;-2.0500
1397.7210;-81.7600;-78.9900;-2.7700
1397.9200;-81.9400;-78.3900;-3.5500
1398.1200;-81.5400;-77.4300;-4.1100
1398.3190;-85.2500;-77.8700;-7.3800
1398.5180;-83.1000;-79.0000;-4.1000
1398.7170;-85.0200;-78.3800;-6.6400
1398.9160;-83.5900;-78.3500;-5.2400
1399.1150;-87.1600;-78.6500;-8.5100
1399.3140;-82.3800;-79.2100;-3.1700
1399.5130;-81.2300;-78.3800;-2.8500
1399.7120;-82.9500;-79.8600;-3.0900
1399.9120;-82.8000;-80.3300;-2.4700
1400.1110;-83.5900;-80.0100;-3.5800
1400.3100;-83.0200;-78.5400;-4.4800
1400.5090;-82.3200;-79.0000;-3.3200
1400.7080;-88.0300;-78.7000;-9.3300
1400.9070;-82.8000;-79.6100;-3.1900
1401.1060;-82.5200;-78.0300;-4.4900
1401.3050;-81.7100;-79.8600;-1.8500
1401.5040;-84.0500;-79.0600;-4.9900
1401.7040;-82.0100;-79.6800;-2.3300
1401.9030;-89.7900;-80.4100;-9.3800
1402.1020;-83.7700;-80.0900;-3.6800
1402.3010;-82.5200;-80.4900;-2.0300
1402.5000;-81.5500;-78.1500;-3.4000
1402.6990;-86.7800;-79.9000;-6.8800
1402.8980;-83.2600;-78.7600;-4.5000
1403.0970;-81.7100;-78.4800;-3.2300
1403.2970;-83.4200;-79.0300;-4.3900
1403.4960;-84.5600;-79.9300;-4.6300
1403.6950;-81.5500;-79.0000;-2.5500
1403.8940;-83.9500;-79.7200;-4.2300
1404.0930;-84.5600;-79.5100;-5.0500
1404.2920;-83.3400;-80.7100;-2.6300
1404.4910;-82.3200;-78.5400;-3.7800
1404.6900;-91.5500;-79.6500;-11.9000
1404.8890;-82.5200;-78.4800;-4.0400
1405.0890;-84.1400;-81.1800;-2.9600
1405.2880;-82.7300;-79.9000;-2.8300
1405.4870;-83.0200;-80.0500;-2.9700
1405.6860;-81.5500;-79.7200;-1.8300
1405.8850;-84.4500;-78.6500;-5.8000
1406.0840;-84.5600;-78.9700;-5.5900
1406.2830;-83.5900;-79.0600;-4.5300
1406.4820;-85.8100;-79.2100;-6.6000
1406.6810;-81.1400;-79.3500;-1.7900
1406.8810;-82.2600;-78.9200;-3.3400
1407.0800;-83.9600;-78.3600;-5.6000
1407.2790;-83.7800;-80.1000;-3.6800
1407.4780;-85.4000;-80.9500;-4.4500
1407.6770;-81.9000;-79.2500;-2.6500
1407.8760;-81.3000;-79.5200;-1.7800
1408.0750;-81.7800;-78.9500;-2.8300
1408.2740;-83.6000;-79.2500;-4.3500
1408.4740;-81.8400;-78.1300;-3.7100
1408.6730;-81.3000;-78.8300;-2.4700
1408.8720;-83.4300;-78.4400;-4.9900
1409.0710;-84.0600;-78.9200;-5.1400
1409.2700;-84.0600;-78.4400;-5.6200
1409.4690;-86.1200;-80.3800;-5.7400
1409.6680;-81.9000;-80.0200;-1.8800
1409.8670;-80.4200;-79.5200;-0.9000
1410.0660;-82.2600;-79.2200;-3.0400
1410.2660;-81.7200;-78.2600;-3.4600
1410.4650;-80.6800;-79.5200;-1.1600
1410.6640;-83.2700;-79.0100;-4.2600
1410.8630;-83.7800;-78.6900;-5.0900
1411.0620;-84.2500;-78.8000;-5.4500
1411.2610;-83.1900;-79.6600;-3.5300
1411.4600;-83.1100;-78.8000;-4.3100
1411.6590;-80.7200;-78.2600;-2.4600
1411.8580;-83.9600;-78.1300;-5.8300
1412.0580;-85.4000;-77.9600;-7.4400
1412.2570;-82.7400;-78.0900;-4.6500
1412.4560;-83.1900;-78.8600;-4.3300
1412.6550;-84.0600;-78.0400;-6.0200
1412.8540;-82.8100;-79.4800;-3.3300
1413.0530;-81.0500;-78.7100;-2.3400
1413.2520;-83.9600;-78.5500;-5.4100
1413.4510;-82.5300;-77.6700;-4.8600
1413.6500;-84.1600;-78.5000;-5.6600
1413.8500;-82.7500;-78.1700;-4.5800
1414.0490;-82.2700;-78.6700;-3.6000
1414.2480;-81.0600;-79.2600;-1.8000
1414.4470;-83.2000;-78.9900;-4.2100
1414.6460;-85.4100;-79.7400;-5.6700
1414.8450;-83.2000;-79.4600;-3.7400
1415.0440;-82.0300;-78.4500;-3.5800
1415.2430;-80.1500;-78.6700;-1.4800
1415.4430;-81.6800;-79.2300;-2.4500
1415.6420;-82.0300;-78.9000;-3.1300
1415.8410;-85.0400;-78.7200;-6.3200
1416.0400;-81.5700;-78.1400;-3.4300
1416.2390;-81.3600;-78.7200;-2.6400
1416.4380;-83.5200;-78.1900;-5.3300
1416.6370;-82.5400;-78.9000;-3.6400
1416.8360;-81.1500;-79.7000;-1.4500
1417.0350;-81.7900;-78.8400;-2.9500
1417.2350;-81.0600;-77.8800;-3.1800
1417.4340;-81.5100;-77.4600;-4.0500
1417.6330;-82.3400;-78.1200;-4.2200
1417.8320;-84.5800;-78.0000;-6.5800
1418.0310;-82.2100;-77.4200;-4.7900
1418.2300;-81.2500;-77.8100;-3.4400
1418.4290;-82.0300;-78.2400;-3.7900
1418.6280;-80.9100;-77.6800;-3.2300
1418.8270;-81.8500;-78.6100;-3.2400
1419.0270;-81.1500;-79.1400;-2.0100
1419.2260;-82.7500;-78.0500;-4.7000
1419.4250;-80.4300;-78.6700;-1.7600
1419.6240;-81.4600;-78.6100;-2.8500
1419.8230;-81.6200;-78.0500;-3.5700
1420.0220;-82.4700;-78.4500;-4.0200
1420.2210;-82.4000;-78.1000;-4.3000
1420.4200;-82.2700;-78.2400;-4.0300
1420.6200;-81.5100;-77.5500;-3.9600
1420.8190;-81.5700;-78.4800;-3.0900
1421.0180;-82.7500;-78.0200;-4.7300
1421.2170;-80.9600;-78.1000;-2.8600
1421.4160;-81.6800;-78.2200;-3.4600
1421.6150;-80.6100;-78.5700;-2.0400
1421.8140;-83.5300;-77.9400;-5.5900
1422.0130;-85.0500;-77.7800;-7.2700
1422.2120;-81.6900;-78.4600;-3.2300
1422.4120;-80.1200;-77.6900;-2.4300
1422.6110;-80.4800;-78.1500;-2.3300
1422.8100;-83.4500;-77.7100;-5.7400
1423.0090;-83.4500;-78.6200;-4.8300
1423.2080;-82.1000;-78.1100;-3.9900
1423.4070;-81.6300;-77.8700;-3.7600
1423.6060;-82.3500;-78.4600;-3.8900
1423.8050;-80.7000;-78.1100;-2.5900
1424.0040;-80.2000;-78.2000;-2.0000
1424.2040;-81.9200;-78.8200;-3.1000
1424.4030;-82.0400;-78.7900;-3.2500
1424.6020;-80.7900;-77.9600;-2.8300
1424.8010;-81.9800;-77.0900;-4.8900
1425.0000;-81.0700;-77.1900;-3.8800
