Wavelength;Intensity_Meas;Intensity_Ref;Difference_dB
1200.0000;-61.6200;-57.3300;-4.2900
1200.1990;-61.5700;-57.3100;-4.2600
1200.3980;-61.5100;-57.2900;-4.2200
1200.5970;-61.4400;-57.2600;-4.1800
1200.7970;-61.3800;-57.2100;-4.1700
1200.9960;-61.3300;-57.2000;-4.1300
1201.1950;-61.2800;-57.1800;-4.1000
1201.3940;-61.2200;-57.1100;-4.1100
1201.5930;-61.1800;-57.0700;-4.1100
1201.7920;-61.1100;-57.0200;-4.0900
1201.9910;-61.0600;-56.9800;-4.0800
1202.1900;-60.9800;-56.9500;-4.0300
1202.3890;-60.9400;-56.8700;-4.0700
1202.5890;-60.9000;-56.8000;-4.1000
1202.7880;-60.8300;-56.7800;-4.0500
1202.9870;-60.7800;-56.7300;-4.0500
1203.1860;-60.7300;-56.6800;-4.0500
1203.3850;-60.6900;-56.6000;-4.0900
1203.5840;-60.6400;-56.5700;-4.0700
1203.7830;-60.6000;-56.5400;-4.0600
1203.9820;-60.6200;-56.4900;-4.1300
1204.1810;-60.6100;-56.4500;-4.1600
1204.3810;-60.5700;-56.3900;-4.1800
1204.5800;-60.5700;-56.3900;-4.1800
1204.7790;-60.5700;-56.3700;-4.2000
1204.9780;-60.6100;-56.3100;-4.3000
1205.1770;-60.6500;-56.2800;-4.3700
1205.3760;-60.6500;-56.2700;-4.3800
1205.5750;-60.7100;-56.2500;-4.4600
1205.7740;-60.7500;-56.2300;-4.5200
1205.9740;-60.7900;-56.2100;-4.5800
1206.1730;-60.7900;-56.2000;-4.5900
1206.3720;-60.7900;-56.1800;-4.6100
1206.5710;-60.8300;-56.1600;-4.6700
1206.7700;-60.8200;-56.1400;-4.6800
1206.9690;-60.7700;-56.1000;-4.6700
1207.1680;-60.7200;-56.1000;-4.6200
1207.3670;-60.7100;-56.0800;-4.6300
1207.5660;-60.6900;-56.0200;-4.6700
1207.7660;-60.6000;-56.0100;-4.5900
1207.9650;-60.5500;-55.9800;-4.5700
1208.1640;-60.4900;-55.9400;-4.5500
1208.3630;-60.4600;-55.8900;-4.5700
1208.5620;-60.3900;-55.8600;-4.5300
1208.7610;-60.2900;-55.8300;-4.4600
1208.9600;-60.2400;-55.7800;-4.4600
1209.1590;-60.1900;-55.7300;-4.4600
1209.3580;-60.1100;-55.6600;-4.4500
1209.5580;-60.0300;-55.6200;-4.4100
1209.7570;-59.9800;-55.6000;-4.3800
1209.9560;-59.9500;-55.5300;-4.4200
1210.1550;-59.8900;-55.4600;-4.4300
1210.3540;-59.8000;-55.4200;-4.3800
1210.5530;-59.7500;-55.3900;-4.3600
1210.7520;-59.7100;-55.3400;-4.3700
1210.9510;-59.6900;-55.2800;-4.4100
1211.1500;-59.6200;-55.2400;-4.3800
1211.3500;-59.5500;-55.2000;-4.3500
1211.5490;-59.5400;-55.1800;-4.3600
1211.7480;-59.5300;-55.1500;-4.3800
1211.9470;-59.4900;-55.0800;-4.4100
1212.1460;-59.4100;-55.0700;-4.3400
1212.3450;-59.4100;-55.0500;-4.3600
1212.5440;-59.4400;-55.0100;-4.4300
1212.7430;-59.4100;-54.9800;-4.4300
1212.9430;-59.3800;-54.9500;-4.4300
1213.1420;-59.3700;-54.9200;-4.4500
1213.3410;-59.3800;-54.8900;-4.4900
1213.5400;-59.3800;-54.8700;-4.5100
1213.7390;-59.3300;-54.8500;-4.4800
1213.9380;-59.3300;-54.8000;-4.5300
1214.1370;-59.3500;-54.7900;-4.5600
1214.3360;-59.3500;-54.7300;-4.6200
1214.5350;-59.3000;-54.7000;-4.6000
1214.7350;-59.2600;-54.6800;-4.5800
1214.9340;-59.3100;-54.6300;-4.6800
1215.1330;-59.2800;-54.5800;-4.7000
1215.3320;-59.2100;-54.5300;-4.6800
1215.5310;-59.2000;-54.4900;-4.7100
1215.7300;-59.1700;-54.4500;-4.7200
1215.9290;-59.1600;-54.3900;-4.7700
1216.1280;-59.0800;-54.3300;-4.7500
1216.3270;-59.0300;-54.2600;-4.7700
1216.5270;-59.0200;-54.2300;-4.7900
1216.7260;-58.9800;-54.1800;-4.8000
1216.9250;-58.9400;-54.1000;-4.8400
1217.1240;-58.8500;-54.0500;-4.8000
1217.3230;-58.8200;-53.9900;-4.8300
1217.5220;-58.8300;-53.9400;-4.8900
1217.7210;-58.7700;-53.9000;-4.8700
1217.9200;-58.7100;-53.8400;-4.8700
1218.1200;-58.6800;-53.8000;-4.8800
1218.3190;-58.6700;-53.7500;-4.9200
1218.5180;-58.6400;-53.7100;-4.9300
1218.7170;-58.5800;-53.6600;-4.9200
1218.9160;-58.5500;-53.6300;-4.9200
1219.1150;-58.5500;-53.6100;-4.9400
1219.3140;-58.5200;-53.5500;-4.9700
1219.5130;-58.4700;-53.5300;-4.9400
1219.7120;-58.4300;-53.5100;-4.9200
1219.9120;-58.4300;-53.4600;-4.9700
1220.1110;-58.4000;-53.4300;-4.9700
1220.3100;-58.3400;-53.3900;-4.9500
1220.5090;-58.2700;-53.3500;-4.9200
1220.7080;-58.2700;-53.3300;-4.9400
1220.9070;-58.2400;-53.2800;-4.9600
1221.1060;-58.1500;-53.2200;-4.9300
1221.3050;-58.0800;-53.1900;-4.8900
1221.5040;-58.0400;-53.1400;-4.9000
1221.7040;-57.9900;-53.0800;-4.9100
1221.9030;-57.9200;-53.0300;-4.8900
1222.1020;-57.8500;-52.9700;-4.8800
1222.3010;-57.8100;-52.9100;-4.9000
1222.5000;-57.7500;-52.8400;-4.9100
1222.6990;-57.6700;-52.7900;-4.8800
1222.8980;-57.6200;-52.7100;-4.9100
1223.0970;-57.5600;-52.6500;-4.9100
1223.2970;-57.5500;-52.5800;-4.9700
1223.4960;-57.4800;-52.5000;-4.9800
1223.6950;-57.4100;-52.4500;-4.9600
1223.8940;-57.4200;-52.3800;-5.0400
1224.0930;-57.3600;-52.3100;-5.0500
1224.2920;-57.3000;-52.2400;-5.0600
1224.4910;-57.2500;-52.1800;-5.0700
1224.6900;-57.2100;-52.1300;-5.0800
1224.8890;-57.1800;-52.0500;-5.1300
1225.0890;-57.0900;-52.0100;-5.0800
1225.2880;-57.0000;-51.9300;-5.0700
1225.4870;-56.9200;-51.8700;-5.0500
1225.6860;-56.8400;-51.8400;-5.0000
1225.8850;-56.7300;-51.7800;-4.9500
1226.0840;-56.5700;-51.7300;-4.8400
1226.2830;-56.4500;-51.6800;-4.7700
1226.4820;-56.3000;-51.6200;-4.6800
1226.6810;-56.1500;-51.5900;-4.5600
1226.8810;-55.9900;-51.5400;-4.4500
1227.0800;-55.8400;-51.4800;-4.3600
1227.2790;-55.6900;-51.4400;-4.2500
1227.4780;-55.5400;-51.3800;-4.1600
1227.6770;-55.4000;-51.3400;-4.0600
1227.8760;-55.2900;-51.2700;-4.0200
1228.0750;-55.1900;-51.2200;-3.9700
1228.2740;-55.0700;-51.1500;-3.9200
1228.4740;-54.9600;-51.0800;-3.8800
1228.6730;-54.8900;-51.0300;-3.8600
1228.8720;-54.8400;-50.9500;-3.8900
1229.0710;-54.7500;-50.8900;-3.8600
1229.2700;-54.7100;-50.8100;-3.9000
1229.4690;-54.6700;-50.7200;-3.9500
1229.6680;-54.6400;-50.6700;-3.9700
1229.8670;-54.6200;-50.5700;-4.0500
1230.0660;-54.6000;-50.4900;-4.1100
1230.2660;-54.6300;-50.4100;-4.2200
1230.4650;-54.6300;-50.3300;-4.3000
1230.6640;-54.6500;-50.2600;-4.3900
1230.8630;-54.7200;-50.1800;-4.5400
1231.0620;-54.7800;-50.1100;-4.6700
1231.2610;-54.8700;-50.0500;-4.8200
1231.4600;-54.9200;-49.9800;-4.9400
1231.6590;-54.9800;-49.9300;-5.0500
1231.8580;-55.0400;-49.8500;-5.1900
1232.0580;-55.0600;-49.8100;-5.2500
1232.2570;-55.0600;-49.7400;-5.3200
1232.4560;-55.0200;-49.6800;-5.3400
1232.6550;-54.9600;-49.6400;-5.3200
1232.8540;-54.8600;-49.5700;-5.2900
1233.0530;-54.7000;-49.5300;-5.1700
1233.2520;-54.5400;-49.4600;-5.0800
1233.4510;-54.3500;-49.4100;-4.9400
1233.6500;-54.1400;-49.3700;-4.7700
1233.8500;-53.9300;-49.3000;-4.6300
1234.0490;-53.7200;-49.2500;-4.4700
1234.2480;-53.5200;-49.1800;-4.3400
1234.4470;-53.3100;-49.1200;-4.1900
1234.6460;-53.1200;-49.0600;-4.0600
1234.8450;-52.9700;-48.9900;-3.9800
1235.0440;-52.8100;-48.9300;-3.8800
1235.2430;-52.6900;-48.8400;-3.8500
1235.4430;-52.5500;-48.7600;-3.7900
1235.6420;-52.4700;-48.6900;-3.7800
1235.8410;-52.3900;-48.6000;-3.7900
1236.0400;-52.3200;-48.5300;-3.7900
1236.2390;-52.2700;-48.4200;-3.8500
1236.4380;-52.2200;-48.3300;-3.8900
1236.6370;-52.2100;-48.2500;-3.9600
1236.8360;-52.1800;-48.1500;-4.0300
1237.0350;-52.1700;-48.0800;-4.0900
1237.2350;-52.1900;-47.9900;-4.2000
1237.4340;-52.1900;-47.9000;-4.2900
1237.6330;-52.2000;-47.8100;-4.3900
1237.8320;-52.2000;-47.7400;-4.4600
1238.0310;-52.2100;-47.6600;-4.5500
1238.2300;-52.2200;-47.5700;-4.6500
1238.4290;-52.1800;-47.5000;-4.6800
1238.6280;-52.1700;-47.4200;-4.7500
1238.8270;-52.1300;-47.3400;-4.7900
1239.0270;-52.0600;-47.2700;-4.7900
1239.2260;-51.9800;-47.1800;-4.8000
1239.4250;-51.8700;-47.1100;-4.7600
1239.6240;-51.7800;-47.0300;-4.7500
1239.8230;-51.6400;-46.9400;-4.7000
1240.0220;-51.5000;-46.8700;-4.6300
1240.2210;-51.3800;-46.7700;-4.6100
1240.4200;-51.2400;-46.6900;-4.5500
1240.6200;-51.1100;-46.5900;-4.5200
1240.8190;-50.9700;-46.4900;-4.4800
1241.0180;-50.8500;-46.3800;-4.4700
1241.2170;-50.7600;-46.2700;-4.4900
1241.4160;-50.6500;-46.1700;-4.4800
1241.6150;-50.5700;-46.0300;-4.5400
1241.8140;-50.5100;-45.9100;-4.6000
1242.0130;-50.4500;-45.8000;-4.6500
1242.2120;-50.4100;-45.6900;-4.7200
1242.4120;-50.3700;-45.5600;-4.8100
1242.6110;-50.3500;-45.4200;-4.9300
1242.8100;-50.3100;-45.3100;-5.0000
1243.0090;-50.2700;-45.1700;-5.1000
1243.2080;-50.2600;-45.0500;-5.2100
1243.4070;-50.2200;-44.9200;-5.3000
1243.6060;-50.1800;-44.7900;-5.3900
1243.8050;-50.1300;-44.6800;-5.4500
1244.0040;-50.0900;-44.5400;-5.5500
1244.2040;-50.0500;-44.4100;-5.6400
1244.4030;-49.9900;-44.2900;-5.7000
1244.6020;-49.9300;-44.1600;-5.7700
1244.8010;-49.8800;-44.0500;-5.8300
1245.0000;-49.8200;-43.9100;-5.9100
1245.1990;-49.7800;-43.7900;-5.9900
1245.3980;-49.7400;-43.6700;-6.0700
1245.5970;-49.7100;-43.5300;-6.1800
1245.7970;-49.6500;-43.4100;-6.2400
1245.9960;-49.6100;-43.2600;-6.3500
1246.1950;-49.6000;-43.1400;-6.4600
1246.3940;-49.5600;-43.0000;-6.5600
1246.5930;-49.5000;-42.8500;-6.6500
1246.7920;-49.4300;-42.7300;-6.7000
1246.9910;-49.3400;-42.5600;-6.7800
1247.1900;-49.2300;-42.4200;-6.8100
1247.3890;-49.0600;-42.2700;-6.7900
1247.5890;-48.8600;-42.1100;-6.7500
1247.7880;-48.6100;-41.9700;-6.6400
1247.9870;-48.3000;-41.8000;-6.5000
1248.1860;-47.9700;-41.6500;-6.3200
1248.3850;-47.6000;-41.5000;-6.1000
1248.5840;-47.2000;-41.3300;-5.8700
1248.7830;-46.7600;-41.1800;-5.5800
1248.9820;-46.3400;-41.0200;-5.3200
1249.1810;-45.9100;-40.8700;-5.0400
1249.3810;-45.4000;-40.7200;-4.6800
1249.5800;-45.0500;-40.5600;-4.4900
1249.7790;-44.6500;-40.4200;-4.2300
1249.9780;-44.2500;-40.2500;-4.0000
1250.1770;-43.8700;-40.1100;-3.7600
1250.3760;-43.5100;-39.9700;-3.5400
1250.5750;-43.1700;-39.8100;-3.3600
1250.7740;-42.8400;-39.6700;-3.1700
1250.9740;-42.5500;-39.5200;-3.0300
1251.1730;-42.2600;-39.3800;-2.8800
1251.3720;-41.9800;-39.2300;-2.7500
1251.5710;-41.7400;-39.0900;-2.6500
1251.7700;-41.4800;-38.9500;-2.5300
1251.9690;-41.2600;-38.7900;-2.4700
1252.1680;-41.0200;-38.6400;-2.3800
1252.3670;-40.8000;-38.4700;-2.3300
1252.5660;-40.6100;-38.3200;-2.2900
1252.7660;-40.4000;-38.1700;-2.2300
1252.9650;-40.2100;-38.0100;-2.2000
1253.1640;-40.0100;-37.8500;-2.1600
1253.3630;-39.8200;-37.6800;-2.1400
1253.5620;-39.6300;-37.5200;-2.1100
1253.7610;-39.4300;-37.3500;-2.0800
1253.9600;-39.2600;-37.1900;-2.0700
1254.1590;-39.0600;-37.0300;-2.0300
1254.3580;-38.8600;-36.8500;-2.0100
1254.5580;-38.6800;-36.7000;-1.9800
1254.7570;-38.4800;-36.5400;-1.9400
1254.9560;-38.3000;-36.3700;-1.9300
1255.1550;-38.1100;-36.2300;-1.8800
1255.3540;-37.9300;-36.0600;-1.8700
1255.5530;-37.7500;-35.9200;-1.8300
1255.7520;-37.5600;-35.7400;-1.8200
1255.9510;-37.3900;-35.6300;-1.7600
1256.1500;-37.2100;-35.4900;-1.7200
1256.3500;-37.0300;-35.3400;-1.6900
1256.5490;-36.8600;-35.2200;-1.6400
1256.7480;-36.6900;-35.0700;-1.6200
1256.9470;-36.5300;-34.9400;-1.5900
1257.1460;-36.3400;-34.8000;-1.5400
1257.3450;-36.1800;-34.6600;-1.5200
1257.5440;-36.0100;-34.5400;-1.4700
1257.7430;-35.8100;-34.3900;-1.4200
1257.9430;-35.6600;-34.2500;-1.4100
1258.1420;-35.5000;-34.1200;-1.3800
1258.3410;-35.3400;-33.9700;-1.3700
1258.5400;-35.1600;-33.8400;-1.3200
1258.7390;-34.9900;-33.6800;-1.3100
1258.9380;-34.8100;-33.5400;-1.2700
1259.1370;-34.6400;-33.3900;-1.2500
1259.3360;-34.4700;-33.2400;-1.2300
1259.5350;-34.3000;-33.1000;-1.2000
1259.7350;-34.1400;-32.9400;-1.2000
1259.9340;-33.9600;-32.8000;-1.1600
1260.1330;-33.8000;-32.6500;-1.1500
1260.3320;-33.6500;-32.4900;-1.1600
1260.5310;-33.4800;-32.3600;-1.1200
1260.7300;-33.3300;-32.2000;-1.1300
1260.9290;-33.1700;-32.0700;-1.1000
1261.1280;-33.0200;-31.9200;-1.1000
1261.3270;-32.8800;-31.7700;-1.1100
1261.5270;-32.7400;-31.6500;-1.0900
1261.7260;-32.6000;-31.5100;-1.0900
1261.9250;-32.4500;-31.3800;-1.0700
1262.1240;-32.3100;-31.2400;-1.0700
1262.3230;-32.1800;-31.1100;-1.0700
1262.5220;-32.0400;-31.0000;-1.0400
1262.7210;-31.9100;-30.8600;-1.0500
1262.9200;-31.7600;-30.7400;-1.0200
1263.1200;-31.6200;-30.6000;-1.0200
1263.3190;-31.4800;-30.4700;-1.0100
1263.5180;-31.3500;-30.3600;-0.9900
1263.7170;-31.2100;-30.2100;-1.0000
1263.9160;-31.0600;-30.0900;-0.9700
1264.1150;-30.9100;-29.9500;-0.9600
1264.3140;-30.7800;-29.8100;-0.9700
1264.5130;-30.6300;-29.6900;-0.9400
1264.7120;-30.5000;-29.5500;-0.9500
1264.9120;-30.3500;-29.4200;-0.9300
1265.1110;-30.2000;-29.2700;-0.9300
1265.3100;-30.0600;-29.1400;-0.9200
1265.5090;-29.9200;-29.0100;-0.9100
1265.7080;-29.8000;-28.8700;-0.9300
1265.9070;-29.6500;-28.7500;-0.9000
1266.1060;-29.5200;-28.6100;-0.9100
1266.3050;-29.3900;-28.4800;-0.9100
1266.5040;-29.2700;-28.3700;-0.9000
1266.7040;-29.1600;-28.2400;-0.9200
1266.9030;-29.0300;-28.1200;-0.9100
1267.1020;-28.9100;-27.9900;-0.9200
1267.3010;-28.8000;-27.8700;-0.9300
1267.5000;-28.7000;-27.7700;-0.9300
1267.6990;-28.6100;-27.6500;-0.9600
1267.8980;-28.5000;-27.5500;-0.9500
1268.0970;-28.4100;-27.4300;-0.9800
1268.2970;-28.3200;-27.3200;-1.0000
1268.4960;-28.2500;-27.2200;-1.0300
1268.6950;-28.1800;-27.1000;-1.0800
1268.8940;-28.1000;-27.0000;-1.1000
1269.0930;-28.0400;-26.8800;-1.1600
1269.2920;-27.9900;-26.7700;-1.2200
1269.4910;-27.9600;-26.6600;-1.3000
1269.6900;-27.9500;-26.5400;-1.4100
1269.8890;-27.9400;-26.4400;-1.5000
1270.0890;-27.9600;-26.3100;-1.6500
1270.2880;-27.9900;-26.2000;-1.7900
1270.4870;-28.0500;-26.0700;-1.9800
1270.6860;-28.1500;-25.9700;-2.1800
1270.8850;-28.2600;-25.8500;-2.4100
1271.0840;-28.4100;-25.7300;-2.6800
1271.2830;-28.6000;-25.6300;-2.9700
1271.4820;-28.8300;-25.5000;-3.3300
1271.6810;-29.1000;-25.3900;-3.7100
1271.8810;-29.4200;-25.2800;-4.1400
1272.0800;-29.8000;-25.1700;-4.6300
1272.2790;-30.2200;-25.0600;-5.1600
1272.4780;-30.7200;-24.9500;-5.7700
1272.6770;-31.3000;-24.8500;-6.4500
1272.8760;-31.9500;-24.7400;-7.2100
1273.0750;-32.7100;-24.6500;-8.0600
1273.2740;-33.5500;-24.5600;-8.9900
1273.4740;-34.5100;-24.4500;-10.0600
1273.6730;-35.5800;-24.3700;-11.2100
1273.8720;-36.7400;-24.2700;-12.4700
1274.0710;-37.9400;-24.1800;-13.7600
1274.2700;-39.2100;-24.0900;-15.1200
1274.4690;-39.7000;-23.9900;-15.7100
1274.6680;-39.6900;-23.9100;-15.7800
1274.8670;-38.9800;-23.8100;-15.1700
1275.0660;-37.8500;-23.7200;-14.1300
1275.2660;-36.5500;-23.6400;-12.9100
1275.4650;-35.0800;-23.5400;-11.5400
1275.6640;-34.1100;-23.4600;-10.6500
1275.8630;-33.0800;-23.3600;-9.7200
1276.0620;-32.1300;-23.2700;-8.8600
1276.2610;-31.3100;-23.1800;-8.1300
1276.4600;-30.5700;-23.0900;-7.4800
1276.6590;-29.9100;-23.0000;-6.9100
1276.8580;-29.3700;-22.9000;-6.4700
1277.0580;-28.8700;-22.8200;-6.0500
1277.2570;-28.4600;-22.7300;-5.7300
1277.4560;-28.0900;-22.6400;-5.4500
1277.6550;-27.7700;-22.5700;-5.2000
1277.8540;-27.5300;-22.4700;-5.0600
1278.0530;-27.3100;-22.4000;-4.9100
1278.2520;-27.1600;-22.3100;-4.8500
1278.4510;-27.0300;-22.2300;-4.8000
1278.6500;-26.9500;-22.1600;-4.7900
1278.8500;-26.9100;-22.0700;-4.8400
1279.0490;-26.9000;-22.0000;-4.9000
1279.2480;-26.9300;-21.9200;-5.0100
1279.4470;-26.9700;-21.8400;-5.1300
1279.6460;-27.0500;-21.7700;-5.2800
1279.8450;-27.1600;-21.6800;-5.4800
1280.0440;-27.2900;-21.6200;-5.6700
1280.2430;-27.4500;-21.5400;-5.9100
1280.4430;-27.6100;-21.4600;-6.1500
1280.6420;-27.8000;-21.3900;-6.4100
1280.8410;-28.0100;-21.3100;-6.7000
1281.0400;-28.2200;-21.2400;-6.9800
1281.2390;-28.4600;-21.1600;-7.3000
1281.4380;-28.6800;-21.0800;-7.6000
1281.6370;-28.9300;-21.0100;-7.9200
1281.8360;-29.1700;-20.9300;-8.2400
1282.0350;-29.4200;-20.8700;-8.5500
1282.2350;-29.6800;-20.7800;-8.9000
1282.4340;-29.9300;-20.7100;-9.2200
1282.6330;-30.2200;-20.6500;-9.5700
1282.8320;-30.4800;-20.5800;-9.9000
1283.0310;-30.7600;-20.5200;-10.2400
1283.2300;-31.0600;-20.4500;-10.6100
1283.4290;-31.3500;-20.3900;-10.9600
1283.6280;-31.6600;-20.3200;-11.3400
1283.8270;-31.9600;-20.2600;-11.7000
1284.0270;-32.2600;-20.2100;-12.0500
1284.2260;-32.5500;-20.1400;-12.4100
1284.4250;-32.7900;-20.0900;-12.7000
1284.6240;-33.0000;-20.0300;-12.9700
1284.8230;-33.1200;-19.9700;-13.1500
1285.0220;-33.1600;-19.9300;-13.2300
1285.2210;-33.1100;-19.8600;-13.2500
1285.4200;-32.9300;-19.8100;-13.1200
1285.6200;-32.6600;-19.7500;-12.9100
1285.8190;-32.2700;-19.6900;-12.5800
1286.0180;-31.8000;-19.6500;-12.1500
1286.2170;-31.2700;-19.5800;-11.6900
1286.4160;-30.6900;-19.5400;-11.1500
1286.6150;-30.1200;-19.4900;-10.6300
1286.8140;-29.5000;-19.4300;-10.0700
1287.0130;-28.9100;-19.3900;-9.5200
1287.2120;-28.3300;-19.3300;-9.0000
1287.4120;-27.7600;-19.2900;-8.4700
1287.6110;-27.2400;-19.2300;-8.0100
1287.8100;-26.7100;-19.1800;-7.5300
1288.0090;-26.2200;-19.1400;-7.0800
1288.2080;-25.6800;-19.0800;-6.6000
1288.4070;-25.3200;-19.0500;-6.2700
1288.6060;-24.9000;-19.0000;-5.9000
1288.8050;-24.5100;-18.9600;-5.5500
1289.0040;-24.1400;-18.9200;-5.2200
1289.2040;-23.7800;-18.8700;-4.9100
1289.4030;-23.4600;-18.8500;-4.6100
1289.6020;-23.1400;-18.8000;-4.3400
1289.8010;-22.8400;-18.7600;-4.0800
1290.0000;-22.5600;-18.7200;-3.8400
1290.1990;-22.2900;-18.6800;-3.6100
1290.3980;-22.0400;-18.6600;-3.3800
1290.5970;-21.8000;-18.6200;-3.1800
1290.7970;-21.5700;-18.5900;-2.9800
1290.9960;-21.3500;-18.5300;-2.8200
1291.1950;-21.1300;-18.5000;-2.6300
1291.3940;-20.9500;-18.4700;-2.4800
1291.5930;-20.7600;-18.4100;-2.3500
1291.7920;-20.5900;-18.3900;-2.2000
1291.9910;-20.4400;-18.3400;-2.1000
1292.1900;-20.2900;-18.3100;-1.9800
1292.3890;-20.1800;-18.2700;-1.9100
1292.5890;-20.0400;-18.2200;-1.8200
1292.7880;-19.9500;-18.2000;-1.7500
1292.9870;-19.8600;-18.1500;-1.7100
1293.1860;-19.7900;-18.1300;-1.6600
1293.3850;-19.7500;-18.0900;-1.6600
1293.5840;-19.6800;-18.0500;-1.6300
1293.7830;-19.6700;-18.0200;-1.6500
1293.9820;-19.6500;-17.9900;-1.6600
1294.1810;-19.6600;-17.9700;-1.6900
1294.3810;-19.6900;-17.9300;-1.7600
1294.5800;-19.7200;-17.8900;-1.8300
1294.7790;-19.7900;-17.8700;-1.9200
1294.9780;-19.8600;-17.8400;-2.0200
1295.1770;-19.9600;-17.8200;-2.1400
1295.3760;-20.0900;-17.7900;-2.3000
1295.5750;-20.2100;-17.7600;-2.4500
1295.7740;-20.3900;-17.7300;-2.6600
1295.9740;-20.5600;-17.6900;-2.8700
1296.1730;-20.7700;-17.6800;-3.0900
1296.3720;-21.0100;-17.6500;-3.3600
1296.5710;-21.2500;-17.6300;-3.6200
1296.7700;-21.5600;-17.6000;-3.9600
1296.9690;-21.8600;-17.5800;-4.2800
1297.1680;-22.2200;-17.5700;-4.6500
1297.3670;-22.6000;-17.5500;-5.0500
1297.5660;-23.0000;-17.5300;-5.4700
1297.7660;-23.4700;-17.5100;-5.9600
1297.9650;-23.9700;-17.4900;-6.4800
1298.1640;-24.5300;-17.4800;-7.0500
1298.3630;-25.1200;-17.4700;-7.6500
1298.5620;-25.7700;-17.4600;-8.3100
1298.7610;-26.4900;-17.4400;-9.0500
1298.9600;-27.2700;-17.4400;-9.8300
1299.1590;-28.3000;-17.4300;-10.8700
1299.3580;-29.0500;-17.4200;-11.6300
1299.5580;-30.0000;-17.4200;-12.5800
1299.7570;-30.9900;-17.4100;-13.5800
1299.9560;-31.9600;-17.4100;-14.5500
1300.1550;-32.8000;-17.4000;-15.4000
1300.3540;-33.3600;-17.4000;-15.9600
1300.5530;-33.5100;-17.4000;-16.1100
1300.7520;-33.2000;-17.3900;-15.8100
1300.9510;-32.5500;-17.4000;-15.1500
1301.1500;-31.6900;-17.4000;-14.2900
1301.3500;-30.7500;-17.4000;-13.3500
1301.5490;-29.8300;-17.4100;-12.4200
1301.7480;-28.9200;-17.4100;-11.5100
1301.9470;-28.0900;-17.4200;-10.6700
1302.1460;-27.3300;-17.4200;-9.9100
1302.3450;-26.6200;-17.4300;-9.1900
1302.5440;-25.8900;-17.4300;-8.4600
1302.7430;-25.4100;-17.4300;-7.9800
1302.9430;-24.9000;-17.4400;-7.4600
1303.1420;-24.4200;-17.4400;-6.9800
1303.3410;-24.0000;-17.4600;-6.5400
1303.5400;-23.6100;-17.4600;-6.1500
1303.7390;-23.2600;-17.4600;-5.8000
1303.9380;-22.9600;-17.4700;-5.4900
1304.1370;-22.6800;-17.4800;-5.2000
1304.3360;-22.4400;-17.5000;-4.9400
1304.5350;-22.2200;-17.5000;-4.7200
1304.7350;-22.0300;-17.5100;-4.5200
1304.9340;-21.8800;-17.5200;-4.3600
1305.1330;-21.7500;-17.5300;-4.2200
1305.3320;-21.6500;-17.5500;-4.1000
1305.5310;-21.5700;-17.5600;-4.0100
1305.7300;-21.5100;-17.5800;-3.9300
1305.9290;-21.4700;-17.5800;-3.8900
1306.1280;-21.4600;-17.6000;-3.8600
1306.3270;-21.4900;-17.6100;-3.8800
1306.5270;-21.5100;-17.6300;-3.8800
1306.7260;-21.5700;-17.6500;-3.9200
1306.9250;-21.6400;-17.6500;-3.9900
1307.1240;-21.7400;-17.6800;-4.0600
1307.3230;-21.8800;-17.6900;-4.1900
1307.5220;-22.0100;-17.7100;-4.3000
1307.7210;-22.1900;-17.7400;-4.4500
1307.9200;-22.3600;-17.7500;-4.6100
1308.1200;-22.5800;-17.7900;-4.7900
1308.3190;-22.8200;-17.8000;-5.0200
1308.5180;-23.0800;-17.8400;-5.2400
1308.7170;-23.3700;-17.8800;-5.4900
1308.9160;-23.6700;-17.8900;-5.7800
1309.1150;-24.0000;-17.9400;-6.0600
1309.3140;-24.3600;-17.9600;-6.4000
1309.5130;-24.7400;-18.0100;-6.7300
1309.7120;-25.1500;-18.0500;-7.1000
1309.9120;-25.5600;-18.0700;-7.4900
1310.1110;-26.0000;-18.1300;-7.8700
1310.3100;-26.4600;-18.1600;-8.3000
1310.5090;-26.9300;-18.2100;-8.7200
1310.7080;-27.4500;-18.2500;-9.2000
1310.9070;-27.9400;-18.2900;-9.6500
1311.1060;-28.5700;-18.3500;-10.2200
1311.3050;-28.9600;-18.3800;-10.5800
1311.5040;-29.4500;-18.4500;-11.0000
1311.7040;-29.8900;-18.4800;-11.4100
1311.9030;-30.2700;-18.5300;-11.7400
1312.1020;-30.5900;-18.5800;-12.0100
1312.3010;-30.8100;-18.6300;-12.1800
1312.5000;-30.9600;-18.7000;-12.2600
1312.6990;-30.9800;-18.7400;-12.2400
1312.8980;-30.9000;-18.8000;-12.1000
1313.0970;-30.7600;-18.8500;-11.9100
1313.2970;-30.5300;-18.9000;-11.6300
1313.4960;-30.2900;-18.9800;-11.3100
1313.6950;-29.9700;-19.0300;-10.9400
1313.8940;-29.6600;-19.0900;-10.5700
1314.0930;-29.3500;-19.1400;-10.2100
1314.2920;-29.0300;-19.2000;-9.8300
1314.4910;-28.7400;-19.2700;-9.4700
1314.6900;-28.4400;-19.3200;-9.1200
1314.8890;-28.1800;-19.3800;-8.8000
1315.0890;-27.9200;-19.4300;-8.4900
1315.2880;-27.6900;-19.5000;-8.1900
1315.4870;-27.5100;-19.5500;-7.9600
1315.6860;-27.3200;-19.6100;-7.7100
1315.8850;-27.1800;-19.6700;-7.5100
1316.0840;-27.0400;-19.7300;-7.3100
1316.2830;-26.9300;-19.8000;-7.1300
1316.4820;-26.8500;-19.8500;-7.0000
1316.6810;-26.7800;-19.9200;-6.8600
1316.8810;-26.7600;-19.9800;-6.7800
1317.0800;-26.7400;-20.0500;-6.6900
1317.2790;-26.7400;-20.1200;-6.6200
1317.4780;-26.7700;-20.1900;-6.5800
1317.6770;-26.8000;-20.2600;-6.5400
1317.8760;-26.8700;-20.3200;-6.5500
1318.0750;-26.9400;-20.3900;-6.5500
1318.2740;-27.0500;-20.4600;-6.5900
1318.4740;-27.1500;-20.5300;-6.6200
1318.6730;-27.2900;-20.6200;-6.6700
1318.8720;-27.4400;-20.6800;-6.7600
1319.0710;-27.6000;-20.7800;-6.8200
1319.2700;-27.7900;-20.8500;-6.9400
1319.4690;-27.9600;-20.9300;-7.0300
1319.6680;-28.1700;-21.0200;-7.1500
1319.8670;-28.3700;-21.1000;-7.2700
1320.0660;-28.5700;-21.2000;-7.3700
1320.2660;-28.8000;-21.2800;-7.5200
1320.4650;-29.0000;-21.3700;-7.6300
1320.6640;-29.2200;-21.4700;-7.7500
1320.8630;-29.4100;-21.5600;-7.8500
1321.0620;-29.5900;-21.6600;-7.9300
1321.2610;-29.7700;-21.7500;-8.0200
1321.4600;-29.9100;-21.8600;-8.0500
1321.6590;-30.0500;-21.9500;-8.1000
1321.8580;-30.1400;-22.0500;-8.0900
1322.0580;-30.2100;-22.1600;-8.0500
1322.2570;-30.2600;-22.2600;-8.0000
1322.4560;-30.2800;-22.3700;-7.9100
1322.6550;-30.2800;-22.4700;-7.8100
1322.8540;-30.2400;-22.5900;-7.6500
1323.0530;-30.1900;-22.6900;-7.5000
1323.2520;-30.1200;-22.8100;-7.3100
1323.4510;-30.0300;-22.9200;-7.1100
1323.6500;-29.9500;-23.0300;-6.9200
1323.8500;-29.8500;-23.1600;-6.6900
1324.0490;-29.7600;-23.2700;-6.4900
1324.2480;-29.6600;-23.4000;-6.2600
1324.4470;-29.5600;-23.5100;-6.0500
1324.6460;-29.4800;-23.6300;-5.8500
1324.8450;-29.3900;-23.7600;-5.6300
1325.0440;-29.3300;-23.8700;-5.4600
1325.2430;-29.2600;-24.0100;-5.2500
1325.4430;-29.2100;-24.1200;-5.0900
1325.6420;-29.1800;-24.2600;-4.9200
1325.8410;-29.1500;-24.3900;-4.7600
1326.0400;-29.1500;-24.5200;-4.6300
1326.2390;-29.1300;-24.6500;-4.4800
1326.4380;-29.1500;-24.7800;-4.3700
1326.6370;-29.1700;-24.9100;-4.2600
1326.8360;-29.2100;-25.0400;-4.1700
1327.0350;-29.2700;-25.1800;-4.0900
1327.2350;-29.3300;-25.3200;-4.0100
1327.4340;-29.4200;-25.4500;-3.9700
1327.6330;-29.5000;-25.6000;-3.9000
1327.8320;-29.6000;-25.7200;-3.8800
1328.0310;-29.7300;-25.8700;-3.8600
1328.2300;-29.8600;-26.0100;-3.8500
1328.4290;-30.0200;-26.1500;-3.8700
1328.6280;-30.1700;-26.3000;-3.8700
1328.8270;-30.3500;-26.4400;-3.9100
1329.0270;-30.5400;-26.6000;-3.9400
1329.2260;-30.7400;-26.7300;-4.0100
1329.4250;-30.9700;-26.8900;-4.0800
1329.6240;-31.1900;-27.0300;-4.1600
1329.8230;-31.4500;-27.1700;-4.2800
1330.0220;-31.7200;-27.3300;-4.3900
1330.2210;-32.0000;-27.4700;-4.5300
1330.4200;-32.3100;-27.6300;-4.6800
1330.6200;-32.6300;-27.7700;-4.8600
1330.8190;-32.9900;-27.9200;-5.0700
1331.0180;-33.3500;-28.0700;-5.2800
1331.2170;-33.7500;-28.2300;-5.5200
1331.4160;-34.1700;-28.3900;-5.7800
1331.6150;-34.6100;-28.5700;-6.0400
1331.8140;-35.0900;-28.7100;-6.3800
1332.0130;-35.5800;-28.8500;-6.7300
1332.2120;-36.1200;-29.0200;-7.1000
1332.4120;-36.6700;-29.1700;-7.5000
1332.6110;-37.2600;-29.3400;-7.9200
1332.8100;-37.8900;-29.5000;-8.3900
1333.0090;-38.6900;-29.6600;-9.0300
1333.2080;-39.2600;-29.8300;-9.4300
1333.4070;-39.9800;-29.9800;-10.0000
1333.6060;-40.7500;-30.1500;-10.6000
1333.8050;-41.5500;-30.3100;-11.2400
1334.0040;-42.3700;-30.4700;-11.9000
1334.2040;-43.2200;-30.6500;-12.5700
1334.4030;-44.0400;-30.8100;-13.2300
1334.6020;-44.8500;-30.9800;-13.8700
1334.8010;-45.5600;-31.1500;-14.4100
1335.0000;-46.1700;-31.3200;-14.8500
1335.1990;-46.6200;-31.4900;-15.1300
1335.3980;-46.8600;-31.6600;-15.2000
1335.5970;-46.9400;-31.8500;-15.0900
1335.7970;-46.8200;-32.0200;-14.8000
1335.9960;-46.6000;-32.2100;-14.3900
1336.1950;-46.2800;-32.3800;-13.9000
1336.3940;-45.9000;-32.5600;-13.3400
1336.5930;-45.5300;-32.7400;-12.7900
1336.7920;-45.1500;-32.9100;-12.2400
1336.9910;-44.8100;-33.1000;-11.7100
1337.1900;-44.4800;-33.2800;-11.2000
1337.3890;-44.2000;-33.4700;-10.7300
1337.5890;-43.9600;-33.6500;-10.3100
1337.7880;-43.7400;-33.8300;-9.9100
1337.9870;-43.5800;-34.0300;-9.5500
1338.1860;-43.4300;-34.2000;-9.2300
1338.3850;-43.3200;-34.3900;-8.9300
1338.5840;-43.2400;-34.5700;-8.6700
1338.7830;-43.1900;-34.7500;-8.4400
1338.9820;-43.1700;-34.9500;-8.2200
1339.1810;-43.1700;-35.1300;-8.0400
1339.3810;-43.2000;-35.3200;-7.8800
1339.5800;-43.2300;-35.4900;-7.7400
1339.7790;-43.2900;-35.6800;-7.6100
1339.9780;-43.3500;-35.8700;-7.4800
1340.1770;-43.4300;-36.0500;-7.3800
1340.3760;-43.5300;-36.2600;-7.2700
1340.5750;-43.6100;-36.4400;-7.1700
1340.7740;-43.7000;-36.6300;-7.0700
1340.9740;-43.7700;-36.8100;-6.9600
1341.1730;-43.8500;-36.9900;-6.8600
1341.3720;-43.9200;-37.1800;-6.7400
1341.5710;-43.9800;-37.3700;-6.6100
1341.7700;-44.0400;-37.5600;-6.4800
1341.9690;-44.0700;-37.7300;-6.3400
1342.1680;-44.1000;-37.9300;-6.1700
1342.3670;-44.1200;-38.1100;-6.0100
1342.5660;-44.1300;-38.2900;-5.8400
1342.7660;-44.1500;-38.5300;-5.6200
1342.9650;-44.1400;-38.6900;-5.4500
1343.1640;-44.1400;-38.8900;-5.2500
1343.3630;-44.1300;-39.0700;-5.0600
1343.5620;-44.1200;-39.2600;-4.8600
1343.7610;-44.1300;-39.4500;-4.6800
1343.9600;-44.1300;-39.6500;-4.4800
1344.1590;-44.1500;-39.8600;-4.2900
1344.3580;-44.1500;-40.0500;-4.1000
1344.5580;-44.1700;-40.2500;-3.9200
1344.7570;-44.2000;-40.4400;-3.7600
1344.9560;-44.2100;-40.6300;-3.5800
1345.1550;-44.2500;-40.8200;-3.4300
1345.3540;-44.2700;-41.0000;-3.2700
1345.5530;-44.3200;-41.2000;-3.1200
1345.7520;-44.3800;-41.3800;-3.0000
1345.9510;-44.4400;-41.5800;-2.8600
1346.1500;-44.5200;-41.7800;-2.7400
1346.3500;-44.5900;-41.9700;-2.6200
1346.5490;-44.7000;-42.1900;-2.5100
1346.7480;-44.7800;-42.3700;-2.4100
1346.9470;-44.8700;-42.5600;-2.3100
1347.1460;-44.9900;-42.7500;-2.2400
1347.3450;-45.0700;-42.9200;-2.1500
1347.5440;-45.2500;-43.1600;-2.0900
1347.7430;-45.4100;-43.3900;-2.0200
1347.9430;-45.5700;-43.6200;-1.9500
1348.1420;-45.7100;-43.8000;-1.9100
1348.3410;-45.8600;-44.0000;-1.8600
1348.5400;-46.0000;-44.1600;-1.8400
1348.7390;-46.1400;-44.3400;-1.8000
1348.9380;-46.3000;-44.5200;-1.7800
1349.1370;-46.4600;-44.6800;-1.7800
1349.3360;-46.6200;-44.8500;-1.7700
1349.5350;-46.8000;-45.0200;-1.7800
1349.7350;-46.9700;-45.1900;-1.7800
1349.9340;-47.1900;-45.3800;-1.8100
1350.1330;-47.4200;-45.5800;-1.8400
1350.3320;-47.7000;-45.8400;-1.8600
1350.5310;-47.9600;-46.0500;-1.9100
1350.7300;-48.1800;-46.2300;-1.9500
1350.9290;-48.4300;-46.4000;-2.0300
1351.1280;-48.5800;-46.5200;-2.0600
1351.3270;-48.8200;-46.7000;-2.1200
1351.5270;-49.0600;-46.8700;-2.1900
1351.7260;-49.3700;-47.1200;-2.2500
1351.9250;-49.6300;-47.3100;-2.3200
1352.1240;-49.8800;-47.4900;-2.3900
1352.3230;-50.1500;-47.6800;-2.4700
1352.5220;-50.4200;-47.8800;-2.5400
1352.7210;-50.6600;-48.0500;-2.6100
1352.9200;-50.8900;-48.2000;-2.6900
1353.1200;-51.2300;-48.5500;-2.6800
1353.3190;-51.4200;-48.5900;-2.8300
1353.5180;-51.6600;-48.7700;-2.8900
1353.7170;-51.9400;-48.9500;-2.9900
1353.9160;-52.1100;-49.0600;-3.0500
1354.1150;-52.3500;-49.2200;-3.1300
1354.3140;-52.6500;-49.4500;-3.2000
1354.5130;-52.9200;-49.6500;-3.2700
1354.7120;-53.3200;-49.9600;-3.3600
1354.9120;-53.6900;-50.2500;-3.4400
1355.1110;-53.9800;-50.4400;-3.5400
1355.3100;-54.2100;-50.5700;-3.6400
1355.5090;-54.3100;-50.5900;-3.7200
1355.7080;-54.6500;-50.8500;-3.8000
1355.9070;-55.0200;-51.1300;-3.8900
1356.1060;-55.3100;-51.3000;-4.0100
1356.3050;-55.5100;-51.3900;-4.1200
1356.5040;-55.7700;-51.5200;-4.2500
1356.7040;-55.7700;-51.4300;-4.3400
1356.9030;-56.0400;-51.6000;-4.4400
1357.1020;-56.5300;-51.9700;-4.5600
1357.3010;-56.8700;-52.2100;-4.6600
1357.5000;-57.1900;-52.4000;-4.7900
1357.6990;-57.4800;-52.5900;-4.8900
1357.8980;-57.6700;-52.6600;-5.0100
1358.0970;-57.8100;-52.7300;-5.0800
1358.2970;-58.0900;-52.9200;-5.1700
1358.4960;-58.4900;-53.1500;-5.3400
1358.6950;-58.6400;-53.3000;-5.3400
1358.8940;-58.8600;-53.4700;-5.3900
1359.0930;-59.0800;-53.6300;-5.4500
1359.2920;-59.1900;-53.6900;-5.5000
1359.4910;-59.6100;-54.0700;-5.5400
1359.6900;-59.9300;-54.3800;-5.5500
1359.8890;-60.1300;-54.5800;-5.5500
1360.0890;-60.1800;-54.6600;-5.5200
1360.2880;-60.1800;-54.7100;-5.4700
1360.4870;-60.1100;-54.7000;-5.4100
1360.6860;-60.2600;-54.8900;-5.3700
1360.8850;-60.5500;-55.2300;-5.3200
1361.0840;-60.7500;-55.5400;-5.2100
1361.2830;-60.8400;-55.7200;-5.1200
1361.4820;-60.9200;-55.9000;-5.0200
1361.6810;-61.0700;-56.1400;-4.9300
1361.8810;-61.0800;-56.2800;-4.8000
1362.0800;-61.2000;-56.5200;-4.6800
1362.2790;-61.5300;-56.9500;-4.5800
1362.4780;-61.6500;-57.1900;-4.4600
1362.6770;-61.6600;-57.3600;-4.3000
1362.8760;-61.4200;-57.2600;-4.1600
1363.0750;-61.2700;-57.2300;-4.0400
1363.2740;-60.8900;-57.0100;-3.8800
1363.4740;-60.8800;-57.1000;-3.7800
1363.6730;-60.8500;-57.2000;-3.6500
1363.8720;-60.8800;-57.3700;-3.5100
1364.0710;-60.9900;-57.6000;-3.3900
1364.2700;-61.0900;-57.8100;-3.2800
1364.4690;-61.3100;-58.1500;-3.1600
1364.6680;-61.7100;-58.7300;-2.9800
1364.8670;-61.8500;-58.9500;-2.9000
1365.0660;-61.7300;-58.9300;-2.8000
1365.2660;-61.8100;-59.1400;-2.6700
1365.4650;-61.6900;-59.0900;-2.6000
1365.6640;-61.6700;-59.1700;-2.5000
1365.8630;-61.6500;-59.2500;-2.4000
1366.0620;-61.5800;-59.2700;-2.3100
1366.2610;-61.5000;-59.3000;-2.2000
1366.4600;-61.5000;-59.3800;-2.1200
1366.6590;-61.6200;-59.5700;-2.0500
1366.8580;-61.8300;-59.8400;-1.9900
1367.0580;-61.9000;-59.9800;-1.9200
1367.2570;-61.9800;-60.1200;-1.8600
1367.4560;-62.2200;-60.4100;-1.8100
1367.6550;-62.3600;-60.6300;-1.7300
1367.8540;-62.6000;-60.9300;-1.6700
1368.0530;-62.7300;-61.0900;-1.6400
1368.2520;-62.7000;-61.0900;-1.6100
1368.4510;-63.0100;-61.4300;-1.5800
1368.6500;-63.0900;-61.5800;-1.5100
1368.8500;-63.2100;-61.7000;-1.5100
1369.0490;-63.2100;-61.7400;-1.4700
1369.2480;-63.2300;-61.7400;-1.4900
1369.4470;-63.1200;-61.6700;-1.4500
1369.6460;-63.2700;-61.8400;-1.4300
1369.8450;-63.6400;-62.2100;-1.4300
1370.0440;-63.8900;-62.4200;-1.4700
1370.2430;-64.0900;-62.6000;-1.4900
1370.4430;-64.2300;-62.6800;-1.5500
1370.6420;-64.3300;-62.7500;-1.5800
1370.8410;-64.6900;-63.1200;-1.5700
1371.0400;-65.0300;-63.4200;-1.6100
1371.2390;-65.3800;-63.6400;-1.7400
1371.4380;-65.5900;-63.7700;-1.8200
1371.6370;-65.6900;-63.7600;-1.9300
1371.8360;-65.8100;-63.7400;-2.0700
1372.0350;-66.1900;-63.9900;-2.2000
1372.2350;-66.6200;-64.2600;-2.3600
1372.4340;-66.9400;-64.4200;-2.5200
1372.6330;-67.3500;-64.5300;-2.8200
1372.8320;-67.6000;-64.6600;-2.9400
1373.0310;-68.0100;-64.7000;-3.3100
1373.2300;-68.4800;-64.9000;-3.5800
1373.4290;-68.9200;-65.1500;-3.7700
1373.6280;-69.4500;-65.3400;-4.1100
1373.8270;-69.8600;-65.5100;-4.3500
1374.0270;-70.5100;-65.6200;-4.8900
1374.2260;-70.9700;-65.8200;-5.1500
1374.4250;-71.7200;-66.0600;-5.6600
1374.6240;-72.2700;-66.2300;-6.0400
1374.8230;-73.4500;-66.5400;-6.9100
1375.0220;-74.2800;-66.6900;-7.5900
1375.2210;-74.8600;-66.8700;-7.9900
1375.4200;-75.6400;-67.0300;-8.6100
1375.6200;-76.0400;-67.2300;-8.8100
1375.8190;-77.2800;-67.3400;-9.9400
1376.0180;-77.9100;-67.5500;-10.3600
1376.2170;-79.3700;-67.7200;-11.6500
1376.4160;-80.7200;-68.0100;-12.7100
1376.6150;-79.4100;-68.2900;-11.1200
1376.8140;-79.9000;-68.4400;-11.4600
1377.0130;-79.2500;-68.7600;-10.4900
1377.2120;-79.9400;-69.0800;-10.8600
1377.4120;-79.4800;-69.1500;-10.3300
1377.6110;-78.4000;-69.2500;-9.1500
1377.8100;-78.2400;-69.2800;-8.9600
1378.0090;-77.7200;-69.4300;-8.2900
1378.2080;-77.5400;-69.6300;-7.9100
1378.4070;-76.3700;-69.8500;-6.5200
1378.6060;-76.8200;-70.2800;-6.5400
1378.8050;-76.3300;-70.5400;-5.7900
1379.0040;-75.9300;-70.5900;-5.3400
1379.2040;-75.6900;-70.8700;-4.8200
1379.4030;-75.3400;-71.0200;-4.3200
1379.6020;-75.3400;-70.7300;-4.6100
1379.8010;-75.1700;-71.0400;-4.1300
1380.0000;-74.9500;-71.3100;-3.6400
1380.1990;-75.0100;-71.4500;-3.5600
1380.3980;-75.1700;-71.7300;-3.4400
1380.5970;-75.4700;-72.3200;-3.1500
1380.7970;-75.6800;-72.8500;-2.8300
1380.9960;-75.4800;-72.8900;-2.5900
1381.1950;-76.0200;-72.9500;-3.0700
1381.3940;-76.1700;-72.7500;-3.4200
1381.5930;-75.7600;-72.4600;-3.3000
1381.7920;-75.5800;-72.6100;-2.9700
1381.9910;-75.9000;-72.7200;-3.1800
1382.1900;-76.4300;-72.7500;-3.6800
1382.3890;-76.5500;-73.4100;-3.1400
1382.5890;-77.6700;-73.4600;-4.2100
1382.7880;-77.3700;-74.4200;-2.9500
1382.9870;-78.6500;-74.7300;-3.9200
1383.1860;-79.6500;-74.9500;-4.7000
1383.3850;-78.3700;-74.2800;-4.0900
1383.5840;-77.8300;-74.1500;-3.6800
1383.7830;-78.7300;-73.7600;-4.9700
1383.9820;-80.4600;-74.1100;-6.3500
1384.1810;-79.6900;-74.2600;-5.4300
1384.3810;-81.6800;-74.3000;-7.3800
1384.5800;-81.4200;-74.0300;-7.3900
1384.7790;-81.3200;-74.1000;-7.2200
1384.9780;-81.4200;-74.8900;-6.5300
1385.1770;-80.9700;-74.7000;-6.2700
1385.3760;-79.9100;-75.1300;-4.7800
1385.5750;-82.9300;-75.0800;-7.8500
1385.7740;-81.8700;-75.3000;-6.5700
1385.9740;-80.1100;-75.3000;-4.8100
1386.1730;-82.7800;-75.3000;-7.4800
1386.3720;-81.9900;-74.9700;-7.0200
1386.5710;-80.3500;-75.3200;-5.0300
1386.7700;-80.3100;-75.0900;-5.2200
1386.9690;-80.6900;-75.1400;-5.5500
1387.1680;-81.5300;-75.7600;-5.7700
1387.3670;-81.4200;-75.5900;-5.8300
1387.5660;-81.5300;-76.0100;-5.5200
1387.7660;-82.5000;-75.9100;-6.5900
1387.9650;-80.3900;-76.4800;-3.9100
1388.1640;-81.9900;-76.9800;-5.0100
1388.3630;-81.6900;-76.8100;-4.8800
1388.5620;-83.9300;-76.5500;-7.3800
1388.7610;-80.1500;-77.0200;-3.1300
1388.9600;-79.3900;-76.8100;-2.5800
1389.1590;-79.2200;-76.3100;-2.9100
1389.3580;-79.1300;-76.5800;-2.5500
1389.5580;-79.7700;-76.6900;-3.0800
1389.7570;-80.6900;-77.7000;-2.9900
1389.9560;-81.1600;-77.7000;-3.4600
1390.1550;-81.5300;-76.6900;-4.8400
1390.3540;-81.2700;-76.5600;-4.7100
1390.5530;-82.1100;-76.6500;-5.4600
1390.7520;-81.8700;-76.8900;-4.9800
1390.9510;-84.0300;-76.6500;-7.3800
1391.1500;-81.3700;-78.2300;-3.1400
1391.3500;-82.5000;-76.9400;-5.5600
1391.5490;-82.0600;-77.5600;-4.5000
1391.7480;-81.4300;-77.1100;-4.3200
1391.9470;-83.9400;-77.0300;-6.9100
1392.1460;-81.2800;-77.1800;-4.1000
1392.3450;-85.3800;-77.4700;-7.9100
1392.5440;-82.1800;-78.4200;-3.7600
1392.7430;-83.4100;-79.2700;-4.1400
1392.9430;-82.9400;-78.4700;-4.4700
1393.1420;-83.4100;-77.7100;-5.7000
1393.3410;-83.2500;-77.8300;-5.4200
1393.5400;-83.5800;-77.7400;-5.8400
1393.7390;-82.8600;-77.4900;-5.3700
1393.9380;-82.0000;-78.6400;-3.3600
1394.1370;-83.9400;-78.6700;-5.2700
1394.3360;-82.8600;-78.6900;-4.1700
1394.5350;-82.7200;-78.3200;-4.4000
1394.7350;-83.4100;-77.3900;-6.0200
1394.9340;-84.1300;-78.1600;-5.9700
1395.1330;-87.5600;-78.2600;-9.3000
1395.3320;-81.5400;-78.8400;-2.7000
1395.5310;-84.7700;-79.2300;-5.5400
1395.7300;-84.3400;-78.9900;-5.3500
1395.9290;-83.2500;-78.3200;-4.9300
1396.1280;-81.8800;-77.9700;-3.9100
1396.3270;-81.8800;-77.6200;-4.2600
1396.5270;-82.2400;-78.4200;-3.8200
1396.7260;-80.7000;-79.5000;-1.2000
1396.9250;-81.2200;-79.7100;-1.5100
1397.1240;-86.1000;-79.3600;-6.7400
1397.3230;-81.7600;-79.4300;-2.3300
1397.5220;-83.3300;-79.1700;-4.1600
1397.7210;-81.7000;-78.9900;-2.7100
1397.9200;-82.5100;-78.3900;-4.1200
1398.1200;-82.4400;-77.4300;-5.0100
1398.3190;-82.6500;-77.8700;-4.7800
1398.5180;-81.7100;-79.0000;-2.7100
1398.7170;-86.4300;-78.3800;-8.0500
1398.9160;-83.8600;-78.3500;-5.5100
1399.1150;-84.1400;-78.6500;-5.4900
1399.3140;-82.8700;-79.2100;-3.6600
1399.5130;-84.2400;-78.3800;-5.8600
1399.7120;-82.5200;-79.8600;-2.6600
1399.9120;-82.2500;-80.3300;-1.9200
1400.1110;-81.7700;-80.0100;-1.7600
1400.3100;-84.5600;-78.5400;-6.0200
1400.5090;-83.6800;-79.0000;-4.6800
1400.7080;-85.1400;-78.7000;-6.4400
1400.9070;-83.4200;-79.6100;-3.8100
1401.1060;-82.3200;-78.0300;-4.2900
1401.3050;-87.5700;-79.8600;-7.7100
1401.5040;-81.3900;-79.0600;-2.3300
1401.7040;-84.5600;-79.6800;-4.8800
1401.9030;-84.5600;-80.4100;-4.1500
1402.1020;-82.2500;-80.0900;-2.1600
1402.3010;-83.6800;-80.4900;-3.1900
1402.5000;-81.2300;-78.1500;-3.0800
1402.6990;-84.3500;-79.9000;-4.4500
1402.8980;-82.8000;-78.7600;-4.0400
1403.0970;-83.5900;-78.4800;-5.1100
1403.2970;-85.2600;-79.0300;-6.2300
1403.4960;-82.3800;-79.9300;-2.4500
1403.6950;-86.7800;-79.0000;-7.7800
1403.8940;-82.9500;-79.7200;-3.2300
1404.0930;-81.2900;-79.5100;-1.7800
1404.2920;-81.0400;-80.7100;-0.3300
1404.4910;-83.7700;-78.5400;-5.2300
1404.6900;-80.9400;-79.6500;-1.2900
1404.8890;-84.0500;-78.4800;-5.5700
1405.0890;-82.8700;-81.1800;-1.6900
1405.2880;-86.7800;-79.9000;-6.8800
1405.4870;-85.3900;-80.0500;-5.3400
1405.6860;-83.3400;-79.7200;-3.6200
1405.8850;-82.1900;-78.6500;-3.5400
1406.0840;-87.1600;-78.9700;-8.1900
1406.2830;-87.5700;-79.0600;-8.5100
1406.4820;-82.2500;-79.2100;-3.0400
1406.6810;-80.7700;-79.3500;-1.4200
1406.8810;-82.4600;-78.9200;-3.5400
1407.0800;-84.1500;-78.3600;-5.7900
1407.2790;-83.1100;-80.1000;-3.0100
1407.4780;-84.1500;-80.9500;-3.2000
1407.6770;-84.5700;-79.2500;-5.3200
1407.8760;-82.2600;-79.5200;-2.7400
1408.0750;-85.4000;-78.9500;-6.4500
1408.2740;-82.9600;-79.2500;-3.7100
1408.4740;-81.8400;-78.1300;-3.7100
1408.6730;-84.2500;-78.8300;-5.4200
1408.8720;-80.6800;-78.4400;-2.2400
1409.0710;-81.5000;-78.9200;-2.5800
1409.2700;-84.5700;-78.4400;-6.1300
1409.4690;-84.2500;-80.3800;-3.8700
1409.6680;-81.9600;-80.0200;-1.9400
1409.8670;-82.5300;-79.5200;-3.0100
1410.0660;-81.7800;-79.2200;-2.5600
1410.2660;-81.5600;-78.2600;-3.3000
1410.4650;-81.0500;-79.5200;-1.5300
1410.6640;-81.7200;-79.0100;-2.7100
1410.8630;-81.1000;-78.6900;-2.4100
1411.0620;-80.3800;-78.8000;-1.5800
1411.2610;-83.1100;-79.6600;-3.4500
1411.4600;-81.9000;-78.8000;-3.1000
1411.6590;-83.6000;-78.2600;-5.3400
1411.8580;-82.9600;-78.1300;-4.8300
1412.0580;-81.7200;-77.9600;-3.7600
1412.2570;-84.0600;-78.0900;-5.9700
1412.4560;-85.1500;-78.8600;-6.2900
1412.6550;-85.2700;-78.0400;-7.2300
1412.8540;-86.6100;-79.4800;-7.1300
1413.0530;-82.9600;-78.7100;-4.2500
1413.2520;-83.2700;-78.5500;-4.7200
1413.4510;-83.8700;-77.6700;-6.2000
1413.6500;-82.0300;-78.5000;-3.5300
1413.8500;-81.9100;-78.1700;-3.7400
1414.0490;-82.9700;-78.6700;-4.3000
1414.2480;-81.5700;-79.2600;-2.3100
1414.4470;-82.2100;-78.9900;-3.2200
1414.6460;-81.1500;-79.7400;-1.4100
1414.8450;-83.7000;-79.4600;-4.2400
1415.0440;-81.5700;-78.4500;-3.1200
1415.2430;-85.9800;-78.6700;-7.3100
1415.4430;-80.7800;-79.2300;-1.5500
1415.6420;-81.9100;-78.9000;-3.0100
1415.8410;-81.8500;-78.7200;-3.1300
1416.0400;-82.0900;-78.1400;-3.9500
1416.2390;-84.3700;-78.7200;-5.6500
1416.4380;-82.5400;-78.1900;-4.3500
1416.6370;-82.4000;-78.9000;-3.5000
1416.8360;-83.1200;-79.7000;-3.4200
1417.0350;-80.7800;-78.8400;-1.9400
1417.2350;-85.5500;-77.8800;-7.6700
1417.4340;-81.1500;-77.4600;-3.6900
1417.6330;-82.8200;-78.1200;-4.7000
1417.8320;-81.4100;-78.0000;-3.4100
1418.0310;-81.6800;-77.4200;-4.2600
1418.2300;-81.1500;-77.8100;-3.3400
1418.4290;-81.0600;-78.2400;-2.8200
1418.6280;-82.3400;-77.6800;-4.6600
1418.8270;-81.9700;-78.6100;-3.3600
1419.0270;-83.3600;-79.1400;-4.2200
1419.2260;-82.3400;-78.0500;-4.2900
1419.4250;-85.0400;-78.6700;-6.3700
1419.6240;-82.9700;-78.6100;-4.3600
1419.8230;-81.5700;-78.0500;-3.5200
1420.0220;-81.3600;-78.4500;-2.9100
1420.2210;-80.3100;-78.1000;-2.2100
1420.4200;-81.0100;-78.2400;-2.7700
1420.6200;-81.5700;-77.5500;-4.0200
1420.8190;-82.4700;-78.4800;-3.9900
1421.0180;-80.6400;-78.0200;-2.6200
1421.2170;-82.4700;-78.1000;-4.3700
1421.4160;-82.9700;-78.2200;-4.7500
1421.6150;-84.5900;-78.5700;-6.0200
1421.8140;-83.2100;-77.9400;-5.2700
1422.0130;-81.0200;-77.7800;-3.2400
1422.2120;-83.1300;-78.4600;-4.6700
1422.4120;-81.3700;-77.6900;-3.6800
1422.6110;-80.7900;-78.1500;-2.6400
1422.8100;-81.5800;-77.7100;-3.8700
1423.0090;-81.3200;-78.6200;-2.7000
1423.2080;-80.7400;-78.1100;-2.6300
1423.4070;-82.1600;-77.8700;-4.2900
1423.6060;-84.5900;-78.4600;-6.1300
1423.8050;-82.2200;-78.1100;-4.1100
1424.0040;-81.5800;-78.2000;-3.3800
1424.2040;-83.8000;-78.8200;-4.9800
1424.4030;-79.9600;-78.7900;-1.1700
1424.6020;-80.6500;-77.9600;-2.6900
1424.8010;-82.1600;-77.0900;-5.0700
1425.0000;-81.6900;-77.1900;-4.5000
