Wavelength;Intensity_Meas;Intensity_Ref;Difference_dB
1200.0000;-61.6100;-57.3300;-4.2800
1200.1990;-61.5600;-57.3100;-4.2500
1200.3980;-61.4600;-57.2900;-4.1700
1200.5970;-61.4400;-57.2600;-4.1800
1200.7970;-61.4300;-57.2100;-4.2200
1200.9960;-61.3300;-57.2000;-4.1300
1201.1950;-61.2400;-57.1800;-4.0600
1201.3940;-61.1900;-57.1100;-4.0800
1201.5930;-61.1400;-57.0700;-4.0700
1201.7920;-61.0800;-57.0200;-4.0600
1201.9910;-61.0100;-56.9800;-4.0300
1202.1900;-60.9400;-56.9500;-3.9900
1202.3890;-60.9000;-56.8700;-4.0300
1202.5890;-60.8500;-56.8000;-4.0500
1202.7880;-60.8000;-56.7800;-4.0200
1202.9870;-60.6900;-56.7300;-3.9600
1203.1860;-60.6500;-56.6800;-3.9700
1203.3850;-60.6400;-56.6000;-4.0400
1203.5840;-60.5700;-56.5700;-4.0000
1203.7830;-60.5400;-56.5400;-4.0000
1203.9820;-60.5500;-56.4900;-4.0600
1204.1810;-60.5400;-56.4500;-4.0900
1204.3810;-60.5200;-56.3900;-4.1300
1204.5800;-60.5300;-56.3900;-4.1400
1204.7790;-60.5400;-56.3700;-4.1700
1204.9780;-60.5900;-56.3100;-4.2800
1205.1770;-60.5900;-56.2800;-4.3100
1205.3760;-60.6100;-56.2700;-4.3400
1205.5750;-60.6400;-56.2500;-4.3900
1205.7740;-60.7100;-56.2300;-4.4800
1205.9740;-60.7700;-56.2100;-4.5600
1206.1730;-60.7300;-56.2000;-4.5300
1206.3720;-60.7600;-56.1800;-4.5800
1206.5710;-60.7800;-56.1600;-4.6200
1206.7700;-60.7800;-56.1400;-4.6400
1206.9690;-60.7400;-56.1000;-4.6400
1207.1680;-60.6800;-56.1000;-4.5800
1207.3670;-60.7100;-56.0800;-4.6300
1207.5660;-60.6700;-56.0200;-4.6500
1207.7660;-60.6000;-56.0100;-4.5900
1207.9650;-60.5300;-55.9800;-4.5500
1208.1640;-60.4700;-55.9400;-4.5300
1208.3630;-60.4500;-55.8900;-4.5600
1208.5620;-60.3700;-55.8600;-4.5100
1208.7610;-60.2600;-55.8300;-4.4300
1208.9600;-60.2200;-55.7800;-4.4400
1209.1590;-60.1600;-55.7300;-4.4300
1209.3580;-60.1100;-55.6600;-4.4500
1209.5580;-60.0300;-55.6200;-4.4100
1209.7570;-59.9600;-55.6000;-4.3600
1209.9560;-59.9200;-55.5300;-4.3900
1210.1550;-59.8800;-55.4600;-4.4200
1210.3540;-59.7900;-55.4200;-4.3700
1210.5530;-59.7300;-55.3900;-4.3400
1210.7520;-59.6800;-55.3400;-4.3400
1210.9510;-59.6600;-55.2800;-4.3800
1211.1500;-59.5700;-55.2400;-4.3300
1211.3500;-59.5200;-55.2000;-4.3200
1211.5490;-59.5100;-55.1800;-4.3300
1211.7480;-59.4900;-55.1500;-4.3400
1211.9470;-59.4400;-55.0800;-4.3600
1212.1460;-59.3800;-55.0700;-4.3100
1212.3450;-59.4000;-55.0500;-4.3500
1212.5440;-59.3900;-55.0100;-4.3800
1212.7430;-59.3600;-54.9800;-4.3800
1212.9430;-59.3200;-54.9500;-4.3700
1213.1420;-59.3100;-54.9200;-4.3900
1213.3410;-59.3400;-54.8900;-4.4500
1213.5400;-59.3300;-54.8700;-4.4600
1213.7390;-59.2900;-54.8500;-4.4400
1213.9380;-59.2700;-54.8000;-4.4700
1214.1370;-59.3000;-54.7900;-4.5100
1214.3360;-59.3100;-54.7300;-4.5800
1214.5350;-59.2700;-54.7000;-4.5700
1214.7350;-59.2400;-54.6800;-4.5600
1214.9340;-59.2500;-54.6300;-4.6200
1215.1330;-59.2200;-54.5800;-4.6400
1215.3320;-59.1700;-54.5300;-4.6400
1215.5310;-59.1400;-54.4900;-4.6500
1215.7300;-59.1300;-54.4500;-4.6800
1215.9290;-59.1100;-54.3900;-4.7200
1216.1280;-59.0400;-54.3300;-4.7100
1216.3270;-59.0100;-54.2600;-4.7500
1216.5270;-58.9700;-54.2300;-4.7400
1216.7260;-58.9600;-54.1800;-4.7800
1216.9250;-58.9000;-54.1000;-4.8000
1217.1240;-58.8100;-54.0500;-4.7600
1217.3230;-58.7900;-53.9900;-4.8000
1217.5220;-58.7900;-53.9400;-4.8500
1217.7210;-58.7400;-53.9000;-4.8400
1217.9200;-58.6600;-53.8400;-4.8200
1218.1200;-58.6400;-53.8000;-4.8400
1218.3190;-58.6400;-53.7500;-4.8900
1218.5180;-58.6000;-53.7100;-4.8900
1218.7170;-58.5700;-53.6600;-4.9100
1218.9160;-58.5400;-53.6300;-4.9100
1219.1150;-58.5200;-53.6100;-4.9100
1219.3140;-58.5100;-53.5500;-4.9600
1219.5130;-58.4600;-53.5300;-4.9300
1219.7120;-58.4300;-53.5100;-4.9200
1219.9120;-58.4000;-53.4600;-4.9400
1220.1110;-58.3700;-53.4300;-4.9400
1220.3100;-58.3300;-53.3900;-4.9400
1220.5090;-58.2600;-53.3500;-4.9100
1220.7080;-58.2600;-53.3300;-4.9300
1220.9070;-58.2200;-53.2800;-4.9400
1221.1060;-58.1300;-53.2200;-4.9100
1221.3050;-58.0900;-53.1900;-4.9000
1221.5040;-58.0500;-53.1400;-4.9100
1221.7040;-58.0100;-53.0800;-4.9300
1221.9030;-57.9300;-53.0300;-4.9000
1222.1020;-57.8500;-52.9700;-4.8800
1222.3010;-57.8200;-52.9100;-4.9100
1222.5000;-57.7700;-52.8400;-4.9300
1222.6990;-57.7000;-52.7900;-4.9100
1222.8980;-57.6200;-52.7100;-4.9100
1223.0970;-57.5700;-52.6500;-4.9200
1223.2970;-57.5600;-52.5800;-4.9800
1223.4960;-57.4800;-52.5000;-4.9800
1223.6950;-57.4200;-52.4500;-4.9700
1223.8940;-57.4000;-52.3800;-5.0200
1224.0930;-57.3700;-52.3100;-5.0600
1224.2920;-57.3200;-52.2400;-5.0800
1224.4910;-57.2500;-52.1800;-5.0700
1224.6900;-57.2100;-52.1300;-5.0800
1224.8890;-57.1600;-52.0500;-5.1100
1225.0890;-57.0600;-52.0100;-5.0500
1225.2880;-56.9600;-51.9300;-5.0300
1225.4870;-56.8600;-51.8700;-4.9900
1225.6860;-56.7800;-51.8400;-4.9400
1225.8850;-56.6400;-51.7800;-4.8600
1226.0840;-56.4600;-51.7300;-4.7300
1226.2830;-56.3600;-51.6800;-4.6800
1226.4820;-56.2000;-51.6200;-4.5800
1226.6810;-56.0300;-51.5900;-4.4400
1226.8810;-55.8700;-51.5400;-4.3300
1227.0800;-55.6700;-51.4800;-4.1900
1227.2790;-55.5800;-51.4400;-4.1400
1227.4780;-55.4000;-51.3800;-4.0200
1227.6770;-55.2700;-51.3400;-3.9300
1227.8760;-55.1500;-51.2700;-3.8800
1228.0750;-55.0300;-51.2200;-3.8100
1228.2740;-54.9300;-51.1500;-3.7800
1228.4740;-54.8100;-51.0800;-3.7300
1228.6730;-54.7500;-51.0300;-3.7200
1228.8720;-54.6900;-50.9500;-3.7400
1229.0710;-54.6100;-50.8900;-3.7200
1229.2700;-54.5700;-50.8100;-3.7600
1229.4690;-54.5300;-50.7200;-3.8100
1229.6680;-54.5100;-50.6700;-3.8400
1229.8670;-54.4800;-50.5700;-3.9100
1230.0660;-54.4600;-50.4900;-3.9700
1230.2660;-54.5000;-50.4100;-4.0900
1230.4650;-54.5000;-50.3300;-4.1700
1230.6640;-54.5500;-50.2600;-4.2900
1230.8630;-54.6100;-50.1800;-4.4300
1231.0620;-54.6800;-50.1100;-4.5700
1231.2610;-54.7700;-50.0500;-4.7200
1231.4600;-54.8200;-49.9800;-4.8400
1231.6590;-54.8900;-49.9300;-4.9600
1231.8580;-54.9500;-49.8500;-5.1000
1232.0580;-54.9700;-49.8100;-5.1600
1232.2570;-54.9800;-49.7400;-5.2400
1232.4560;-54.9400;-49.6800;-5.2600
1232.6550;-54.8800;-49.6400;-5.2400
1232.8540;-54.7700;-49.5700;-5.2000
1233.0530;-54.6200;-49.5300;-5.0900
1233.2520;-54.4700;-49.4600;-5.0100
1233.4510;-54.2700;-49.4100;-4.8600
1233.6500;-54.0700;-49.3700;-4.7000
1233.8500;-53.8400;-49.3000;-4.5400
1234.0490;-53.6400;-49.2500;-4.3900
1234.2480;-53.4500;-49.1800;-4.2700
1234.4470;-53.2300;-49.1200;-4.1100
1234.6460;-53.0500;-49.0600;-3.9900
1234.8450;-52.8800;-48.9900;-3.8900
1235.0440;-52.7300;-48.9300;-3.8000
1235.2430;-52.6200;-48.8400;-3.7800
1235.4430;-52.4800;-48.7600;-3.7200
1235.6420;-52.4000;-48.6900;-3.7100
1235.8410;-52.3200;-48.6000;-3.7200
1236.0400;-52.2500;-48.5300;-3.7200
1236.2390;-52.1900;-48.4200;-3.7700
1236.4380;-52.1500;-48.3300;-3.8200
1236.6370;-52.1500;-48.2500;-3.9000
1236.8360;-52.1100;-48.1500;-3.9600
1237.0350;-52.1000;-48.0800;-4.0200
1237.2350;-52.1200;-47.9900;-4.1300
1237.4340;-52.1200;-47.9000;-4.2200
1237.6330;-52.1300;-47.8100;-4.3200
1237.8320;-52.1400;-47.7400;-4.4000
1238.0310;-52.1500;-47.6600;-4.4900
1238.2300;-52.1600;-47.5700;-4.5900
1238.4290;-52.1300;-47.5000;-4.6300
1238.6280;-52.1200;-47.4200;-4.7000
1238.8270;-52.0800;-47.3400;-4.7400
1239.0270;-52.0200;-47.2700;-4.7500
1239.2260;-51.9300;-47.1800;-4.7500
1239.4250;-51.8300;-47.1100;-4.7200
1239.6240;-51.7400;-47.0300;-4.7100
1239.8230;-51.5900;-46.9400;-4.6500
1240.0220;-51.4600;-46.8700;-4.5900
1240.2210;-51.3300;-46.7700;-4.5600
1240.4200;-51.1900;-46.6900;-4.5000
1240.6200;-51.0600;-46.5900;-4.4700
1240.8190;-50.9200;-46.4900;-4.4300
1241.0180;-50.8000;-46.3800;-4.4200
1241.2170;-50.7000;-46.2700;-4.4300
1241.4160;-50.5900;-46.1700;-4.4200
1241.6150;-50.5100;-46.0300;-4.4800
1241.8140;-50.4400;-45.9100;-4.5300
1242.0130;-50.3900;-45.8000;-4.5900
1242.2120;-50.3400;-45.6900;-4.6500
1242.4120;-50.3000;-45.5600;-4.7400
1242.6110;-50.2800;-45.4200;-4.8600
1242.8100;-50.2400;-45.3100;-4.9300
1243.0090;-50.2000;-45.1700;-5.0300
1243.2080;-50.1900;-45.0500;-5.1400
1243.4070;-50.1600;-44.9200;-5.2400
1243.6060;-50.1300;-44.7900;-5.3400
1243.8050;-50.0900;-44.6800;-5.4100
1244.0040;-50.0600;-44.5400;-5.5200
1244.2040;-50.0200;-44.4100;-5.6100
1244.4030;-49.9600;-44.2900;-5.6700
1244.6020;-49.9300;-44.1600;-5.7700
1244.8010;-49.8800;-44.0500;-5.8300
1245.0000;-49.8300;-43.9100;-5.9200
1245.1990;-49.7900;-43.7900;-6.0000
1245.3980;-49.7600;-43.6700;-6.0900
1245.5970;-49.7300;-43.5300;-6.2000
1245.7970;-49.6800;-43.4100;-6.2700
1245.9960;-49.6300;-43.2600;-6.3700
1246.1950;-49.6000;-43.1400;-6.4600
1246.3940;-49.5500;-43.0000;-6.5500
1246.5930;-49.4900;-42.8500;-6.6400
1246.7920;-49.4100;-42.7300;-6.6800
1246.9910;-49.3100;-42.5600;-6.7500
1247.1900;-49.1700;-42.4200;-6.7500
1247.3890;-48.9900;-42.2700;-6.7200
1247.5890;-48.7900;-42.1100;-6.6800
1247.7880;-48.5200;-41.9700;-6.5500
1247.9870;-48.2100;-41.8000;-6.4100
1248.1860;-47.8700;-41.6500;-6.2200
1248.3850;-47.5100;-41.5000;-6.0100
1248.5840;-47.1100;-41.3300;-5.7800
1248.7830;-46.6900;-41.1800;-5.5100
1248.9820;-46.2800;-41.0200;-5.2600
1249.1810;-45.8600;-40.8700;-4.9900
1249.3810;-45.3800;-40.7200;-4.6600
1249.5800;-45.0200;-40.5600;-4.4600
1249.7790;-44.6400;-40.4200;-4.2200
1249.9780;-44.2600;-40.2500;-4.0100
1250.1770;-43.8900;-40.1100;-3.7800
1250.3760;-43.5500;-39.9700;-3.5800
1250.5750;-43.2200;-39.8100;-3.4100
1250.7740;-42.9000;-39.6700;-3.2300
1250.9740;-42.6300;-39.5200;-3.1100
1251.1730;-42.3400;-39.3800;-2.9600
1251.3720;-42.0800;-39.2300;-2.8500
1251.5710;-41.8300;-39.0900;-2.7400
1251.7700;-41.5900;-38.9500;-2.6400
1251.9690;-41.3800;-38.7900;-2.5900
1252.1680;-41.1400;-38.6400;-2.5000
1252.3670;-40.9400;-38.4700;-2.4700
1252.5660;-40.7300;-38.3200;-2.4100
1252.7660;-40.5300;-38.1700;-2.3600
1252.9650;-40.3400;-38.0100;-2.3300
1253.1640;-40.1400;-37.8500;-2.2900
1253.3630;-39.9600;-37.6800;-2.2800
1253.5620;-39.7600;-37.5200;-2.2400
1253.7610;-39.5600;-37.3500;-2.2100
1253.9600;-39.3900;-37.1900;-2.2000
1254.1590;-39.1800;-37.0300;-2.1500
1254.3580;-38.9900;-36.8500;-2.1400
1254.5580;-38.8000;-36.7000;-2.1000
1254.7570;-38.6000;-36.5400;-2.0600
1254.9560;-38.4000;-36.3700;-2.0300
1255.1550;-38.2100;-36.2300;-1.9800
1255.3540;-38.0300;-36.0600;-1.9700
1255.5530;-37.8300;-35.9200;-1.9100
1255.7520;-37.6300;-35.7400;-1.8900
1255.9510;-37.4500;-35.6300;-1.8200
1256.1500;-37.2700;-35.4900;-1.7800
1256.3500;-37.0900;-35.3400;-1.7500
1256.5490;-36.9000;-35.2200;-1.6800
1256.7480;-36.7200;-35.0700;-1.6500
1256.9470;-36.5400;-34.9400;-1.6000
1257.1460;-36.3500;-34.8000;-1.5500
1257.3450;-36.1900;-34.6600;-1.5300
1257.5440;-36.0100;-34.5400;-1.4700
1257.7430;-35.8100;-34.3900;-1.4200
1257.9430;-35.6500;-34.2500;-1.4000
1258.1420;-35.4900;-34.1200;-1.3700
1258.3410;-35.3100;-33.9700;-1.3400
1258.5400;-35.1300;-33.8400;-1.2900
1258.7390;-34.9700;-33.6800;-1.2900
1258.9380;-34.7800;-33.5400;-1.2400
1259.1370;-34.6100;-33.3900;-1.2200
1259.3360;-34.4400;-33.2400;-1.2000
1259.5350;-34.2800;-33.1000;-1.1800
1259.7350;-34.1100;-32.9400;-1.1700
1259.9340;-33.9400;-32.8000;-1.1400
1260.1330;-33.7800;-32.6500;-1.1300
1260.3320;-33.6200;-32.4900;-1.1300
1260.5310;-33.4700;-32.3600;-1.1100
1260.7300;-33.3200;-32.2000;-1.1200
1260.9290;-33.1600;-32.0700;-1.0900
1261.1280;-33.0200;-31.9200;-1.1000
1261.3270;-32.8700;-31.7700;-1.1000
1261.5270;-32.7400;-31.6500;-1.0900
1261.7260;-32.6000;-31.5100;-1.0900
1261.9250;-32.4500;-31.3800;-1.0700
1262.1240;-32.3200;-31.2400;-1.0800
1262.3230;-32.1800;-31.1100;-1.0700
1262.5220;-32.0400;-31.0000;-1.0400
1262.7210;-31.9200;-30.8600;-1.0600
1262.9200;-31.7700;-30.7400;-1.0300
1263.1200;-31.6300;-30.6000;-1.0300
1263.3190;-31.4900;-30.4700;-1.0200
1263.5180;-31.3500;-30.3600;-0.9900
1263.7170;-31.2200;-30.2100;-1.0100
1263.9160;-31.0700;-30.0900;-0.9800
1264.1150;-30.9300;-29.9500;-0.9800
1264.3140;-30.7800;-29.8100;-0.9700
1264.5130;-30.6400;-29.6900;-0.9500
1264.7120;-30.5000;-29.5500;-0.9500
1264.9120;-30.3500;-29.4200;-0.9300
1265.1110;-30.2100;-29.2700;-0.9400
1265.3100;-30.0600;-29.1400;-0.9200
1265.5090;-29.9200;-29.0100;-0.9100
1265.7080;-29.7900;-28.8700;-0.9200
1265.9070;-29.6500;-28.7500;-0.9000
1266.1060;-29.5200;-28.6100;-0.9100
1266.3050;-29.3800;-28.4800;-0.9000
1266.5040;-29.2600;-28.3700;-0.8900
1266.7040;-29.1400;-28.2400;-0.9000
1266.9030;-29.0100;-28.1200;-0.8900
1267.1020;-28.9000;-27.9900;-0.9100
1267.3010;-28.7800;-27.8700;-0.9100
1267.5000;-28.6800;-27.7700;-0.9100
1267.6990;-28.5800;-27.6500;-0.9300
1267.8980;-28.4700;-27.5500;-0.9200
1268.0970;-28.3800;-27.4300;-0.9500
1268.2970;-28.2800;-27.3200;-0.9600
1268.4960;-28.2000;-27.2200;-0.9800
1268.6950;-28.1200;-27.1000;-1.0200
1268.8940;-28.0400;-27.0000;-1.0400
1269.0930;-27.9800;-26.8800;-1.1000
1269.2920;-27.9200;-26.7700;-1.1500
1269.4910;-27.8800;-26.6600;-1.2200
1269.6900;-27.8600;-26.5400;-1.3200
1269.8890;-27.8400;-26.4400;-1.4000
1270.0890;-27.8500;-26.3100;-1.5400
1270.2880;-27.8700;-26.2000;-1.6700
1270.4870;-27.9200;-26.0700;-1.8500
1270.6860;-28.0100;-25.9700;-2.0400
1270.8850;-28.1000;-25.8500;-2.2500
1271.0840;-28.2500;-25.7300;-2.5200
1271.2830;-28.4200;-25.6300;-2.7900
1271.4820;-28.6300;-25.5000;-3.1300
1271.6810;-28.8800;-25.3900;-3.4900
1271.8810;-29.1800;-25.2800;-3.9000
1272.0800;-29.5400;-25.1700;-4.3700
1272.2790;-29.9400;-25.0600;-4.8800
1272.4780;-30.4100;-24.9500;-5.4600
1272.6770;-30.9500;-24.8500;-6.1000
1272.8760;-31.5700;-24.7400;-6.8300
1273.0750;-32.2800;-24.6500;-7.6300
1273.2740;-33.0800;-24.5600;-8.5200
1273.4740;-33.9900;-24.4500;-9.5400
1273.6730;-35.0100;-24.3700;-10.6400
1273.8720;-36.1400;-24.2700;-11.8700
1274.0710;-37.3900;-24.1800;-13.2100
1274.2700;-38.8500;-24.0900;-14.7600
1274.4690;-39.6600;-23.9900;-15.6700
1274.6680;-40.1400;-23.9100;-16.2300
1274.8670;-39.8600;-23.8100;-16.0500
1275.0660;-38.9200;-23.7200;-15.2000
1275.2660;-37.6600;-23.6400;-14.0200
1275.4650;-36.3500;-23.5400;-12.8100
1275.6640;-34.9000;-23.4600;-11.4400
1275.8630;-33.9800;-23.3600;-10.6200
1276.0620;-32.9700;-23.2700;-9.7000
1276.2610;-32.0900;-23.1800;-8.9100
1276.4600;-31.3100;-23.0900;-8.2200
1276.6590;-30.6200;-23.0000;-7.6200
1276.8580;-30.0400;-22.9000;-7.1400
1277.0580;-29.5300;-22.8200;-6.7100
1277.2570;-29.0900;-22.7300;-6.3600
1277.4560;-28.7200;-22.6400;-6.0800
1277.6550;-28.4000;-22.5700;-5.8300
1277.8540;-28.1600;-22.4700;-5.6900
1278.0530;-27.9500;-22.4000;-5.5500
1278.2520;-27.8000;-22.3100;-5.4900
1278.4510;-27.6800;-22.2300;-5.4500
1278.6500;-27.6100;-22.1600;-5.4500
1278.8500;-27.5900;-22.0700;-5.5200
1279.0490;-27.5900;-22.0000;-5.5900
1279.2480;-27.6500;-21.9200;-5.7300
1279.4470;-27.7200;-21.8400;-5.8800
1279.6460;-27.8200;-21.7700;-6.0500
1279.8450;-27.9700;-21.6800;-6.2900
1280.0440;-28.1300;-21.6200;-6.5100
1280.2430;-28.3200;-21.5400;-6.7800
1280.4430;-28.5100;-21.4600;-7.0500
1280.6420;-28.7300;-21.3900;-7.3400
1280.8410;-28.9700;-21.3100;-7.6600
1281.0400;-29.2000;-21.2400;-7.9600
1281.2390;-29.4500;-21.1600;-8.2900
1281.4380;-29.6800;-21.0800;-8.6000
1281.6370;-29.9200;-21.0100;-8.9100
1281.8360;-30.1500;-20.9300;-9.2200
1282.0350;-30.3600;-20.8700;-9.4900
1282.2350;-30.5900;-20.7800;-9.8100
1282.4340;-30.7700;-20.7100;-10.0600
1282.6330;-30.9800;-20.6500;-10.3300
1282.8320;-31.1600;-20.5800;-10.5800
1283.0310;-31.3300;-20.5200;-10.8100
1283.2300;-31.5000;-20.4500;-11.0500
1283.4290;-31.6300;-20.3900;-11.2400
1283.6280;-31.7700;-20.3200;-11.4500
1283.8270;-31.8900;-20.2600;-11.6300
1284.0270;-31.9700;-20.2100;-11.7600
1284.2260;-32.0500;-20.1400;-11.9100
1284.4250;-32.0700;-20.0900;-11.9800
1284.6240;-32.0600;-20.0300;-12.0300
1284.8230;-31.9900;-19.9700;-12.0200
1285.0220;-31.8500;-19.9300;-11.9200
1285.2210;-31.6600;-19.8600;-11.8000
1285.4200;-31.3900;-19.8100;-11.5800
1285.6200;-31.0600;-19.7500;-11.3100
1285.8190;-30.6700;-19.6900;-10.9800
1286.0180;-30.2200;-19.6500;-10.5700
1286.2170;-29.7700;-19.5800;-10.1900
1286.4160;-29.2600;-19.5400;-9.7200
1286.6150;-28.7700;-19.4900;-9.2800
1286.8140;-28.2400;-19.4300;-8.8100
1287.0130;-27.7300;-19.3900;-8.3400
1287.2120;-27.2300;-19.3300;-7.9000
1287.4120;-26.7300;-19.2900;-7.4400
1287.6110;-26.2700;-19.2300;-7.0400
1287.8100;-25.7200;-19.1800;-6.5400
1288.0090;-25.3800;-19.1400;-6.2400
1288.2080;-24.9600;-19.0800;-5.8800
1288.4070;-24.5700;-19.0500;-5.5200
1288.6060;-24.2000;-19.0000;-5.2000
1288.8050;-23.8500;-18.9600;-4.8900
1289.0040;-23.5200;-18.9200;-4.6000
1289.2040;-23.2000;-18.8700;-4.3300
1289.4030;-22.9100;-18.8500;-4.0600
1289.6020;-22.6400;-18.8000;-3.8400
1289.8010;-22.3700;-18.7600;-3.6100
1290.0000;-22.1400;-18.7200;-3.4200
1290.1990;-21.8900;-18.6800;-3.2100
1290.3980;-21.6800;-18.6600;-3.0200
1290.5970;-21.4800;-18.6200;-2.8600
1290.7970;-21.2800;-18.5900;-2.6900
1290.9960;-21.1000;-18.5300;-2.5700
1291.1950;-20.9200;-18.5000;-2.4200
1291.3940;-20.7700;-18.4700;-2.3000
1291.5930;-20.6100;-18.4100;-2.2000
1291.7920;-20.4700;-18.3900;-2.0800
1291.9910;-20.3600;-18.3400;-2.0200
1292.1900;-20.2400;-18.3100;-1.9300
1292.3890;-20.1600;-18.2700;-1.8900
1292.5890;-20.0500;-18.2200;-1.8300
1292.7880;-19.9800;-18.2000;-1.7800
1292.9870;-19.9300;-18.1500;-1.7800
1293.1860;-19.8800;-18.1300;-1.7500
1293.3850;-19.8600;-18.0900;-1.7700
1293.5840;-19.8200;-18.0500;-1.7700
1293.7830;-19.8200;-18.0200;-1.8000
1293.9820;-19.8400;-17.9900;-1.8500
1294.1810;-19.8600;-17.9700;-1.8900
1294.3810;-19.9200;-17.9300;-1.9900
1294.5800;-19.9600;-17.8900;-2.0700
1294.7790;-20.0400;-17.8700;-2.1700
1294.9780;-20.1300;-17.8400;-2.2900
1295.1770;-20.2400;-17.8200;-2.4200
1295.3760;-20.3900;-17.7900;-2.6000
1295.5750;-20.5200;-17.7600;-2.7600
1295.7740;-20.7000;-17.7300;-2.9700
1295.9740;-20.8900;-17.6900;-3.2000
1296.1730;-21.1100;-17.6800;-3.4300
1296.3720;-21.3600;-17.6500;-3.7100
1296.5710;-21.6200;-17.6300;-3.9900
1296.7700;-21.9200;-17.6000;-4.3200
1296.9690;-22.2400;-17.5800;-4.6600
1297.1680;-22.6000;-17.5700;-5.0300
1297.3670;-22.9900;-17.5500;-5.4400
1297.5660;-23.4000;-17.5300;-5.8700
1297.7660;-23.8700;-17.5100;-6.3600
1297.9650;-24.3600;-17.4900;-6.8700
1298.1640;-24.9100;-17.4800;-7.4300
1298.3630;-25.5000;-17.4700;-8.0300
1298.5620;-26.1300;-17.4600;-8.6700
1298.7610;-26.8200;-17.4400;-9.3800
1298.9600;-27.5400;-17.4400;-10.1000
1299.1590;-28.4900;-17.4300;-11.0600
1299.3580;-29.1400;-17.4200;-11.7200
1299.5580;-29.9400;-17.4200;-12.5200
1299.7570;-30.7100;-17.4100;-13.3000
1299.9560;-31.3800;-17.4100;-13.9700
1300.1550;-31.8800;-17.4000;-14.4800
1300.3540;-32.0800;-17.4000;-14.6800
1300.5530;-31.9900;-17.4000;-14.5900
1300.7520;-31.6100;-17.3900;-14.2200
1300.9510;-31.0200;-17.4000;-13.6200
1301.1500;-30.3300;-17.4000;-12.9300
1301.3500;-29.5600;-17.4000;-12.1600
1301.5490;-28.8200;-17.4100;-11.4100
1301.7480;-28.0700;-17.4100;-10.6600
1301.9470;-27.3700;-17.4200;-9.9500
1302.1460;-26.7300;-17.4200;-9.3100
1302.3450;-26.1200;-17.4300;-8.6900
1302.5440;-25.4900;-17.4300;-8.0600
1302.7430;-25.0700;-17.4300;-7.6400
1302.9430;-24.6300;-17.4400;-7.1900
1303.1420;-24.2000;-17.4400;-6.7600
1303.3410;-23.8300;-17.4600;-6.3700
1303.5400;-23.5000;-17.4600;-6.0400
1303.7390;-23.1800;-17.4600;-5.7200
1303.9380;-22.9200;-17.4700;-5.4500
1304.1370;-22.6800;-17.4800;-5.2000
1304.3360;-22.4800;-17.5000;-4.9800
1304.5350;-22.3000;-17.5000;-4.8000
1304.7350;-22.1500;-17.5100;-4.6400
1304.9340;-22.0300;-17.5200;-4.5100
1305.1330;-21.9300;-17.5300;-4.4000
1305.3320;-21.8600;-17.5500;-4.3100
1305.5310;-21.8100;-17.5600;-4.2500
1305.7300;-21.7800;-17.5800;-4.2000
1305.9290;-21.7800;-17.5800;-4.2000
1306.1280;-21.8000;-17.6000;-4.2000
1306.3270;-21.8500;-17.6100;-4.2400
1306.5270;-21.9100;-17.6300;-4.2800
1306.7260;-22.0000;-17.6500;-4.3500
1306.9250;-22.1100;-17.6500;-4.4600
1307.1240;-22.2400;-17.6800;-4.5600
1307.3230;-22.4000;-17.6900;-4.7100
1307.5220;-22.5800;-17.7100;-4.8700
1307.7210;-22.7700;-17.7400;-5.0300
1307.9200;-23.0000;-17.7500;-5.2500
1308.1200;-23.2400;-17.7900;-5.4500
1308.3190;-23.5200;-17.8000;-5.7200
1308.5180;-23.8200;-17.8400;-5.9800
1308.7170;-24.1300;-17.8800;-6.2500
1308.9160;-24.4600;-17.8900;-6.5700
1309.1150;-24.8200;-17.9400;-6.8800
1309.3140;-25.2000;-17.9600;-7.2400
1309.5130;-25.6000;-18.0100;-7.5900
1309.7120;-26.0100;-18.0500;-7.9600
1309.9120;-26.4300;-18.0700;-8.3600
1310.1110;-26.8700;-18.1300;-8.7400
1310.3100;-27.3100;-18.1600;-9.1500
1310.5090;-27.7400;-18.2100;-9.5300
1310.7080;-28.1900;-18.2500;-9.9400
1310.9070;-28.6800;-18.2900;-10.3900
1311.1060;-29.0100;-18.3500;-10.6600
1311.3050;-29.3500;-18.3800;-10.9700
1311.5040;-29.6500;-18.4500;-11.2000
1311.7040;-29.8800;-18.4800;-11.4000
1311.9030;-30.0200;-18.5300;-11.4900
1312.1020;-30.1100;-18.5800;-11.5300
1312.3010;-30.1000;-18.6300;-11.4700
1312.5000;-30.0400;-18.7000;-11.3400
1312.6990;-29.9000;-18.7400;-11.1600
1312.8980;-29.7200;-18.8000;-10.9200
1313.0970;-29.5100;-18.8500;-10.6600
1313.2970;-29.2600;-18.9000;-10.3600
1313.4960;-29.0200;-18.9800;-10.0400
1313.6950;-28.7500;-19.0300;-9.7200
1313.8940;-28.4900;-19.0900;-9.4000
1314.0930;-28.2600;-19.1400;-9.1200
1314.2920;-28.0100;-19.2000;-8.8100
1314.4910;-27.8100;-19.2700;-8.5400
1314.6900;-27.6000;-19.3200;-8.2800
1314.8890;-27.4100;-19.3800;-8.0300
1315.0890;-27.2400;-19.4300;-7.8100
1315.2880;-27.0900;-19.5000;-7.5900
1315.4870;-26.9900;-19.5500;-7.4400
1315.6860;-26.8700;-19.6100;-7.2600
1315.8850;-26.7800;-19.6700;-7.1100
1316.0840;-26.7100;-19.7300;-6.9800
1316.2830;-26.6600;-19.8000;-6.8600
1316.4820;-26.6600;-19.8500;-6.8100
1316.6810;-26.6400;-19.9200;-6.7200
1316.8810;-26.6600;-19.9800;-6.6800
1317.0800;-26.6900;-20.0500;-6.6400
1317.2790;-26.7400;-20.1200;-6.6200
1317.4780;-26.8200;-20.1900;-6.6300
1317.6770;-26.9000;-20.2600;-6.6400
1317.8760;-27.0100;-20.3200;-6.6900
1318.0750;-27.1100;-20.3900;-6.7200
1318.2740;-27.2500;-20.4600;-6.7900
1318.4740;-27.4000;-20.5300;-6.8700
1318.6730;-27.5700;-20.6200;-6.9500
1318.8720;-27.7600;-20.6800;-7.0800
1319.0710;-27.9500;-20.7800;-7.1700
1319.2700;-28.1600;-20.8500;-7.3100
1319.4690;-28.3700;-20.9300;-7.4400
1319.6680;-28.5900;-21.0200;-7.5700
1319.8670;-28.8300;-21.1000;-7.7300
1320.0660;-29.0500;-21.2000;-7.8500
1320.2660;-29.3000;-21.2800;-8.0200
1320.4650;-29.5100;-21.3700;-8.1400
1320.6640;-29.7400;-21.4700;-8.2700
1320.8630;-29.9500;-21.5600;-8.3900
1321.0620;-30.1300;-21.6600;-8.4700
1321.2610;-30.3100;-21.7500;-8.5600
1321.4600;-30.4500;-21.8600;-8.5900
1321.6590;-30.5700;-21.9500;-8.6200
1321.8580;-30.6500;-22.0500;-8.6000
1322.0580;-30.7100;-22.1600;-8.5500
1322.2570;-30.7400;-22.2600;-8.4800
1322.4560;-30.7300;-22.3700;-8.3600
1322.6550;-30.7000;-22.4700;-8.2300
1322.8540;-30.6300;-22.5900;-8.0400
1323.0530;-30.5600;-22.6900;-7.8700
1323.2520;-30.4700;-22.8100;-7.6600
1323.4510;-30.3600;-22.9200;-7.4400
1323.6500;-30.2600;-23.0300;-7.2300
1323.8500;-30.1300;-23.1600;-6.9700
1324.0490;-30.0200;-23.2700;-6.7500
1324.2480;-29.9000;-23.4000;-6.5000
1324.4470;-29.7900;-23.5100;-6.2800
1324.6460;-29.7000;-23.6300;-6.0700
1324.8450;-29.5900;-23.7600;-5.8300
1325.0440;-29.5100;-23.8700;-5.6400
1325.2430;-29.4400;-24.0100;-5.4300
1325.4430;-29.3700;-24.1200;-5.2500
1325.6420;-29.3500;-24.2600;-5.0900
1325.8410;-29.3000;-24.3900;-4.9100
1326.0400;-29.3000;-24.5200;-4.7800
1326.2390;-29.2800;-24.6500;-4.6300
1326.4380;-29.2800;-24.7800;-4.5000
1326.6370;-29.3100;-24.9100;-4.4000
1326.8360;-29.3500;-25.0400;-4.3100
1327.0350;-29.4100;-25.1800;-4.2300
1327.2350;-29.4700;-25.3200;-4.1500
1327.4340;-29.5500;-25.4500;-4.1000
1327.6330;-29.6500;-25.6000;-4.0500
1327.8320;-29.7500;-25.7200;-4.0300
1328.0310;-29.8900;-25.8700;-4.0200
1328.2300;-30.0200;-26.0100;-4.0100
1328.4290;-30.1900;-26.1500;-4.0400
1328.6280;-30.3500;-26.3000;-4.0500
1328.8270;-30.5400;-26.4400;-4.1000
1329.0270;-30.7500;-26.6000;-4.1500
1329.2260;-30.9700;-26.7300;-4.2400
1329.4250;-31.2100;-26.8900;-4.3200
1329.6240;-31.4500;-27.0300;-4.4200
1329.8230;-31.7300;-27.1700;-4.5600
1330.0220;-32.0300;-27.3300;-4.7000
1330.2210;-32.3400;-27.4700;-4.8700
1330.4200;-32.6800;-27.6300;-5.0500
1330.6200;-33.0300;-27.7700;-5.2600
1330.8190;-33.4300;-27.9200;-5.5100
1331.0180;-33.8400;-28.0700;-5.7700
1331.2170;-34.2800;-28.2300;-6.0500
1331.4160;-34.7600;-28.3900;-6.3700
1331.6150;-35.2500;-28.5700;-6.6800
1331.8140;-35.7900;-28.7100;-7.0800
1332.0130;-36.3500;-28.8500;-7.5000
1332.2120;-36.9500;-29.0200;-7.9300
1332.4120;-37.5900;-29.1700;-8.4200
1332.6110;-38.2600;-29.3400;-8.9200
1332.8100;-39.1400;-29.5000;-9.6400
1333.0090;-39.7500;-29.6600;-10.0900
1333.2080;-40.5400;-29.8300;-10.7100
1333.4070;-41.3500;-29.9800;-11.3700
1333.6060;-42.1900;-30.1500;-12.0400
1333.8050;-43.0400;-30.3100;-12.7300
1334.0040;-43.8600;-30.4700;-13.3900
1334.2040;-44.6500;-30.6500;-14.0000
1334.4030;-45.3000;-30.8100;-14.4900
1334.6020;-45.8300;-30.9800;-14.8500
1334.8010;-46.1500;-31.1500;-15.0000
1335.0000;-46.2800;-31.3200;-14.9600
1335.1990;-46.2300;-31.4900;-14.7400
1335.3980;-46.0300;-31.6600;-14.3700
1335.5970;-45.7500;-31.8500;-13.9000
1335.7970;-45.4000;-32.0200;-13.3800
1335.9960;-45.0500;-32.2100;-12.8400
1336.1950;-44.7100;-32.3800;-12.3300
1336.3940;-44.3600;-32.5600;-11.8000
1336.5930;-44.0700;-32.7400;-11.3300
1336.7920;-43.7900;-32.9100;-10.8800
1336.9910;-43.5600;-33.1000;-10.4600
1337.1900;-43.3700;-33.2800;-10.0900
1337.3890;-43.2100;-33.4700;-9.7400
1337.5890;-43.1100;-33.6500;-9.4600
1337.7880;-43.0300;-33.8300;-9.2000
1337.9870;-42.9900;-34.0300;-8.9600
1338.1860;-42.9700;-34.2000;-8.7700
1338.3850;-42.9800;-34.3900;-8.5900
1338.5840;-43.0300;-34.5700;-8.4600
1338.7830;-43.0800;-34.7500;-8.3300
1338.9820;-43.1800;-34.9500;-8.2300
1339.1810;-43.2800;-35.1300;-8.1500
1339.3810;-43.4000;-35.3200;-8.0800
1339.5800;-43.5200;-35.4900;-8.0300
1339.7790;-43.6500;-35.6800;-7.9700
1339.9780;-43.8000;-35.8700;-7.9300
1340.1770;-43.9300;-36.0500;-7.8800
1340.3760;-44.0800;-36.2600;-7.8200
1340.5750;-44.2100;-36.4400;-7.7700
1340.7740;-44.3200;-36.6300;-7.6900
1340.9740;-44.4100;-36.8100;-7.6000
1341.1730;-44.4800;-36.9900;-7.4900
1341.3720;-44.5500;-37.1800;-7.3700
1341.5710;-44.5900;-37.3700;-7.2200
1341.7700;-44.6200;-37.5600;-7.0600
1341.9690;-44.6200;-37.7300;-6.8900
1342.1680;-44.6100;-37.9300;-6.6800
1342.3670;-44.6000;-38.1100;-6.4900
1342.5660;-44.5500;-38.2900;-6.2600
1342.7660;-44.5300;-38.5300;-6.0000
1342.9650;-44.4800;-38.6900;-5.7900
1343.1640;-44.4300;-38.8900;-5.5400
1343.3630;-44.3900;-39.0700;-5.3200
1343.5620;-44.3300;-39.2600;-5.0700
1343.7610;-44.3100;-39.4500;-4.8600
1343.9600;-44.2800;-39.6500;-4.6300
1344.1590;-44.2600;-39.8600;-4.4000
1344.3580;-44.2500;-40.0500;-4.2000
1344.5580;-44.2500;-40.2500;-4.0000
1344.7570;-44.2600;-40.4400;-3.8200
1344.9560;-44.2500;-40.6300;-3.6200
1345.1550;-44.2800;-40.8200;-3.4600
1345.3540;-44.2900;-41.0000;-3.2900
1345.5530;-44.3200;-41.2000;-3.1200
1345.7520;-44.3800;-41.3800;-3.0000
1345.9510;-44.4300;-41.5800;-2.8500
1346.1500;-44.4900;-41.7800;-2.7100
1346.3500;-44.5600;-41.9700;-2.5900
1346.5490;-44.6600;-42.1900;-2.4700
1346.7480;-44.7400;-42.3700;-2.3700
1346.9470;-44.8200;-42.5600;-2.2600
1347.1460;-44.9300;-42.7500;-2.1800
1347.3450;-45.0100;-42.9200;-2.0900
1347.5440;-45.1700;-43.1600;-2.0100
1347.7430;-45.3300;-43.3900;-1.9400
1347.9430;-45.4800;-43.6200;-1.8600
1348.1420;-45.6200;-43.8000;-1.8200
1348.3410;-45.7700;-44.0000;-1.7700
1348.5400;-45.8900;-44.1600;-1.7300
1348.7390;-46.0200;-44.3400;-1.6800
1348.9380;-46.1700;-44.5200;-1.6500
1349.1370;-46.3300;-44.6800;-1.6500
1349.3360;-46.4800;-44.8500;-1.6300
1349.5350;-46.6600;-45.0200;-1.6400
1349.7350;-46.8200;-45.1900;-1.6300
1349.9340;-47.0300;-45.3800;-1.6500
1350.1330;-47.2500;-45.5800;-1.6700
1350.3320;-47.5300;-45.8400;-1.6900
1350.5310;-47.8000;-46.0500;-1.7500
1350.7300;-48.0100;-46.2300;-1.7800
1350.9290;-48.2400;-46.4000;-1.8400
1351.1280;-48.4300;-46.5200;-1.9100
1351.3270;-48.6500;-46.7000;-1.9500
1351.5270;-48.9000;-46.8700;-2.0300
1351.7260;-49.2100;-47.1200;-2.0900
1351.9250;-49.4800;-47.3100;-2.1700
1352.1240;-49.7400;-47.4900;-2.2500
1352.3230;-50.0200;-47.6800;-2.3400
1352.5220;-50.3100;-47.8800;-2.4300
1352.7210;-50.5700;-48.0500;-2.5200
1352.9200;-50.8200;-48.2000;-2.6200
1353.1200;-51.1800;-48.5500;-2.6300
1353.3190;-51.3900;-48.5900;-2.8000
1353.5180;-51.6600;-48.7700;-2.8900
1353.7170;-51.9700;-48.9500;-3.0200
1353.9160;-52.1600;-49.0600;-3.1000
1354.1150;-52.4200;-49.2200;-3.2000
1354.3140;-52.7500;-49.4500;-3.3000
1354.5130;-53.0500;-49.6500;-3.4000
1354.7120;-53.4900;-49.9600;-3.5300
1354.9120;-53.8800;-50.2500;-3.6300
1355.1110;-54.1900;-50.4400;-3.7500
1355.3100;-54.4500;-50.5700;-3.8800
1355.5090;-54.5700;-50.5900;-3.9800
1355.7080;-54.9500;-50.8500;-4.1000
1355.9070;-55.3400;-51.1300;-4.2100
1356.1060;-55.6600;-51.3000;-4.3600
1356.3050;-55.8800;-51.3900;-4.4900
1356.5040;-56.1400;-51.5200;-4.6200
1356.7040;-56.1800;-51.4300;-4.7500
1356.9030;-56.4600;-51.6000;-4.8600
1357.1020;-56.9600;-51.9700;-4.9900
1357.3010;-57.3300;-52.2100;-5.1200
1357.5000;-57.6600;-52.4000;-5.2600
1357.6990;-57.9600;-52.5900;-5.3700
1357.8980;-58.1200;-52.6600;-5.4600
1358.0970;-58.3000;-52.7300;-5.5700
1358.2970;-58.6600;-52.9200;-5.7400
1358.4960;-58.9200;-53.1500;-5.7700
1358.6950;-59.1200;-53.3000;-5.8200
1358.8940;-59.3500;-53.4700;-5.8800
1359.0930;-59.5600;-53.6300;-5.9300
1359.2920;-59.6400;-53.6900;-5.9500
1359.4910;-60.0100;-54.0700;-5.9400
1359.6900;-60.3200;-54.3800;-5.9400
1359.8890;-60.5000;-54.5800;-5.9200
1360.0890;-60.5200;-54.6600;-5.8600
1360.2880;-60.5200;-54.7100;-5.8100
1360.4870;-60.4200;-54.7000;-5.7200
1360.6860;-60.5100;-54.8900;-5.6200
1360.8850;-60.7600;-55.2300;-5.5300
1361.0840;-60.9500;-55.5400;-5.4100
1361.2830;-61.0100;-55.7200;-5.2900
1361.4820;-61.0600;-55.9000;-5.1600
1361.6810;-61.1700;-56.1400;-5.0300
1361.8810;-61.1600;-56.2800;-4.8800
1362.0800;-61.2200;-56.5200;-4.7000
1362.2790;-61.5500;-56.9500;-4.6000
1362.4780;-61.6400;-57.1900;-4.4500
1362.6770;-61.6200;-57.3600;-4.2600
1362.8760;-61.3700;-57.2600;-4.1100
1363.0750;-61.1900;-57.2300;-3.9600
1363.2740;-60.8200;-57.0100;-3.8100
1363.4740;-60.7900;-57.1000;-3.6900
1363.6730;-60.7600;-57.2000;-3.5600
1363.8720;-60.7800;-57.3700;-3.4100
1364.0710;-60.9000;-57.6000;-3.3000
1364.2700;-60.9800;-57.8100;-3.1700
1364.4690;-61.1700;-58.1500;-3.0200
1364.6680;-61.6000;-58.7300;-2.8700
1364.8670;-61.7200;-58.9500;-2.7700
1365.0660;-61.5900;-58.9300;-2.6600
1365.2660;-61.6800;-59.1400;-2.5400
1365.4650;-61.5500;-59.0900;-2.4600
1365.6640;-61.5400;-59.1700;-2.3700
1365.8630;-61.5200;-59.2500;-2.2700
1366.0620;-61.4500;-59.2700;-2.1800
1366.2610;-61.3600;-59.3000;-2.0600
1366.4600;-61.3900;-59.3800;-2.0100
1366.6590;-61.5100;-59.5700;-1.9400
1366.8580;-61.7200;-59.8400;-1.8800
1367.0580;-61.8100;-59.9800;-1.8300
1367.2570;-61.8800;-60.1200;-1.7600
1367.4560;-62.1300;-60.4100;-1.7200
1367.6550;-62.2900;-60.6300;-1.6600
1367.8540;-62.5400;-60.9300;-1.6100
1368.0530;-62.6300;-61.0900;-1.5400
1368.2520;-62.6300;-61.0900;-1.5400
1368.4510;-62.9500;-61.4300;-1.5200
1368.6500;-63.0400;-61.5800;-1.4600
1368.8500;-63.1700;-61.7000;-1.4700
1369.0490;-63.1800;-61.7400;-1.4400
1369.2480;-63.1200;-61.7400;-1.3800
1369.4470;-63.1100;-61.6700;-1.4400
1369.6460;-63.2600;-61.8400;-1.4200
1369.8450;-63.6100;-62.2100;-1.4000
1370.0440;-63.9000;-62.4200;-1.4800
1370.2430;-64.1000;-62.6000;-1.5000
1370.4430;-64.2400;-62.6800;-1.5600
1370.6420;-64.3800;-62.7500;-1.6300
1370.8410;-64.7400;-63.1200;-1.6200
1371.0400;-65.1300;-63.4200;-1.7100
1371.2390;-65.4800;-63.6400;-1.8400
1371.4380;-65.6700;-63.7700;-1.9000
1371.6370;-65.8200;-63.7600;-2.0600
1371.8360;-65.9800;-63.7400;-2.2400
1372.0350;-66.3300;-63.9900;-2.3400
1372.2350;-66.7300;-64.2600;-2.4700
1372.4340;-67.1400;-64.4200;-2.7200
1372.6330;-67.5000;-64.5300;-2.9700
1372.8320;-67.7600;-64.6600;-3.1000
1373.0310;-68.1100;-64.7000;-3.4100
1373.2300;-68.6100;-64.9000;-3.7100
1373.4290;-69.2100;-65.1500;-4.0600
1373.6280;-69.6300;-65.3400;-4.2900
1373.8270;-70.3000;-65.5100;-4.7900
1374.0270;-70.9500;-65.6200;-5.3300
1374.2260;-71.8000;-65.8200;-5.9800
1374.4250;-72.1800;-66.0600;-6.1200
1374.6240;-73.1800;-66.2300;-6.9500
1374.8230;-73.5500;-66.5400;-7.0100
1375.0220;-75.0500;-66.6900;-8.3600
1375.2210;-75.8300;-66.8700;-8.9600
1375.4200;-76.4600;-67.0300;-9.4300
1375.6200;-77.7100;-67.2300;-10.4800
1375.8190;-77.8400;-67.3400;-10.5000
1376.0180;-79.6400;-67.5500;-12.0900
1376.2170;-80.1700;-67.7200;-12.4500
1376.4160;-79.9700;-68.0100;-11.9600
1376.6150;-80.3000;-68.2900;-12.0100
1376.8140;-80.3000;-68.4400;-11.8600
1377.0130;-79.9000;-68.7600;-11.1400
1377.2120;-79.4800;-69.0800;-10.4000
1377.4120;-78.9700;-69.1500;-9.8200
1377.6110;-77.3700;-69.2500;-8.1200
1377.8100;-77.2500;-69.2800;-7.9700
1378.0090;-76.6600;-69.4300;-7.2300
1378.2080;-76.4300;-69.6300;-6.8000
1378.4070;-75.9600;-69.8500;-6.1100
1378.6060;-76.3300;-70.2800;-6.0500
1378.8050;-75.6600;-70.5400;-5.1200
1379.0040;-75.5400;-70.5900;-4.9500
1379.2040;-75.4400;-70.8700;-4.5700
1379.4030;-75.2300;-71.0200;-4.2100
1379.6020;-74.8900;-70.7300;-4.1600
1379.8010;-74.5100;-71.0400;-3.4700
1380.0000;-74.3500;-71.3100;-3.0400
1380.1990;-74.5200;-71.4500;-3.0700
1380.3980;-74.6400;-71.7300;-2.9100
1380.5970;-75.4600;-72.3200;-3.1400
1380.7970;-75.3100;-72.8500;-2.4600
1380.9960;-75.8100;-72.8900;-2.9200
1381.1950;-75.6900;-72.9500;-2.7400
1381.3940;-75.5400;-72.7500;-2.7900
1381.5930;-75.5000;-72.4600;-3.0400
1381.7920;-75.9600;-72.6100;-3.3500
1381.9910;-76.2400;-72.7200;-3.5200
1382.1900;-76.2700;-72.7500;-3.5200
1382.3890;-77.0300;-73.4100;-3.6200
1382.5890;-78.0500;-73.4600;-4.5900
1382.7880;-78.2200;-74.4200;-3.8000
1382.9870;-78.2200;-74.7300;-3.4900
1383.1860;-78.9400;-74.9500;-3.9900
1383.3850;-78.6700;-74.2800;-4.3900
1383.5840;-78.9400;-74.1500;-4.7900
1383.7830;-79.2100;-73.7600;-5.4500
1383.9820;-78.9700;-74.1100;-4.8600
1384.1810;-81.2600;-74.2600;-7.0000
1384.3810;-85.5000;-74.3000;-11.2000
1384.5800;-81.2700;-74.0300;-7.2400
1384.7790;-83.1600;-74.1000;-9.0600
1384.9780;-81.9900;-74.8900;-7.1000
1385.1770;-80.3500;-74.7000;-5.6500
1385.3760;-81.9300;-75.1300;-6.8000
1385.5750;-83.5700;-75.0800;-8.4900
1385.7740;-83.3200;-75.3000;-8.0200
1385.9740;-83.6600;-75.3000;-8.3600
1386.1730;-79.9900;-75.3000;-4.6900
1386.3720;-81.1100;-74.9700;-6.1400
1386.5710;-81.4700;-75.3200;-6.1500
1386.7700;-80.9200;-75.0900;-5.8300
1386.9690;-80.9700;-75.1400;-5.8300
1387.1680;-81.3200;-75.7600;-5.5600
1387.3670;-81.1100;-75.5900;-5.5200
1387.5660;-80.8700;-76.0100;-4.8600
1387.7660;-81.6900;-75.9100;-5.7800
1387.9650;-80.3100;-76.4800;-3.8300
1388.1640;-81.5300;-76.9800;-4.5500
1388.3630;-81.5300;-76.8100;-4.7200
1388.5620;-82.2300;-76.5500;-5.6800
1388.7610;-79.4200;-77.0200;-2.4000
1388.9600;-82.7100;-76.8100;-5.9000
1389.1590;-80.8700;-76.3100;-4.5600
1389.3580;-80.2300;-76.5800;-3.6500
1389.5580;-80.9200;-76.6900;-4.2300
1389.7570;-80.0700;-77.7000;-2.3700
1389.9560;-81.4700;-77.7000;-3.7700
1390.1550;-81.9300;-76.6900;-5.2400
1390.3540;-81.2100;-76.5600;-4.6500
1390.5530;-81.5300;-76.6500;-4.8800
1390.7520;-84.5400;-76.8900;-7.6500
1390.9510;-83.7500;-76.6500;-7.1000
1391.1500;-83.9300;-78.2300;-5.7000
1391.3500;-82.2300;-76.9400;-5.2900
1391.5490;-81.7000;-77.5600;-4.1400
1391.7480;-81.1200;-77.1100;-4.0100
1391.9470;-84.4400;-77.0300;-7.4100
1392.1460;-85.2500;-77.1800;-8.0700
1392.3450;-84.0400;-77.4700;-6.5700
1392.5440;-81.1700;-78.4200;-2.7500
1392.7430;-82.2400;-79.2700;-2.9700
1392.9430;-83.6700;-78.4700;-5.2000
1393.1420;-85.5200;-77.7100;-7.8100
1393.3410;-83.0100;-77.8300;-5.1800
1393.5400;-83.3300;-77.7400;-5.5900
1393.7390;-83.3300;-77.4900;-5.8400
1393.9380;-86.1000;-78.6400;-7.4600
1394.1370;-86.5900;-78.6700;-7.9200
1394.3360;-84.1300;-78.6900;-5.4400
1394.5350;-82.1800;-78.3200;-3.8600
1394.7350;-81.0300;-77.3900;-3.6400
1394.9340;-87.3500;-78.1600;-9.1900
1395.1330;-87.1500;-78.2600;-8.8900
1395.3320;-85.0100;-78.8400;-6.1700
1395.5310;-84.5500;-79.2300;-5.3200
1395.7300;-83.4100;-78.9900;-4.4200
1395.9290;-88.2600;-78.3200;-9.9400
1396.1280;-81.7000;-77.9700;-3.7300
1396.3270;-84.3400;-77.6200;-6.7200
1396.5270;-82.8600;-78.4200;-4.4400
1396.7260;-81.2800;-79.5000;-1.7800
1396.9250;-84.3400;-79.7100;-4.6300
1397.1240;-81.1200;-79.3600;-1.7600
1397.3230;-82.7900;-79.4300;-3.3600
1397.5220;-81.5400;-79.1700;-2.3700
1397.7210;-87.5600;-78.9900;-8.5700
1397.9200;-84.3400;-78.3900;-5.9500
1398.1200;-82.0000;-77.4300;-4.5700
1398.3190;-81.7000;-77.8700;-3.8300
1398.5180;-83.4200;-79.0000;-4.4200
1398.7170;-84.3500;-78.3800;-5.9700
1398.9160;-81.7100;-78.3500;-3.3600
1399.1150;-80.9900;-78.6500;-2.3400
1399.3140;-80.7600;-79.2100;-1.5500
1399.5130;-81.5500;-78.3800;-3.1700
1399.7120;-81.9500;-79.8600;-2.0900
1399.9120;-81.3400;-80.3300;-1.0100
1400.1110;-82.2500;-80.0100;-2.2400
1400.3100;-82.3200;-78.5400;-3.7800
1400.5090;-82.7300;-79.0000;-3.7300
1400.7080;-82.5200;-78.7000;-3.8200
1400.9070;-84.9000;-79.6100;-5.2900
1401.1060;-84.5600;-78.0300;-6.5300
1401.3050;-86.7800;-79.8600;-6.9200
1401.5040;-85.5300;-79.0600;-6.4700
1401.7040;-82.5200;-79.6800;-2.8400
1401.9030;-82.8700;-80.4100;-2.4600
1402.1020;-81.3400;-80.0900;-1.2500
1402.3010;-83.2600;-80.4900;-2.7700
1402.5000;-82.4500;-78.1500;-4.3000
1402.6990;-83.9500;-79.9000;-4.0500
1402.8980;-84.0500;-78.7600;-5.2900
1403.0970;-83.5900;-78.4800;-5.1100
1403.2970;-84.0500;-79.0300;-5.0200
1403.4960;-90.5800;-79.9300;-10.6500
1403.6950;-82.8000;-79.0000;-3.8000
1403.8940;-82.8000;-79.7200;-3.0800
1404.0930;-85.0200;-79.5100;-5.5100
1404.2920;-84.2400;-80.7100;-3.5300
1404.4910;-83.1800;-78.5400;-4.6400
1404.6900;-82.2500;-79.6500;-2.6000
1404.8890;-86.2700;-78.4800;-7.7900
1405.0890;-84.1400;-81.1800;-2.9600
1405.2880;-80.5800;-79.9000;-0.6800
1405.4870;-82.9500;-80.0500;-2.9000
1405.6860;-82.2500;-79.7200;-2.5300
1405.8850;-82.5200;-78.6500;-3.8700
1406.0840;-83.5900;-78.9700;-4.6200
1406.2830;-82.8700;-79.0600;-3.8100
1406.4820;-85.0200;-79.2100;-5.8100
1406.6810;-82.0200;-79.3500;-2.6700
1406.8810;-86.9700;-78.9200;-8.0500
1407.0800;-81.0500;-78.3600;-2.6900
1407.2790;-83.1100;-80.1000;-3.0100
1407.4780;-81.3500;-80.9500;-0.4000
1407.6770;-82.4600;-79.2500;-3.2100
1407.8760;-82.3900;-79.5200;-2.8700
1408.0750;-82.4600;-78.9500;-3.5100
1408.2740;-84.1500;-79.2500;-4.9000
1408.4740;-83.3500;-78.1300;-5.2200
1408.6730;-82.5300;-78.8300;-3.7000
1408.8720;-83.9600;-78.4400;-5.5200
1409.0710;-81.8400;-78.9200;-2.9200
1409.2700;-80.3400;-78.4400;-1.9000
1409.4690;-82.5300;-80.3800;-2.1500
1409.6680;-84.1500;-80.0200;-4.1300
1409.8670;-82.7400;-79.5200;-3.2200
1410.0660;-82.5300;-79.2200;-3.3100
1410.2660;-81.1000;-78.2600;-2.8400
1410.4650;-82.8100;-79.5200;-3.2900
1410.6640;-83.6900;-79.0100;-4.6800
1410.8630;-82.2600;-78.6900;-3.5700
1411.0620;-83.1900;-78.8000;-4.3900
1411.2610;-81.3500;-79.6600;-1.6900
1411.4600;-81.3500;-78.8000;-2.5500
1411.6590;-83.9600;-78.2600;-5.7000
1411.8580;-84.5700;-78.1300;-6.4400
1412.0580;-83.6000;-77.9600;-5.6400
1412.2570;-83.9600;-78.0900;-5.8700
1412.4560;-82.0200;-78.8600;-3.1600
1412.6550;-83.7800;-78.0400;-5.7400
1412.8540;-83.0300;-79.4800;-3.5500
1413.0530;-81.6700;-78.7100;-2.9600
1413.2520;-84.5700;-78.5500;-6.0200
1413.4510;-83.1100;-77.6700;-5.4400
1413.6500;-82.9700;-78.5000;-4.4700
1413.8500;-83.1200;-78.1700;-4.9500
1414.0490;-81.3600;-78.6700;-2.6900
1414.2480;-81.1500;-79.2600;-1.8900
1414.4470;-80.3500;-78.9900;-1.3600
1414.6460;-82.3400;-79.7400;-2.6000
1414.8450;-82.8900;-79.4600;-3.4300
1415.0440;-81.7300;-78.4500;-3.2800
1415.2430;-83.7000;-78.6700;-5.0300
1415.4430;-85.0400;-79.2300;-5.8100
1415.6420;-80.6900;-78.9000;-1.7900
1415.8410;-82.1500;-78.7200;-3.4300
1416.0400;-81.4600;-78.1400;-3.3200
1416.2390;-82.5400;-78.7200;-3.8200
1416.4380;-81.1500;-78.1900;-2.9600
1416.6370;-82.0300;-78.9000;-3.1300
1416.8360;-81.9100;-79.7000;-2.2100
1417.0350;-80.8700;-78.8400;-2.0300
1417.2350;-81.4600;-77.8800;-3.5800
1417.4340;-80.9600;-77.4600;-3.5000
1417.6330;-81.8500;-78.1200;-3.7300
1417.8320;-82.6800;-78.0000;-4.6800
1418.0310;-85.2800;-77.4200;-7.8600
1418.2300;-83.2800;-77.8100;-5.4700
1418.4290;-80.3900;-78.2400;-2.1500
1418.6280;-81.9100;-77.6800;-4.2300
1418.8270;-81.5100;-78.6100;-2.9000
1419.0270;-84.4700;-79.1400;-5.3300
1419.2260;-83.2000;-78.0500;-5.1500
1419.4250;-83.1200;-78.6700;-4.4500
1419.6240;-80.6000;-78.6100;-1.9900
1419.8230;-84.1600;-78.0500;-6.1100
1420.0220;-80.8700;-78.4500;-2.4200
1420.2210;-82.0300;-78.1000;-3.9300
1420.4200;-79.2600;-78.2400;-1.0200
1420.6200;-82.1500;-77.5500;-4.6000
1420.8190;-81.8500;-78.4800;-3.3700
1421.0180;-80.7800;-78.0200;-2.7600
1421.2170;-83.1200;-78.1000;-5.0200
1421.4160;-81.3100;-78.2200;-3.0900
1421.6150;-82.0400;-78.5700;-3.4700
1421.8140;-80.3200;-77.9400;-2.3800
1422.0130;-80.2400;-77.7800;-2.4600
1422.2120;-81.9800;-78.4600;-3.5200
1422.4120;-80.8800;-77.6900;-3.1900
1422.6110;-81.7400;-78.1500;-3.5900
1422.8100;-83.7100;-77.7100;-6.0000
1423.0090;-82.5500;-78.6200;-3.9300
1423.2080;-83.1300;-78.1100;-5.0200
1423.4070;-84.1700;-77.8700;-6.3000
1423.6060;-82.5500;-78.4600;-4.0900
1423.8050;-82.1000;-78.1100;-3.9900
1424.0040;-81.2100;-78.2000;-3.0100
1424.2040;-80.7000;-78.8200;-1.8800
1424.4030;-85.4200;-78.7900;-6.6300
1424.6020;-80.3200;-77.9600;-2.3600
1424.8010;-80.3600;-77.0900;-3.2700
1425.0000;-80.7900;-77.1900;-3.6000
