Wavelength;Intensity_Meas;Intensity_Ref;Difference_dB
1200.0000;-61.4100;-57.3300;-4.0800
1200.1990;-61.3700;-57.3100;-4.0600
1200.3980;-61.3100;-57.2900;-4.0200
1200.5970;-61.3100;-57.2600;-4.0500
1200.7970;-61.2800;-57.2100;-4.0700
1200.9960;-61.2400;-57.2000;-4.0400
1201.1950;-61.1800;-57.1800;-4.0000
1201.3940;-61.2000;-57.1100;-4.0900
1201.5930;-61.1900;-57.0700;-4.1200
1201.7920;-61.1900;-57.0200;-4.1700
1201.9910;-61.1600;-56.9800;-4.1800
1202.1900;-61.1300;-56.9500;-4.1800
1202.3890;-61.1500;-56.8700;-4.2800
1202.5890;-61.1500;-56.8000;-4.3500
1202.7880;-61.1400;-56.7800;-4.3600
1202.9870;-61.0700;-56.7300;-4.3400
1203.1860;-61.0900;-56.6800;-4.4100
1203.3850;-61.1200;-56.6000;-4.5200
1203.5840;-61.0500;-56.5700;-4.4800
1203.7830;-61.0400;-56.5400;-4.5000
1203.9820;-61.0400;-56.4900;-4.5500
1204.1810;-60.9900;-56.4500;-4.5400
1204.3810;-60.9500;-56.3900;-4.5600
1204.5800;-60.9300;-56.3900;-4.5400
1204.7790;-60.8900;-56.3700;-4.5200
1204.9780;-60.8700;-56.3100;-4.5600
1205.1770;-60.8200;-56.2800;-4.5400
1205.3760;-60.7800;-56.2700;-4.5100
1205.5750;-60.7500;-56.2500;-4.5000
1205.7740;-60.7200;-56.2300;-4.4900
1205.9740;-60.7000;-56.2100;-4.4900
1206.1730;-60.5800;-56.2000;-4.3800
1206.3720;-60.5600;-56.1800;-4.3800
1206.5710;-60.5400;-56.1600;-4.3800
1206.7700;-60.4700;-56.1400;-4.3300
1206.9690;-60.3700;-56.1000;-4.2700
1207.1680;-60.3000;-56.1000;-4.2000
1207.3670;-60.2700;-56.0800;-4.1900
1207.5660;-60.1900;-56.0200;-4.1700
1207.7660;-60.1000;-56.0100;-4.0900
1207.9650;-60.0100;-55.9800;-4.0300
1208.1640;-59.9600;-55.9400;-4.0200
1208.3630;-59.9300;-55.8900;-4.0400
1208.5620;-59.8700;-55.8600;-4.0100
1208.7610;-59.7700;-55.8300;-3.9400
1208.9600;-59.7100;-55.7800;-3.9300
1209.1590;-59.6900;-55.7300;-3.9600
1209.3580;-59.6500;-55.6600;-3.9900
1209.5580;-59.5700;-55.6200;-3.9500
1209.7570;-59.5200;-55.6000;-3.9200
1209.9560;-59.5000;-55.5300;-3.9700
1210.1550;-59.4600;-55.4600;-4.0000
1210.3540;-59.4000;-55.4200;-3.9800
1210.5530;-59.3600;-55.3900;-3.9700
1210.7520;-59.3400;-55.3400;-4.0000
1210.9510;-59.3300;-55.2800;-4.0500
1211.1500;-59.2700;-55.2400;-4.0300
1211.3500;-59.2200;-55.2000;-4.0200
1211.5490;-59.2300;-55.1800;-4.0500
1211.7480;-59.2100;-55.1500;-4.0600
1211.9470;-59.1700;-55.0800;-4.0900
1212.1460;-59.1200;-55.0700;-4.0500
1212.3450;-59.1300;-55.0500;-4.0800
1212.5440;-59.1400;-55.0100;-4.1300
1212.7430;-59.0900;-54.9800;-4.1100
1212.9430;-59.0500;-54.9500;-4.1000
1213.1420;-59.0300;-54.9200;-4.1100
1213.3410;-59.0600;-54.8900;-4.1700
1213.5400;-59.0400;-54.8700;-4.1700
1213.7390;-58.9800;-54.8500;-4.1300
1213.9380;-58.9700;-54.8000;-4.1700
1214.1370;-58.9600;-54.7900;-4.1700
1214.3360;-58.9600;-54.7300;-4.2300
1214.5350;-58.9000;-54.7000;-4.2000
1214.7350;-58.8800;-54.6800;-4.2000
1214.9340;-58.8900;-54.6300;-4.2600
1215.1330;-58.8600;-54.5800;-4.2800
1215.3320;-58.8200;-54.5300;-4.2900
1215.5310;-58.7700;-54.4900;-4.2800
1215.7300;-58.7700;-54.4500;-4.3200
1215.9290;-58.7500;-54.3900;-4.3600
1216.1280;-58.6800;-54.3300;-4.3500
1216.3270;-58.6400;-54.2600;-4.3800
1216.5270;-58.6300;-54.2300;-4.4000
1216.7260;-58.6100;-54.1800;-4.4300
1216.9250;-58.5500;-54.1000;-4.4500
1217.1240;-58.4800;-54.0500;-4.4300
1217.3230;-58.4700;-53.9900;-4.4800
1217.5220;-58.4500;-53.9400;-4.5100
1217.7210;-58.4000;-53.9000;-4.5000
1217.9200;-58.3300;-53.8400;-4.4900
1218.1200;-58.3100;-53.8000;-4.5100
1218.3190;-58.3000;-53.7500;-4.5500
1218.5180;-58.2700;-53.7100;-4.5600
1218.7170;-58.2100;-53.6600;-4.5500
1218.9160;-58.1700;-53.6300;-4.5400
1219.1150;-58.1400;-53.6100;-4.5300
1219.3140;-58.1100;-53.5500;-4.5600
1219.5130;-58.0600;-53.5300;-4.5300
1219.7120;-58.0000;-53.5100;-4.4900
1219.9120;-57.9900;-53.4600;-4.5300
1220.1110;-57.9500;-53.4300;-4.5200
1220.3100;-57.8700;-53.3900;-4.4800
1220.5090;-57.8000;-53.3500;-4.4500
1220.7080;-57.7600;-53.3300;-4.4300
1220.9070;-57.7000;-53.2800;-4.4200
1221.1060;-57.5800;-53.2200;-4.3600
1221.3050;-57.5100;-53.1900;-4.3200
1221.5040;-57.4400;-53.1400;-4.3000
1221.7040;-57.3700;-53.0800;-4.2900
1221.9030;-57.2500;-53.0300;-4.2200
1222.1020;-57.1400;-52.9700;-4.1700
1222.3010;-57.0600;-52.9100;-4.1500
1222.5000;-56.9700;-52.8400;-4.1300
1222.6990;-56.8500;-52.7900;-4.0600
1222.8980;-56.7400;-52.7100;-4.0300
1223.0970;-56.6400;-52.6500;-3.9900
1223.2970;-56.5900;-52.5800;-4.0100
1223.4960;-56.4500;-52.5000;-3.9500
1223.6950;-56.3400;-52.4500;-3.8900
1223.8940;-56.2700;-52.3800;-3.8900
1224.0930;-56.2000;-52.3100;-3.8900
1224.2920;-56.1200;-52.2400;-3.8800
1224.4910;-56.0100;-52.1800;-3.8300
1224.6900;-55.9600;-52.1300;-3.8300
1224.8890;-55.8900;-52.0500;-3.8400
1225.0890;-55.8000;-52.0100;-3.7900
1225.2880;-55.7300;-51.9300;-3.8000
1225.4870;-55.6700;-51.8700;-3.8000
1225.6860;-55.6500;-51.8400;-3.8100
1225.8850;-55.5700;-51.7800;-3.7900
1226.0840;-55.5100;-51.7300;-3.7800
1226.2830;-55.4800;-51.6800;-3.8000
1226.4820;-55.4500;-51.6200;-3.8300
1226.6810;-55.4200;-51.5900;-3.8300
1226.8810;-55.3800;-51.5400;-3.8400
1227.0800;-55.3800;-51.4800;-3.9000
1227.2790;-55.3800;-51.4400;-3.9400
1227.4780;-55.3700;-51.3800;-3.9900
1227.6770;-55.3800;-51.3400;-4.0400
1227.8760;-55.4100;-51.2700;-4.1400
1228.0750;-55.4500;-51.2200;-4.2300
1228.2740;-55.4800;-51.1500;-4.3300
1228.4740;-55.5100;-51.0800;-4.4300
1228.6730;-55.5800;-51.0300;-4.5500
1228.8720;-55.6300;-50.9500;-4.6800
1229.0710;-55.6500;-50.8900;-4.7600
1229.2700;-55.6900;-50.8100;-4.8800
1229.4690;-55.7200;-50.7200;-5.0000
1229.6680;-55.7500;-50.6700;-5.0800
1229.8670;-55.7400;-50.5700;-5.1700
1230.0660;-55.7200;-50.4900;-5.2300
1230.2660;-55.7000;-50.4100;-5.2900
1230.4650;-55.6300;-50.3300;-5.3000
1230.6640;-55.5500;-50.2600;-5.2900
1230.8630;-55.4600;-50.1800;-5.2800
1231.0620;-55.3700;-50.1100;-5.2600
1231.2610;-55.2800;-50.0500;-5.2300
1231.4600;-55.1200;-49.9800;-5.1400
1231.6590;-54.9800;-49.9300;-5.0500
1231.8580;-54.8100;-49.8500;-4.9600
1232.0580;-54.6400;-49.8100;-4.8300
1232.2570;-54.4500;-49.7400;-4.7100
1232.4560;-54.2600;-49.6800;-4.5800
1232.6550;-54.1000;-49.6400;-4.4600
1232.8540;-53.8900;-49.5700;-4.3200
1233.0530;-53.7000;-49.5300;-4.1700
1233.2520;-53.5400;-49.4600;-4.0800
1233.4510;-53.3700;-49.4100;-3.9600
1233.6500;-53.2400;-49.3700;-3.8700
1233.8500;-53.1000;-49.3000;-3.8000
1234.0490;-52.9900;-49.2500;-3.7400
1234.2480;-52.9100;-49.1800;-3.7300
1234.4470;-52.8400;-49.1200;-3.7200
1234.6460;-52.8000;-49.0600;-3.7400
1234.8450;-52.7700;-48.9900;-3.7800
1235.0440;-52.7700;-48.9300;-3.8400
1235.2430;-52.7800;-48.8400;-3.9400
1235.4430;-52.7900;-48.7600;-4.0300
1235.6420;-52.8400;-48.6900;-4.1500
1235.8410;-52.8600;-48.6000;-4.2600
1236.0400;-52.8900;-48.5300;-4.3600
1236.2390;-52.9200;-48.4200;-4.5000
1236.4380;-52.9400;-48.3300;-4.6100
1236.6370;-52.9800;-48.2500;-4.7300
1236.8360;-52.9500;-48.1500;-4.8000
1237.0350;-52.9200;-48.0800;-4.8400
1237.2350;-52.8800;-47.9900;-4.8900
1237.4340;-52.8200;-47.9000;-4.9200
1237.6330;-52.7500;-47.8100;-4.9400
1237.8320;-52.6500;-47.7400;-4.9100
1238.0310;-52.5500;-47.6600;-4.8900
1238.2300;-52.4400;-47.5700;-4.8700
1238.4290;-52.3000;-47.5000;-4.8000
1238.6280;-52.1900;-47.4200;-4.7700
1238.8270;-52.0500;-47.3400;-4.7100
1239.0270;-51.9200;-47.2700;-4.6500
1239.2260;-51.7800;-47.1800;-4.6000
1239.4250;-51.6600;-47.1100;-4.5500
1239.6240;-51.5700;-47.0300;-4.5400
1239.8230;-51.4400;-46.9400;-4.5000
1240.0220;-51.3500;-46.8700;-4.4800
1240.2210;-51.2700;-46.7700;-4.5000
1240.4200;-51.1900;-46.6900;-4.5000
1240.6200;-51.1300;-46.5900;-4.5400
1240.8190;-51.0500;-46.4900;-4.5600
1241.0180;-51.0000;-46.3800;-4.6200
1241.2170;-50.9400;-46.2700;-4.6700
1241.4160;-50.8600;-46.1700;-4.6900
1241.6150;-50.7900;-46.0300;-4.7600
1241.8140;-50.7100;-45.9100;-4.8000
1242.0130;-50.6200;-45.8000;-4.8200
1242.2120;-50.4900;-45.6900;-4.8000
1242.4120;-50.3700;-45.5600;-4.8100
1242.6110;-50.2300;-45.4200;-4.8100
1242.8100;-50.0500;-45.3100;-4.7400
1243.0090;-49.8700;-45.1700;-4.7000
1243.2080;-49.6800;-45.0500;-4.6300
1243.4070;-49.4800;-44.9200;-4.5600
1243.6060;-49.2700;-44.7900;-4.4800
1243.8050;-49.0500;-44.6800;-4.3700
1244.0040;-48.8600;-44.5400;-4.3200
1244.2040;-48.6600;-44.4100;-4.2500
1244.4030;-48.4700;-44.2900;-4.1800
1244.6020;-48.3100;-44.1600;-4.1500
1244.8010;-48.1600;-44.0500;-4.1100
1245.0000;-48.0200;-43.9100;-4.1100
1245.1990;-47.8800;-43.7900;-4.0900
1245.3980;-47.7800;-43.6700;-4.1100
1245.5970;-47.6800;-43.5300;-4.1500
1245.7970;-47.5600;-43.4100;-4.1500
1245.9960;-47.4600;-43.2600;-4.2000
1246.1950;-47.3600;-43.1400;-4.2200
1246.3940;-47.2500;-43.0000;-4.2500
1246.5930;-47.1200;-42.8500;-4.2700
1246.7920;-46.9800;-42.7300;-4.2500
1246.9910;-46.8300;-42.5600;-4.2700
1247.1900;-46.6300;-42.4200;-4.2100
1247.3890;-46.4100;-42.2700;-4.1400
1247.5890;-46.1900;-42.1100;-4.0800
1247.7880;-45.9300;-41.9700;-3.9600
1247.9870;-45.6000;-41.8000;-3.8000
1248.1860;-45.3600;-41.6500;-3.7100
1248.3850;-45.0800;-41.5000;-3.5800
1248.5840;-44.7600;-41.3300;-3.4300
1248.7830;-44.4600;-41.1800;-3.2800
1248.9820;-44.1800;-41.0200;-3.1600
1249.1810;-43.8900;-40.8700;-3.0200
1249.3810;-43.6300;-40.7200;-2.9100
1249.5800;-43.3500;-40.5600;-2.7900
1249.7790;-43.1200;-40.4200;-2.7000
1249.9780;-42.9000;-40.2500;-2.6500
1250.1770;-42.6900;-40.1100;-2.5800
1250.3760;-42.5200;-39.9700;-2.5500
1250.5750;-42.3500;-39.8100;-2.5400
1250.7740;-42.1900;-39.6700;-2.5200
1250.9740;-42.0700;-39.5200;-2.5500
1251.1730;-41.9600;-39.3800;-2.5800
1251.3720;-41.8600;-39.2300;-2.6300
1251.5710;-41.7600;-39.0900;-2.6700
1251.7700;-41.6700;-38.9500;-2.7200
1251.9690;-41.6000;-38.7900;-2.8100
1252.1680;-41.5100;-38.6400;-2.8700
1252.3670;-41.4400;-38.4700;-2.9700
1252.5660;-41.3700;-38.3200;-3.0500
1252.7660;-41.2900;-38.1700;-3.1200
1252.9650;-41.2300;-38.0100;-3.2200
1253.1640;-41.1500;-37.8500;-3.3000
1253.3630;-41.0900;-37.6800;-3.4100
1253.5620;-41.0000;-37.5200;-3.4800
1253.7610;-40.9300;-37.3500;-3.5800
1253.9600;-40.8800;-37.1900;-3.6900
1254.1590;-40.8000;-37.0300;-3.7700
1254.3580;-40.7500;-36.8500;-3.9000
1254.5580;-40.6900;-36.7000;-3.9900
1254.7570;-40.6500;-36.5400;-4.1100
1254.9560;-40.6000;-36.3700;-4.2300
1255.1550;-40.5600;-36.2300;-4.3300
1255.3540;-40.5400;-36.0600;-4.4800
1255.5530;-40.5000;-35.9200;-4.5800
1255.7520;-40.4700;-35.7400;-4.7300
1255.9510;-40.4300;-35.6300;-4.8000
1256.1500;-40.3900;-35.4900;-4.9000
1256.3500;-40.3300;-35.3400;-4.9900
1256.5490;-40.2600;-35.2200;-5.0400
1256.7480;-40.1700;-35.0700;-5.1000
1256.9470;-40.0500;-34.9400;-5.1100
1257.1460;-39.9000;-34.8000;-5.1000
1257.3450;-39.7500;-34.6600;-5.0900
1257.5440;-39.5600;-34.5400;-5.0200
1257.7430;-39.3500;-34.3900;-4.9600
1257.9430;-39.1000;-34.2500;-4.8500
1258.1420;-38.8500;-34.1200;-4.7300
1258.3410;-38.5800;-33.9700;-4.6100
1258.5400;-38.2900;-33.8400;-4.4500
1258.7390;-38.0000;-33.6800;-4.3200
1258.9380;-37.6900;-33.5400;-4.1500
1259.1370;-37.3900;-33.3900;-4.0000
1259.3360;-37.0900;-33.2400;-3.8500
1259.5350;-36.8000;-33.1000;-3.7000
1259.7350;-36.5100;-32.9400;-3.5700
1259.9340;-36.2100;-32.8000;-3.4100
1260.1330;-35.9100;-32.6500;-3.2600
1260.3320;-35.6800;-32.4900;-3.1900
1260.5310;-35.4300;-32.3600;-3.0700
1260.7300;-35.1900;-32.2000;-2.9900
1260.9290;-34.9600;-32.0700;-2.8900
1261.1280;-34.7500;-31.9200;-2.8300
1261.3270;-34.5400;-31.7700;-2.7700
1261.5270;-34.3600;-31.6500;-2.7100
1261.7260;-34.1900;-31.5100;-2.6800
1261.9250;-34.0200;-31.3800;-2.6400
1262.1240;-33.8800;-31.2400;-2.6400
1262.3230;-33.7300;-31.1100;-2.6200
1262.5220;-33.6100;-31.0000;-2.6100
1262.7210;-33.5000;-30.8600;-2.6400
1262.9200;-33.3900;-30.7400;-2.6500
1263.1200;-33.3100;-30.6000;-2.7100
1263.3190;-33.2200;-30.4700;-2.7500
1263.5180;-33.1600;-30.3600;-2.8000
1263.7170;-33.0900;-30.2100;-2.8800
1263.9160;-33.0400;-30.0900;-2.9500
1264.1150;-33.0000;-29.9500;-3.0500
1264.3140;-32.9400;-29.8100;-3.1300
1264.5130;-32.9200;-29.6900;-3.2300
1264.7120;-32.8900;-29.5500;-3.3400
1264.9120;-32.8600;-29.4200;-3.4400
1265.1110;-32.8500;-29.2700;-3.5800
1265.3100;-32.8100;-29.1400;-3.6700
1265.5090;-32.8100;-29.0100;-3.8000
1265.7080;-32.7900;-28.8700;-3.9200
1265.9070;-32.7800;-28.7500;-4.0300
1266.1060;-32.7700;-28.6100;-4.1600
1266.3050;-32.7500;-28.4800;-4.2700
1266.5040;-32.7600;-28.3700;-4.3900
1266.7040;-32.7500;-28.2400;-4.5100
1266.9030;-32.7500;-28.1200;-4.6300
1267.1020;-32.7600;-27.9900;-4.7700
1267.3010;-32.7600;-27.8700;-4.8900
1267.5000;-32.7900;-27.7700;-5.0200
1267.6990;-32.8100;-27.6500;-5.1600
1267.8980;-32.8300;-27.5500;-5.2800
1268.0970;-32.9000;-27.4300;-5.4700
1268.2970;-32.9400;-27.3200;-5.6200
1268.4960;-33.0400;-27.2200;-5.8200
1268.6950;-33.1400;-27.1000;-6.0400
1268.8940;-33.2500;-27.0000;-6.2500
1269.0930;-33.4100;-26.8800;-6.5300
1269.2920;-33.5900;-26.7700;-6.8200
1269.4910;-33.8200;-26.6600;-7.1600
1269.6900;-34.0700;-26.5400;-7.5300
1269.8890;-34.3700;-26.4400;-7.9300
1270.0890;-34.7300;-26.3100;-8.4200
1270.2880;-35.1400;-26.2000;-8.9400
1270.4870;-35.6300;-26.0700;-9.5600
1270.6860;-36.1900;-25.9700;-10.2200
1270.8850;-36.8300;-25.8500;-10.9800
1271.0840;-37.5700;-25.7300;-11.8400
1271.2830;-38.5400;-25.6300;-12.9100
1271.4820;-39.2800;-25.5000;-13.7800
1271.6810;-40.1500;-25.3900;-14.7600
1271.8810;-40.9100;-25.2800;-15.6300
1272.0800;-41.2900;-25.1700;-16.1200
1272.2790;-41.1200;-25.0600;-16.0600
1272.4780;-40.3800;-24.9500;-15.4300
1272.6770;-39.2100;-24.8500;-14.3600
1272.8760;-37.9000;-24.7400;-13.1600
1273.0750;-36.5400;-24.6500;-11.8900
1273.2740;-35.0800;-24.5600;-10.5200
1273.4740;-34.0700;-24.4500;-9.6200
1273.6730;-32.9900;-24.3700;-8.6200
1273.8720;-32.0100;-24.2700;-7.7400
1274.0710;-31.1000;-24.1800;-6.9200
1274.2700;-30.2900;-24.0900;-6.2000
1274.4690;-29.5300;-23.9900;-5.5400
1274.6680;-28.8600;-23.9100;-4.9500
1274.8670;-28.2300;-23.8100;-4.4200
1275.0660;-27.6700;-23.7200;-3.9500
1275.2660;-27.1800;-23.6400;-3.5400
1275.4650;-26.7100;-23.5400;-3.1700
1275.6640;-26.3000;-23.4600;-2.8400
1275.8630;-25.8800;-23.3600;-2.5200
1276.0620;-25.6100;-23.2700;-2.3400
1276.2610;-25.3300;-23.1800;-2.1500
1276.4600;-25.0800;-23.0900;-1.9900
1276.6590;-24.8700;-23.0000;-1.8700
1276.8580;-24.6800;-22.9000;-1.7800
1277.0580;-24.5300;-22.8200;-1.7100
1277.2570;-24.4100;-22.7300;-1.6800
1277.4560;-24.3100;-22.6400;-1.6700
1277.6550;-24.2400;-22.5700;-1.6700
1277.8540;-24.1800;-22.4700;-1.7100
1278.0530;-24.1500;-22.4000;-1.7500
1278.2520;-24.1100;-22.3100;-1.8000
1278.4510;-24.0900;-22.2300;-1.8600
1278.6500;-24.0900;-22.1600;-1.9300
1278.8500;-24.0700;-22.0700;-2.0000
1279.0490;-24.0600;-22.0000;-2.0600
1279.2480;-24.0300;-21.9200;-2.1100
1279.4470;-24.0000;-21.8400;-2.1600
1279.6460;-23.9600;-21.7700;-2.1900
1279.8450;-23.9000;-21.6800;-2.2200
1280.0440;-23.8400;-21.6200;-2.2200
1280.2430;-23.7400;-21.5400;-2.2000
1280.4430;-23.6500;-21.4600;-2.1900
1280.6420;-23.5400;-21.3900;-2.1500
1280.8410;-23.4100;-21.3100;-2.1000
1281.0400;-23.3000;-21.2400;-2.0600
1281.2390;-23.1500;-21.1600;-1.9900
1281.4380;-23.0300;-21.0800;-1.9500
1281.6370;-22.9000;-21.0100;-1.8900
1281.8360;-22.7800;-20.9300;-1.8500
1282.0350;-22.6900;-20.8700;-1.8200
1282.2350;-22.5800;-20.7800;-1.8000
1282.4340;-22.5100;-20.7100;-1.8000
1282.6330;-22.4500;-20.6500;-1.8000
1282.8320;-22.4000;-20.5800;-1.8200
1283.0310;-22.3900;-20.5200;-1.8700
1283.2300;-22.3800;-20.4500;-1.9300
1283.4290;-22.4100;-20.3900;-2.0200
1283.6280;-22.4400;-20.3200;-2.1200
1283.8270;-22.5100;-20.2600;-2.2500
1284.0270;-22.6100;-20.2100;-2.4000
1284.2260;-22.7100;-20.1400;-2.5700
1284.4250;-22.8500;-20.0900;-2.7600
1284.6240;-23.0000;-20.0300;-2.9700
1284.8230;-23.1800;-19.9700;-3.2100
1285.0220;-23.3900;-19.9300;-3.4600
1285.2210;-23.6000;-19.8600;-3.7400
1285.4200;-23.8600;-19.8100;-4.0500
1285.6200;-24.1200;-19.7500;-4.3700
1285.8190;-24.4000;-19.6900;-4.7100
1286.0180;-24.7200;-19.6500;-5.0700
1286.2170;-25.0300;-19.5800;-5.4500
1286.4160;-25.3900;-19.5400;-5.8500
1286.6150;-25.7500;-19.4900;-6.2600
1286.8140;-26.1100;-19.4300;-6.6800
1287.0130;-26.4800;-19.3900;-7.0900
1287.2120;-26.8300;-19.3300;-7.5000
1287.4120;-27.1600;-19.2900;-7.8700
1287.6110;-27.4400;-19.2300;-8.2100
1287.8100;-27.6400;-19.1800;-8.4600
1288.0090;-27.7600;-19.1400;-8.6200
1288.2080;-27.7600;-19.0800;-8.6800
1288.4070;-27.6500;-19.0500;-8.6000
1288.6060;-27.4100;-19.0000;-8.4100
1288.8050;-27.0700;-18.9600;-8.1100
1289.0040;-26.6400;-18.9200;-7.7200
1289.2040;-26.1400;-18.8700;-7.2700
1289.4030;-25.6200;-18.8500;-6.7700
1289.6020;-25.0600;-18.8000;-6.2600
1289.8010;-24.5200;-18.7600;-5.7600
1290.0000;-23.9700;-18.7200;-5.2500
1290.1990;-23.4300;-18.6800;-4.7500
1290.3980;-22.9400;-18.6600;-4.2800
1290.5970;-22.4600;-18.6200;-3.8400
1290.7970;-22.0100;-18.5900;-3.4200
1290.9960;-21.5700;-18.5300;-3.0400
1291.1950;-21.1800;-18.5000;-2.6800
1291.3940;-20.8300;-18.4700;-2.3600
1291.5930;-20.5000;-18.4100;-2.0900
1291.7920;-20.2200;-18.3900;-1.8300
1291.9910;-19.9600;-18.3400;-1.6200
1292.1900;-19.7400;-18.3100;-1.4300
1292.3890;-19.5500;-18.2700;-1.2800
1292.5890;-19.3800;-18.2200;-1.1600
1292.7880;-19.2600;-18.2000;-1.0600
1292.9870;-19.1500;-18.1500;-1.0000
1293.1860;-19.0900;-18.1300;-0.9600
1293.3850;-19.0500;-18.0900;-0.9600
1293.5840;-19.0300;-18.0500;-0.9800
1293.7830;-19.0600;-18.0200;-1.0400
1293.9820;-19.1000;-17.9900;-1.1100
1294.1810;-19.1900;-17.9700;-1.2200
1294.3810;-19.2900;-17.9300;-1.3600
1294.5800;-19.4100;-17.8900;-1.5200
1294.7790;-19.5800;-17.8700;-1.7100
1294.9780;-19.7600;-17.8400;-1.9200
1295.1770;-20.0000;-17.8200;-2.1800
1295.3760;-20.2300;-17.7900;-2.4400
1295.5750;-20.5000;-17.7600;-2.7400
1295.7740;-20.7900;-17.7300;-3.0600
1295.9740;-21.1000;-17.6900;-3.4100
1296.1730;-21.4600;-17.6800;-3.7800
1296.3720;-21.8200;-17.6500;-4.1700
1296.5710;-22.2100;-17.6300;-4.5800
1296.7700;-22.5900;-17.6000;-4.9900
1296.9690;-22.9900;-17.5800;-5.4100
1297.1680;-23.3900;-17.5700;-5.8200
1297.3670;-23.7600;-17.5500;-6.2100
1297.5660;-24.1200;-17.5300;-6.5900
1297.7660;-24.4300;-17.5100;-6.9200
1297.9650;-24.6900;-17.4900;-7.2000
1298.1640;-24.8800;-17.4800;-7.4000
1298.3630;-24.9900;-17.4700;-7.5200
1298.5620;-25.0100;-17.4600;-7.5500
1298.7610;-24.9400;-17.4400;-7.5000
1298.9600;-24.8000;-17.4400;-7.3600
1299.1590;-24.5800;-17.4300;-7.1500
1299.3580;-24.3100;-17.4200;-6.8900
1299.5580;-23.9900;-17.4200;-6.5700
1299.7570;-23.6300;-17.4100;-6.2200
1299.9560;-23.2800;-17.4100;-5.8700
1300.1550;-22.9100;-17.4000;-5.5100
1300.3540;-22.5400;-17.4000;-5.1400
1300.5530;-22.1800;-17.4000;-4.7800
1300.7520;-21.8200;-17.3900;-4.4300
1300.9510;-21.5000;-17.4000;-4.1000
1301.1500;-21.1900;-17.4000;-3.7900
1301.3500;-20.8900;-17.4000;-3.4900
1301.5490;-20.6200;-17.4100;-3.2100
1301.7480;-20.3600;-17.4100;-2.9500
1301.9470;-20.1300;-17.4200;-2.7100
1302.1460;-19.9000;-17.4200;-2.4800
1302.3450;-19.7100;-17.4300;-2.2800
1302.5440;-19.5200;-17.4300;-2.0900
1302.7430;-19.3500;-17.4300;-1.9200
1302.9430;-19.2000;-17.4400;-1.7600
1303.1420;-19.0700;-17.4400;-1.6300
1303.3410;-18.9600;-17.4600;-1.5000
1303.5400;-18.8500;-17.4600;-1.3900
1303.7390;-18.7600;-17.4600;-1.3000
1303.9380;-18.6900;-17.4700;-1.2200
1304.1370;-18.6300;-17.4800;-1.1500
1304.3360;-18.6000;-17.5000;-1.1000
1304.5350;-18.5600;-17.5000;-1.0600
1304.7350;-18.5500;-17.5100;-1.0400
1304.9340;-18.5300;-17.5200;-1.0100
1305.1330;-18.5400;-17.5300;-1.0100
1305.3320;-18.5600;-17.5500;-1.0100
1305.5310;-18.6000;-17.5600;-1.0400
1305.7300;-18.6500;-17.5800;-1.0700
1305.9290;-18.6900;-17.5800;-1.1100
1306.1280;-18.7600;-17.6000;-1.1600
1306.3270;-18.8400;-17.6100;-1.2300
1306.5270;-18.9300;-17.6300;-1.3000
1306.7260;-19.0400;-17.6500;-1.3900
1306.9250;-19.1400;-17.6500;-1.4900
1307.1240;-19.2800;-17.6800;-1.6000
1307.3230;-19.4100;-17.6900;-1.7200
1307.5220;-19.5600;-17.7100;-1.8500
1307.7210;-19.7300;-17.7400;-1.9900
1307.9200;-19.8900;-17.7500;-2.1400
1308.1200;-20.0900;-17.7900;-2.3000
1308.3190;-20.2900;-17.8000;-2.4900
1308.5180;-20.5100;-17.8400;-2.6700
1308.7170;-20.7300;-17.8800;-2.8500
1308.9160;-20.9600;-17.8900;-3.0700
1309.1150;-21.2300;-17.9400;-3.2900
1309.3140;-21.4700;-17.9600;-3.5100
1309.5130;-21.7500;-18.0100;-3.7400
1309.7120;-22.0200;-18.0500;-3.9700
1309.9120;-22.2900;-18.0700;-4.2200
1310.1110;-22.5800;-18.1300;-4.4500
1310.3100;-22.8400;-18.1600;-4.6800
1310.5090;-23.1100;-18.2100;-4.9000
1310.7080;-23.3600;-18.2500;-5.1100
1310.9070;-23.5900;-18.2900;-5.3000
1311.1060;-23.8100;-18.3500;-5.4600
1311.3050;-23.9700;-18.3800;-5.5900
1311.5040;-24.1300;-18.4500;-5.6800
1311.7040;-24.2100;-18.4800;-5.7300
1311.9030;-24.2600;-18.5300;-5.7300
1312.1020;-24.2600;-18.5800;-5.6800
1312.3010;-24.2100;-18.6300;-5.5800
1312.5000;-24.1500;-18.7000;-5.4500
1312.6990;-24.0300;-18.7400;-5.2900
1312.8980;-23.8900;-18.8000;-5.0900
1313.0970;-23.7200;-18.8500;-4.8700
1313.2970;-23.5300;-18.9000;-4.6300
1313.4960;-23.3500;-18.9800;-4.3700
1313.6950;-23.1400;-19.0300;-4.1100
1313.8940;-22.9600;-19.0900;-3.8700
1314.0930;-22.7500;-19.1400;-3.6100
1314.2920;-22.5700;-19.2000;-3.3700
1314.4910;-22.4000;-19.2700;-3.1300
1314.6900;-22.2200;-19.3200;-2.9000
1314.8890;-22.0700;-19.3800;-2.6900
1315.0890;-21.9200;-19.4300;-2.4900
1315.2880;-21.8100;-19.5000;-2.3100
1315.4870;-21.7000;-19.5500;-2.1500
1315.6860;-21.6000;-19.6100;-1.9900
1315.8850;-21.5200;-19.6700;-1.8500
1316.0840;-21.4500;-19.7300;-1.7200
1316.2830;-21.4100;-19.8000;-1.6100
1316.4820;-21.3800;-19.8500;-1.5300
1316.6810;-21.3600;-19.9200;-1.4400
1316.8810;-21.3500;-19.9800;-1.3700
1317.0800;-21.3700;-20.0500;-1.3200
1317.2790;-21.4000;-20.1200;-1.2800
1317.4780;-21.4300;-20.1900;-1.2400
1317.6770;-21.4900;-20.2600;-1.2300
1317.8760;-21.5400;-20.3200;-1.2200
1318.0750;-21.6100;-20.3900;-1.2200
1318.2740;-21.6800;-20.4600;-1.2200
1318.4740;-21.7700;-20.5300;-1.2400
1318.6730;-21.8800;-20.6200;-1.2600
1318.8720;-21.9700;-20.6800;-1.2900
1319.0710;-22.1100;-20.7800;-1.3300
1319.2700;-22.2100;-20.8500;-1.3600
1319.4690;-22.3300;-20.9300;-1.4000
1319.6680;-22.4700;-21.0200;-1.4500
1319.8670;-22.6000;-21.1000;-1.5000
1320.0660;-22.7500;-21.2000;-1.5500
1320.2660;-22.8800;-21.2800;-1.6000
1320.4650;-23.0300;-21.3700;-1.6600
1320.6640;-23.1700;-21.4700;-1.7000
1320.8630;-23.3000;-21.5600;-1.7400
1321.0620;-23.4500;-21.6600;-1.7900
1321.2610;-23.5900;-21.7500;-1.8400
1321.4600;-23.7400;-21.8600;-1.8800
1321.6590;-23.8600;-21.9500;-1.9100
1321.8580;-24.0000;-22.0500;-1.9500
1322.0580;-24.1200;-22.1600;-1.9600
1322.2570;-24.2400;-22.2600;-1.9800
1322.4560;-24.3700;-22.3700;-2.0000
1322.6550;-24.4700;-22.4700;-2.0000
1322.8540;-24.6000;-22.5900;-2.0100
1323.0530;-24.6900;-22.6900;-2.0000
1323.2520;-24.8000;-22.8100;-1.9900
1323.4510;-24.9000;-22.9200;-1.9800
1323.6500;-24.9900;-23.0300;-1.9600
1323.8500;-25.1000;-23.1600;-1.9400
1324.0490;-25.1800;-23.2700;-1.9100
1324.2480;-25.2700;-23.4000;-1.8700
1324.4470;-25.3500;-23.5100;-1.8400
1324.6460;-25.4300;-23.6300;-1.8000
1324.8450;-25.5100;-23.7600;-1.7500
1325.0440;-25.5800;-23.8700;-1.7100
1325.2430;-25.6900;-24.0100;-1.6800
1325.4430;-25.7600;-24.1200;-1.6400
1325.6420;-25.8600;-24.2600;-1.6000
1325.8410;-25.9300;-24.3900;-1.5400
1326.0400;-26.0100;-24.5200;-1.4900
1326.2390;-26.1100;-24.6500;-1.4600
1326.4380;-26.1900;-24.7800;-1.4100
1326.6370;-26.2900;-24.9100;-1.3800
1326.8360;-26.3700;-25.0400;-1.3300
1327.0350;-26.4800;-25.1800;-1.3000
1327.2350;-26.5800;-25.3200;-1.2600
1327.4340;-26.6800;-25.4500;-1.2300
1327.6330;-26.8000;-25.6000;-1.2000
1327.8320;-26.9000;-25.7200;-1.1800
1328.0310;-27.0300;-25.8700;-1.1600
1328.2300;-27.1500;-26.0100;-1.1400
1328.4290;-27.2800;-26.1500;-1.1300
1328.6280;-27.4100;-26.3000;-1.1100
1328.8270;-27.5500;-26.4400;-1.1100
1329.0270;-27.7000;-26.6000;-1.1000
1329.2260;-27.8400;-26.7300;-1.1100
1329.4250;-28.0000;-26.8900;-1.1100
1329.6240;-28.1500;-27.0300;-1.1200
1329.8230;-28.3100;-27.1700;-1.1400
1330.0220;-28.5300;-27.3300;-1.2000
1330.2210;-28.6800;-27.4700;-1.2100
1330.4200;-28.8700;-27.6300;-1.2400
1330.6200;-29.0700;-27.7700;-1.3000
1330.8190;-29.2900;-27.9200;-1.3700
1331.0180;-29.5000;-28.0700;-1.4300
1331.2170;-29.7400;-28.2300;-1.5100
1331.4160;-29.9900;-28.3900;-1.6000
1331.6150;-30.2400;-28.5700;-1.6700
1331.8140;-30.5300;-28.7100;-1.8200
1332.0130;-30.8000;-28.8500;-1.9500
1332.2120;-31.1000;-29.0200;-2.0800
1332.4120;-31.4100;-29.1700;-2.2400
1332.6110;-31.7500;-29.3400;-2.4100
1332.8100;-32.1000;-29.5000;-2.6000
1333.0090;-32.4500;-29.6600;-2.7900
1333.2080;-32.8300;-29.8300;-3.0000
1333.4070;-33.2000;-29.9800;-3.2200
1333.6060;-33.6000;-30.1500;-3.4500
1333.8050;-34.0000;-30.3100;-3.6900
1334.0040;-34.4000;-30.4700;-3.9300
1334.2040;-34.8200;-30.6500;-4.1700
1334.4030;-35.2000;-30.8100;-4.3900
1334.6020;-35.5800;-30.9800;-4.6000
1334.8010;-35.9400;-31.1500;-4.7900
1335.0000;-36.2600;-31.3200;-4.9400
1335.1990;-36.5500;-31.4900;-5.0600
1335.3980;-36.7700;-31.6600;-5.1100
1335.5970;-36.9700;-31.8500;-5.1200
1335.7970;-37.0900;-32.0200;-5.0700
1335.9960;-37.1700;-32.2100;-4.9600
1336.1950;-37.1900;-32.3800;-4.8100
1336.3940;-37.1600;-32.5600;-4.6000
1336.5930;-37.1100;-32.7400;-4.3700
1336.7920;-37.0100;-32.9100;-4.1000
1336.9910;-36.9100;-33.1000;-3.8100
1337.1900;-36.8000;-33.2800;-3.5200
1337.3890;-36.6900;-33.4700;-3.2200
1337.5890;-36.6000;-33.6500;-2.9500
1337.7880;-36.5100;-33.8300;-2.6800
1337.9870;-36.4500;-34.0300;-2.4200
1338.1860;-36.3900;-34.2000;-2.1900
1338.3850;-36.3600;-34.3900;-1.9700
1338.5840;-36.3600;-34.5700;-1.7900
1338.7830;-36.3800;-34.7500;-1.6300
1338.9820;-36.4500;-34.9500;-1.5000
1339.1810;-36.5300;-35.1300;-1.4000
1339.3810;-36.6500;-35.3200;-1.3300
1339.5800;-36.7900;-35.4900;-1.3000
1339.7790;-36.9700;-35.6800;-1.2900
1339.9780;-37.1900;-35.8700;-1.3200
1340.1770;-37.4400;-36.0500;-1.3900
1340.3760;-37.7300;-36.2600;-1.4700
1340.5750;-38.0400;-36.4400;-1.6000
1340.7740;-38.3900;-36.6300;-1.7600
1340.9740;-38.8400;-36.8100;-2.0300
1341.1730;-39.1800;-36.9900;-2.1900
1341.3720;-39.6300;-37.1800;-2.4500
1341.5710;-40.1100;-37.3700;-2.7400
1341.7700;-40.6500;-37.5600;-3.0900
1341.9690;-41.2000;-37.7300;-3.4700
1342.1680;-41.7900;-37.9300;-3.8600
1342.3670;-42.4200;-38.1100;-4.3100
1342.5660;-43.0700;-38.2900;-4.7800
1342.7660;-43.7900;-38.5300;-5.2600
1342.9650;-44.5100;-38.6900;-5.8200
1343.1640;-45.2800;-38.8900;-6.3900
1343.3630;-46.0600;-39.0700;-6.9900
1343.5620;-46.8700;-39.2600;-7.6100
1343.7610;-47.7000;-39.4500;-8.2500
1343.9600;-48.7000;-39.6500;-9.0500
1344.1590;-49.3500;-39.8600;-9.4900
1344.3580;-50.1200;-40.0500;-10.0700
1344.5580;-50.8400;-40.2500;-10.5900
1344.7570;-51.4600;-40.4400;-11.0200
1344.9560;-51.9800;-40.6300;-11.3500
1345.1550;-52.3700;-40.8200;-11.5500
1345.3540;-52.6300;-41.0000;-11.6300
1345.5530;-52.7900;-41.2000;-11.5900
1345.7520;-52.8300;-41.3800;-11.4500
1345.9510;-52.8200;-41.5800;-11.2400
1346.1500;-52.7300;-41.7800;-10.9500
1346.3500;-52.6100;-41.9700;-10.6400
1346.5490;-52.4900;-42.1900;-10.3000
1346.7480;-52.3400;-42.3700;-9.9700
1346.9470;-52.2000;-42.5600;-9.6400
1347.1460;-52.0500;-42.7500;-9.3000
1347.3450;-51.9200;-42.9200;-9.0000
1347.5440;-51.8600;-43.1600;-8.7000
1347.7430;-51.8100;-43.3900;-8.4200
1347.9430;-51.7700;-43.6200;-8.1500
1348.1420;-51.6900;-43.8000;-7.8900
1348.3410;-51.6500;-44.0000;-7.6500
1348.5400;-51.5800;-44.1600;-7.4200
1348.7390;-51.5400;-44.3400;-7.2000
1348.9380;-51.5100;-44.5200;-6.9900
1349.1370;-51.4800;-44.6800;-6.8000
1349.3360;-51.4500;-44.8500;-6.6000
1349.5350;-51.4200;-45.0200;-6.4000
1349.7350;-51.3900;-45.1900;-6.2000
1349.9340;-51.4000;-45.3800;-6.0200
1350.1330;-51.4100;-45.5800;-5.8300
1350.3320;-51.4800;-45.8400;-5.6400
1350.5310;-51.4700;-46.0500;-5.4200
1350.7300;-51.4300;-46.2300;-5.2000
1350.9290;-51.3700;-46.4000;-4.9700
1351.1280;-51.2700;-46.5200;-4.7500
1351.3270;-51.2100;-46.7000;-4.5100
1351.5270;-51.1600;-46.8700;-4.2900
1351.7260;-51.1700;-47.1200;-4.0500
1351.9250;-51.1100;-47.3100;-3.8000
1352.1240;-51.0500;-47.4900;-3.5600
1352.3230;-51.0200;-47.6800;-3.3400
1352.5220;-50.9900;-47.8800;-3.1100
1352.7210;-50.9400;-48.0500;-2.8900
1352.9200;-50.8800;-48.2000;-2.6800
1353.1200;-50.9600;-48.5500;-2.4100
1353.3190;-50.8800;-48.5900;-2.2900
1353.5180;-50.8800;-48.7700;-2.1100
1353.7170;-50.9200;-48.9500;-1.9700
1353.9160;-50.8800;-49.0600;-1.8200
1354.1150;-50.9200;-49.2200;-1.7000
1354.3140;-51.0400;-49.4500;-1.5900
1354.5130;-51.1500;-49.6500;-1.5000
1354.7120;-51.4000;-49.9600;-1.4400
1354.9120;-51.6300;-50.2500;-1.3800
1355.1110;-51.7800;-50.4400;-1.3400
1355.3100;-51.8800;-50.5700;-1.3100
1355.5090;-51.8800;-50.5900;-1.2900
1355.7080;-52.1500;-50.8500;-1.3000
1355.9070;-52.4400;-51.1300;-1.3100
1356.1060;-52.6300;-51.3000;-1.3300
1356.3050;-52.7600;-51.3900;-1.3700
1356.5040;-52.9400;-51.5200;-1.4200
1356.7040;-52.8900;-51.4300;-1.4600
1356.9030;-53.1000;-51.6000;-1.5000
1357.1020;-53.5200;-51.9700;-1.5500
1357.3010;-53.8100;-52.2100;-1.6000
1357.5000;-54.0500;-52.4000;-1.6500
1357.6990;-54.2900;-52.5900;-1.7000
1357.8980;-54.3900;-52.6600;-1.7300
1358.0970;-54.4800;-52.7300;-1.7500
1358.2970;-54.6900;-52.9200;-1.7700
1358.4960;-54.9300;-53.1500;-1.7800
1358.6950;-55.0800;-53.3000;-1.7800
1358.8940;-55.2300;-53.4700;-1.7600
1359.0930;-55.3700;-53.6300;-1.7400
1359.2920;-55.4100;-53.6900;-1.7200
1359.4910;-55.7500;-54.0700;-1.6800
1359.6900;-56.0100;-54.3800;-1.6300
1359.8890;-56.1700;-54.5800;-1.5900
1360.0890;-56.1900;-54.6600;-1.5300
1360.2880;-56.1900;-54.7100;-1.4800
1360.4870;-56.1300;-54.7000;-1.4300
1360.6860;-56.2600;-54.8900;-1.3700
1360.8850;-56.5700;-55.2300;-1.3400
1361.0840;-56.8200;-55.5400;-1.2800
1361.2830;-56.9600;-55.7200;-1.2400
1361.4820;-57.1100;-55.9000;-1.2100
1361.6810;-57.3300;-56.1400;-1.1900
1361.8810;-57.4500;-56.2800;-1.1700
1362.0800;-57.6700;-56.5200;-1.1500
1362.2790;-58.1300;-56.9500;-1.1800
1362.4780;-58.3600;-57.1900;-1.1700
1362.6770;-58.6300;-57.3600;-1.2700
1362.8760;-58.4900;-57.2600;-1.2300
1363.0750;-58.5100;-57.2300;-1.2800
1363.2740;-58.3000;-57.0100;-1.2900
1363.4740;-58.4800;-57.1000;-1.3800
1363.6730;-58.6300;-57.2000;-1.4300
1363.8720;-58.8700;-57.3700;-1.5000
1364.0710;-59.1900;-57.6000;-1.5900
1364.2700;-59.4900;-57.8100;-1.6800
1364.4690;-59.9300;-58.1500;-1.7800
1364.6680;-60.5300;-58.7300;-1.8000
1364.8670;-60.9200;-58.9500;-1.9700
1365.0660;-61.0500;-58.9300;-2.1200
1365.2660;-61.4000;-59.1400;-2.2600
1365.4650;-61.4400;-59.0900;-2.3500
1365.6640;-61.6400;-59.1700;-2.4700
1365.8630;-61.8900;-59.2500;-2.6400
1366.0620;-62.0200;-59.2700;-2.7500
1366.2610;-62.1800;-59.3000;-2.8800
1366.4600;-62.4200;-59.3800;-3.0400
1366.6590;-62.7200;-59.5700;-3.1500
1366.8580;-63.1100;-59.8400;-3.2700
1367.0580;-63.4100;-59.9800;-3.4300
1367.2570;-63.6600;-60.1200;-3.5400
1367.4560;-64.0600;-60.4100;-3.6500
1367.6550;-64.3300;-60.6300;-3.7000
1367.8540;-64.7800;-60.9300;-3.8500
1368.0530;-64.9900;-61.0900;-3.9000
1368.2520;-65.1200;-61.0900;-4.0300
1368.4510;-65.4700;-61.4300;-4.0400
1368.6500;-65.6200;-61.5800;-4.0400
1368.8500;-65.7400;-61.7000;-4.0400
1369.0490;-65.7900;-61.7400;-4.0500
1369.2480;-65.7500;-61.7400;-4.0100
1369.4470;-65.6400;-61.6700;-3.9700
1369.6460;-65.7500;-61.8400;-3.9100
1369.8450;-66.1100;-62.2100;-3.9000
1370.0440;-66.2200;-62.4200;-3.8000
1370.2430;-66.3100;-62.6000;-3.7100
1370.4430;-66.4100;-62.6800;-3.7300
1370.6420;-66.4000;-62.7500;-3.6500
1370.8410;-66.6600;-63.1200;-3.5400
1371.0400;-66.8800;-63.4200;-3.4600
1371.2390;-67.0900;-63.6400;-3.4500
1371.4380;-67.1300;-63.7700;-3.3600
1371.6370;-67.1000;-63.7600;-3.3400
1371.8360;-67.0600;-63.7400;-3.3200
1372.0350;-67.2900;-63.9900;-3.3000
1372.2350;-67.5300;-64.2600;-3.2700
1372.4340;-67.6800;-64.4200;-3.2600
1372.6330;-67.8700;-64.5300;-3.3400
1372.8320;-67.8800;-64.6600;-3.2200
1373.0310;-68.0400;-64.7000;-3.3400
1373.2300;-68.2700;-64.9000;-3.3700
1373.4290;-68.5200;-65.1500;-3.3700
1373.6280;-68.8400;-65.3400;-3.5000
1373.8270;-69.1300;-65.5100;-3.6200
1374.0270;-69.4800;-65.6200;-3.8600
1374.2260;-69.6600;-65.8200;-3.8400
1374.4250;-70.0000;-66.0600;-3.9400
1374.6240;-70.2300;-66.2300;-4.0000
1374.8230;-70.6400;-66.5400;-4.1000
1375.0220;-70.8600;-66.6900;-4.1700
1375.2210;-71.3000;-66.8700;-4.4300
1375.4200;-71.4300;-67.0300;-4.4000
1375.6200;-71.7200;-67.2300;-4.4900
1375.8190;-72.5100;-67.3400;-5.1700
1376.0180;-72.5900;-67.5500;-5.0400
1376.2170;-72.9900;-67.7200;-5.2700
1376.4160;-73.1400;-68.0100;-5.1300
1376.6150;-73.4500;-68.2900;-5.1600
1376.8140;-73.5900;-68.4400;-5.1500
1377.0130;-73.6600;-68.7600;-4.9000
1377.2120;-74.6200;-69.0800;-5.5400
1377.4120;-74.2600;-69.1500;-5.1100
1377.6110;-74.3600;-69.2500;-5.1100
1377.8100;-74.8600;-69.2800;-5.5800
1378.0090;-74.6400;-69.4300;-5.2100
1378.2080;-74.1500;-69.6300;-4.5200
1378.4070;-74.5100;-69.8500;-4.6600
1378.6060;-74.2800;-70.2800;-4.0000
1378.8050;-74.1800;-70.5400;-3.6400
1379.0040;-74.8800;-70.5900;-4.2900
1379.2040;-75.0700;-70.8700;-4.2000
1379.4030;-74.1800;-71.0200;-3.1600
1379.6020;-73.9500;-70.7300;-3.2200
1379.8010;-73.8300;-71.0400;-2.7900
1380.0000;-74.1100;-71.3100;-2.8000
1380.1990;-73.8700;-71.4500;-2.4200
1380.3980;-74.1900;-71.7300;-2.4600
1380.5970;-74.3900;-72.3200;-2.0700
1380.7970;-74.9400;-72.8500;-2.0900
1380.9960;-74.9700;-72.8900;-2.0800
1381.1950;-74.4100;-72.9500;-1.4600
1381.3940;-74.7600;-72.7500;-2.0100
1381.5930;-74.2800;-72.4600;-1.8200
1381.7920;-74.0300;-72.6100;-1.4200
1381.9910;-74.2500;-72.7200;-1.5300
1382.1900;-74.1600;-72.7500;-1.4100
1382.3890;-75.1300;-73.4100;-1.7200
1382.5890;-75.3000;-73.4600;-1.8400
1382.7880;-75.8700;-74.4200;-1.4500
1382.9870;-76.2500;-74.7300;-1.5200
1383.1860;-76.0500;-74.9500;-1.1000
1383.3850;-76.6400;-74.2800;-2.3600
1383.5840;-76.3300;-74.1500;-2.1800
1383.7830;-76.8600;-73.7600;-3.1000
1383.9820;-76.8200;-74.1100;-2.7100
1384.1810;-77.1300;-74.2600;-2.8700
1384.3810;-77.8300;-74.3000;-3.5300
1384.5800;-78.0600;-74.0300;-4.0300
1384.7790;-78.5200;-74.1000;-4.4200
1384.9780;-79.9100;-74.8900;-5.0200
1385.1770;-80.3900;-74.7000;-5.6900
1385.3760;-81.4200;-75.1300;-6.2900
1385.5750;-80.2300;-75.0800;-5.1500
1385.7740;-80.2300;-75.3000;-4.9300
1385.9740;-81.0200;-75.3000;-5.7200
1386.1730;-80.7400;-75.3000;-5.4400
1386.3720;-81.9900;-74.9700;-7.0200
1386.5710;-83.4800;-75.3200;-8.1600
1386.7700;-83.6600;-75.0900;-8.5700
1386.9690;-83.2400;-75.1400;-8.1000
1387.1680;-83.7500;-75.7600;-7.9900
1387.3670;-85.9400;-75.5900;-10.3500
1387.5660;-83.0800;-76.0100;-7.0700
1387.7660;-81.7500;-75.9100;-5.8400
1387.9650;-84.6500;-76.4800;-8.1700
1388.1640;-85.0000;-76.9800;-8.0200
1388.3630;-83.0000;-76.8100;-6.1900
1388.5620;-85.3700;-76.5500;-8.8200
1388.7610;-85.7900;-77.0200;-8.7700
1388.9600;-210.0000;-76.8100;-133.1900
1389.1590;-85.5100;-76.3100;-9.2000
1389.3580;-82.5000;-76.5800;-5.9200
1389.5580;-81.9900;-76.6900;-5.3000
1389.7570;-84.6500;-77.7000;-6.9500
1389.9560;-82.5000;-77.7000;-4.8000
1390.1550;-83.0800;-76.6900;-6.3900
1390.3540;-83.7500;-76.5600;-7.1900
1390.5530;-80.5200;-76.6500;-3.8700
1390.7520;-84.1200;-76.8900;-7.2300
1390.9510;-81.1100;-76.6500;-4.4600
1391.1500;-81.4700;-78.2300;-3.2400
1391.3500;-81.1100;-76.9400;-4.1700
1391.5490;-81.3300;-77.5600;-3.7700
1391.7480;-80.4000;-77.1100;-3.2900
1391.9470;-80.6600;-77.0300;-3.6300
1392.1460;-83.6700;-77.1800;-6.4900
1392.3450;-82.1800;-77.4700;-4.7100
1392.5440;-81.7000;-78.4200;-3.2800
1392.7430;-81.5400;-79.2700;-2.2700
1392.9430;-81.1200;-78.4700;-2.6500
1393.1420;-79.8500;-77.7100;-2.1400
1393.3410;-81.2800;-77.8300;-3.4500
1393.5400;-82.0600;-77.7400;-4.3200
1393.7390;-80.7000;-77.4900;-3.2100
1393.9380;-81.5400;-78.6400;-2.9000
1394.1370;-80.9800;-78.6700;-2.3100
1394.3360;-81.5400;-78.6900;-2.8500
1394.5350;-84.4400;-78.3200;-6.1200
1394.7350;-80.9300;-77.3900;-3.5400
1394.9340;-80.7000;-78.1600;-2.5400
1395.1330;-80.4000;-78.2600;-2.1400
1395.3320;-82.1800;-78.8400;-3.3400
1395.5310;-82.8600;-79.2300;-3.6300
1395.7300;-83.2500;-78.9900;-4.2600
1395.9290;-83.7600;-78.3200;-5.4400
1396.1280;-82.1800;-77.9700;-4.2100
1396.3270;-81.8200;-77.6200;-4.2000
1396.5270;-81.6500;-78.4200;-3.2300
1396.7260;-81.8200;-79.5000;-2.3200
1396.9250;-82.5100;-79.7100;-2.8000
1397.1240;-80.4000;-79.3600;-1.0400
1397.3230;-83.6700;-79.4300;-4.2400
1397.5220;-80.5700;-79.1700;-1.4000
1397.7210;-81.7000;-78.9900;-2.7100
1397.9200;-81.3300;-78.3900;-2.9400
1398.1200;-84.0400;-77.4300;-6.6100
1398.3190;-81.4300;-77.8700;-3.5600
1398.5180;-82.1300;-79.0000;-3.1300
1398.7170;-80.5400;-78.3800;-2.1600
1398.9160;-84.0500;-78.3500;-5.7000
1399.1150;-80.7100;-78.6500;-2.0600
1399.3140;-88.5400;-79.2100;-9.3300
1399.5130;-82.5200;-78.3800;-4.1400
1399.7120;-85.9600;-79.8600;-6.1000
1399.9120;-82.4500;-80.3300;-2.1200
1400.1110;-81.4400;-80.0100;-1.4300
1400.3100;-85.8100;-78.5400;-7.2700
1400.5090;-81.2300;-79.0000;-2.2300
1400.7080;-85.9600;-78.7000;-7.2600
1400.9070;-83.6800;-79.6100;-4.0700
1401.1060;-85.0200;-78.0300;-6.9900
1401.3050;-85.1400;-79.8600;-5.2800
1401.5040;-84.2400;-79.0600;-5.1800
1401.7040;-81.4400;-79.6800;-1.7600
1401.9030;-83.9500;-80.4100;-3.5400
1402.1020;-83.7700;-80.0900;-3.6800
1402.3010;-82.2500;-80.4900;-1.7600
1402.5000;-80.7600;-78.1500;-2.6100
1402.6990;-81.8900;-79.9000;-1.9900
1402.8980;-80.8500;-78.7600;-2.0900
1403.0970;-81.2300;-78.4800;-2.7500
1403.2970;-83.0200;-79.0300;-3.9900
1403.4960;-87.5700;-79.9300;-7.6400
1403.6950;-81.2300;-79.0000;-2.2300
1403.8940;-84.2400;-79.7200;-4.5200
1404.0930;-86.4300;-79.5100;-6.9200
1404.2920;-82.5200;-80.7100;-1.8100
1404.4910;-82.8000;-78.5400;-4.2600
1404.6900;-84.3500;-79.6500;-4.7000
1404.8890;-83.4200;-78.4800;-4.9400
1405.0890;-82.5200;-81.1800;-1.3400
1405.2880;-82.5200;-79.9000;-2.6200
1405.4870;-81.4400;-80.0500;-1.3900
1405.6860;-81.8900;-79.7200;-2.1700
1405.8850;-82.9500;-78.6500;-4.3000
1406.0840;-82.0100;-78.9700;-3.0400
1406.2830;-83.1800;-79.0600;-4.1200
1406.4820;-83.0200;-79.2100;-3.8100
1406.6810;-82.0200;-79.3500;-2.6700
1406.8810;-83.0300;-78.9200;-4.1100
1407.0800;-82.5300;-78.3600;-4.1700
1407.2790;-85.0300;-80.1000;-4.9300
1407.4780;-86.2800;-80.9500;-5.3300
1407.6770;-84.7900;-79.2500;-5.5400
1407.8760;-82.3300;-79.5200;-2.8100
1408.0750;-81.5600;-78.9500;-2.6100
1408.2740;-81.9000;-79.2500;-2.6500
1408.4740;-85.2700;-78.1300;-7.1400
1408.6730;-83.3500;-78.8300;-4.5200
1408.8720;-82.2600;-78.4400;-3.8200
1409.0710;-82.9600;-78.9200;-4.0400
1409.2700;-84.0600;-78.4400;-5.6200
1409.4690;-81.5600;-80.3800;-1.1800
1409.6680;-82.3300;-80.0200;-2.3100
1409.8670;-86.4400;-79.5200;-6.9200
1410.0660;-82.2600;-79.2200;-3.0400
1410.2660;-83.9600;-78.2600;-5.7000
1410.4650;-83.7800;-79.5200;-4.2600
1410.6640;-81.7800;-79.0100;-2.7700
1410.8630;-84.6800;-78.6900;-5.9900
1411.0620;-84.5700;-78.8000;-5.7700
1411.2610;-84.2500;-79.6600;-4.5900
1411.4600;-86.1200;-78.8000;-7.3200
1411.6590;-82.9600;-78.2600;-4.7000
1411.8580;-80.7700;-78.1300;-2.6400
1412.0580;-80.4600;-77.9600;-2.5000
1412.2570;-82.8100;-78.0900;-4.7200
1412.4560;-86.7900;-78.8600;-7.9300
1412.6550;-84.9100;-78.0400;-6.8700
1412.8540;-82.5300;-79.4800;-3.0500
1413.0530;-92.1400;-78.7100;-13.4300
1413.2520;-82.8800;-78.5500;-4.3300
1413.4510;-81.1400;-77.6700;-3.4700
1413.6500;-81.0600;-78.5000;-2.5600
1413.8500;-83.8800;-78.1700;-5.7100
1414.0490;-84.1600;-78.6700;-5.4900
1414.2480;-87.1800;-79.2600;-7.9200
1414.4470;-86.4500;-78.9900;-7.4600
1414.6460;-81.7300;-79.7400;-1.9900
1414.8450;-79.8800;-79.4600;-0.4200
1415.0440;-81.6800;-78.4500;-3.2300
1415.2430;-81.7900;-78.6700;-3.1200
1415.4430;-81.1100;-79.2300;-1.8800
1415.6420;-82.2700;-78.9000;-3.3700
1415.8410;-81.5700;-78.7200;-2.8500
1416.0400;-81.8500;-78.1400;-3.7100
1416.2390;-83.7900;-78.7200;-5.0700
1416.4380;-81.4600;-78.1900;-3.2700
1416.6370;-84.5800;-78.9000;-5.6800
1416.8360;-85.8300;-79.7000;-6.1300
1417.0350;-85.2800;-78.8400;-6.4400
1417.2350;-84.9200;-77.8800;-7.0400
1417.4340;-81.4600;-77.4600;-4.0000
1417.6330;-81.6200;-78.1200;-3.5000
1417.8320;-83.1200;-78.0000;-5.1200
1418.0310;-81.1500;-77.4200;-3.7300
1418.2300;-80.4700;-77.8100;-2.6600
1418.4290;-81.3100;-78.2400;-3.0700
1418.6280;-80.9600;-77.6800;-3.2800
1418.8270;-83.4400;-78.6100;-4.8300
1419.0270;-82.7500;-79.1400;-3.6100
1419.2260;-83.2000;-78.0500;-5.1500
1419.4250;-82.6800;-78.6700;-4.0100
1419.6240;-81.1100;-78.6100;-2.5000
1419.8230;-82.9700;-78.0500;-4.9200
1420.0220;-83.6100;-78.4500;-5.1600
1420.2210;-81.5700;-78.1000;-3.4700
1420.4200;-83.0400;-78.2400;-4.8000
1420.6200;-80.3900;-77.5500;-2.8400
1420.8190;-81.0600;-78.4800;-2.5800
1421.0180;-84.0700;-78.0200;-6.0500
1421.2170;-80.6000;-78.1000;-2.5000
1421.4160;-80.9600;-78.2200;-2.7400
1421.6150;-82.4100;-78.5700;-3.8400
1421.8140;-82.2800;-77.9400;-4.3400
1422.0130;-82.4800;-77.7800;-4.7000
1422.2120;-82.4800;-78.4600;-4.0200
1422.4120;-82.0400;-77.6900;-4.3500
1422.6110;-82.9000;-78.1500;-4.7500
1422.8100;-81.5800;-77.7100;-3.8700
1423.0090;-82.7600;-78.6200;-4.1400
1423.2080;-83.8000;-78.1100;-5.6900
1423.4070;-81.4700;-77.8700;-3.6000
1423.6060;-82.9800;-78.4600;-4.5200
1423.8050;-82.9000;-78.1100;-4.7900
1424.0040;-80.3600;-78.2000;-2.1600
1424.2040;-82.2200;-78.8200;-3.4000
1424.4030;-81.2100;-78.7900;-2.4200
1424.6020;-81.8600;-77.9600;-3.9000
1424.8010;-80.2800;-77.0900;-3.1900
1425.0000;-81.0700;-77.1900;-3.8800
