Wavelength;Intensity_Meas;Intensity_Ref;Difference_dB
1200.0000;-61.5300;-57.3300;-4.2000
1200.1990;-61.4400;-57.3100;-4.1300
1200.3980;-61.4000;-57.2900;-4.1100
1200.5970;-61.3700;-57.2600;-4.1100
1200.7970;-61.3200;-57.2100;-4.1100
1200.9960;-61.3000;-57.2000;-4.1000
1201.1950;-61.2400;-57.1800;-4.0600
1201.3940;-61.2100;-57.1100;-4.1000
1201.5930;-61.1800;-57.0700;-4.1100
1201.7920;-61.1400;-57.0200;-4.1200
1201.9910;-61.1100;-56.9800;-4.1300
1202.1900;-61.1000;-56.9500;-4.1500
1202.3890;-61.0800;-56.8700;-4.2100
1202.5890;-61.0800;-56.8000;-4.2800
1202.7880;-61.0300;-56.7800;-4.2500
1202.9870;-61.0000;-56.7300;-4.2700
1203.1860;-60.9900;-56.6800;-4.3100
1203.3850;-60.9800;-56.6000;-4.3800
1203.5840;-60.9500;-56.5700;-4.3800
1203.7830;-60.8900;-56.5400;-4.3500
1203.9820;-60.9300;-56.4900;-4.4400
1204.1810;-60.8800;-56.4500;-4.4300
1204.3810;-60.8500;-56.3900;-4.4600
1204.5800;-60.8600;-56.3900;-4.4700
1204.7790;-60.8100;-56.3700;-4.4400
1204.9780;-60.8500;-56.3100;-4.5400
1205.1770;-60.8500;-56.2800;-4.5700
1205.3760;-60.8100;-56.2700;-4.5400
1205.5750;-60.7800;-56.2500;-4.5300
1205.7740;-60.7800;-56.2300;-4.5500
1205.9740;-60.8100;-56.2100;-4.6000
1206.1730;-60.7200;-56.2000;-4.5200
1206.3720;-60.6600;-56.1800;-4.4800
1206.5710;-60.6500;-56.1600;-4.4900
1206.7700;-60.6100;-56.1400;-4.4700
1206.9690;-60.5600;-56.1000;-4.4600
1207.1680;-60.4700;-56.1000;-4.3700
1207.3670;-60.4000;-56.0800;-4.3200
1207.5660;-60.3600;-56.0200;-4.3400
1207.7660;-60.2800;-56.0100;-4.2700
1207.9650;-60.1800;-55.9800;-4.2000
1208.1640;-60.1300;-55.9400;-4.1900
1208.3630;-60.0800;-55.8900;-4.1900
1208.5620;-60.0300;-55.8600;-4.1700
1208.7610;-59.9300;-55.8300;-4.1000
1208.9600;-59.8700;-55.7800;-4.0900
1209.1590;-59.8100;-55.7300;-4.0800
1209.3580;-59.7700;-55.6600;-4.1100
1209.5580;-59.6900;-55.6200;-4.0700
1209.7570;-59.6200;-55.6000;-4.0200
1209.9560;-59.6100;-55.5300;-4.0800
1210.1550;-59.5800;-55.4600;-4.1200
1210.3540;-59.5000;-55.4200;-4.0800
1210.5530;-59.4700;-55.3900;-4.0800
1210.7520;-59.4700;-55.3400;-4.1300
1210.9510;-59.4500;-55.2800;-4.1700
1211.1500;-59.3900;-55.2400;-4.1500
1211.3500;-59.3300;-55.2000;-4.1300
1211.5490;-59.3400;-55.1800;-4.1600
1211.7480;-59.3300;-55.1500;-4.1800
1211.9470;-59.3000;-55.0800;-4.2200
1212.1460;-59.2400;-55.0700;-4.1700
1212.3450;-59.2300;-55.0500;-4.1800
1212.5440;-59.2800;-55.0100;-4.2700
1212.7430;-59.2300;-54.9800;-4.2500
1212.9430;-59.1800;-54.9500;-4.2300
1213.1420;-59.1700;-54.9200;-4.2500
1213.3410;-59.2100;-54.8900;-4.3200
1213.5400;-59.2000;-54.8700;-4.3300
1213.7390;-59.1500;-54.8500;-4.3000
1213.9380;-59.1600;-54.8000;-4.3600
1214.1370;-59.1600;-54.7900;-4.3700
1214.3360;-59.1200;-54.7300;-4.3900
1214.5350;-59.0900;-54.7000;-4.3900
1214.7350;-59.0600;-54.6800;-4.3800
1214.9340;-59.0700;-54.6300;-4.4400
1215.1330;-59.0400;-54.5800;-4.4600
1215.3320;-58.9800;-54.5300;-4.4500
1215.5310;-58.9500;-54.4900;-4.4600
1215.7300;-58.9400;-54.4500;-4.4900
1215.9290;-58.9200;-54.3900;-4.5300
1216.1280;-58.8600;-54.3300;-4.5300
1216.3270;-58.7800;-54.2600;-4.5200
1216.5270;-58.7800;-54.2300;-4.5500
1216.7260;-58.7700;-54.1800;-4.5900
1216.9250;-58.7400;-54.1000;-4.6400
1217.1240;-58.6500;-54.0500;-4.6000
1217.3230;-58.6200;-53.9900;-4.6300
1217.5220;-58.6400;-53.9400;-4.7000
1217.7210;-58.5800;-53.9000;-4.6800
1217.9200;-58.5200;-53.8400;-4.6800
1218.1200;-58.4800;-53.8000;-4.6800
1218.3190;-58.4600;-53.7500;-4.7100
1218.5180;-58.4400;-53.7100;-4.7300
1218.7170;-58.3800;-53.6600;-4.7200
1218.9160;-58.3700;-53.6300;-4.7400
1219.1150;-58.3500;-53.6100;-4.7400
1219.3140;-58.3200;-53.5500;-4.7700
1219.5130;-58.2700;-53.5300;-4.7400
1219.7120;-58.2200;-53.5100;-4.7100
1219.9120;-58.2100;-53.4600;-4.7500
1220.1110;-58.1700;-53.4300;-4.7400
1220.3100;-58.0900;-53.3900;-4.7000
1220.5090;-58.0300;-53.3500;-4.6800
1220.7080;-58.0000;-53.3300;-4.6700
1220.9070;-57.9800;-53.2800;-4.7000
1221.1060;-57.8500;-53.2200;-4.6300
1221.3050;-57.7800;-53.1900;-4.5900
1221.5040;-57.7300;-53.1400;-4.5900
1221.7040;-57.6500;-53.0800;-4.5700
1221.9030;-57.5700;-53.0300;-4.5400
1222.1020;-57.4600;-52.9700;-4.4900
1222.3010;-57.4000;-52.9100;-4.4900
1222.5000;-57.3200;-52.8400;-4.4800
1222.6990;-57.2100;-52.7900;-4.4200
1222.8980;-57.1200;-52.7100;-4.4100
1223.0970;-57.0300;-52.6500;-4.3800
1223.2970;-56.9800;-52.5800;-4.4000
1223.4960;-56.8700;-52.5000;-4.3700
1223.6950;-56.7700;-52.4500;-4.3200
1223.8940;-56.7300;-52.3800;-4.3500
1224.0930;-56.6500;-52.3100;-4.3400
1224.2920;-56.5700;-52.2400;-4.3300
1224.4910;-56.4800;-52.1800;-4.3000
1224.6900;-56.4200;-52.1300;-4.2900
1224.8890;-56.3800;-52.0500;-4.3300
1225.0890;-56.2900;-52.0100;-4.2800
1225.2880;-56.2000;-51.9300;-4.2700
1225.4870;-56.1500;-51.8700;-4.2800
1225.6860;-56.0800;-51.8400;-4.2400
1225.8850;-56.0100;-51.7800;-4.2300
1226.0840;-55.9100;-51.7300;-4.1800
1226.2830;-55.8700;-51.6800;-4.1900
1226.4820;-55.7900;-51.6200;-4.1700
1226.6810;-55.7100;-51.5900;-4.1200
1226.8810;-55.6600;-51.5400;-4.1200
1227.0800;-55.6000;-51.4800;-4.1200
1227.2790;-55.5700;-51.4400;-4.1300
1227.4780;-55.5000;-51.3800;-4.1200
1227.6770;-55.4800;-51.3400;-4.1400
1227.8760;-55.4600;-51.2700;-4.1900
1228.0750;-55.4500;-51.2200;-4.2300
1228.2740;-55.4400;-51.1500;-4.2900
1228.4740;-55.4200;-51.0800;-4.3400
1228.6730;-55.4300;-51.0300;-4.4000
1228.8720;-55.4600;-50.9500;-4.5100
1229.0710;-55.4500;-50.8900;-4.5600
1229.2700;-55.4600;-50.8100;-4.6500
1229.4690;-55.4700;-50.7200;-4.7500
1229.6680;-55.4900;-50.6700;-4.8200
1229.8670;-55.4800;-50.5700;-4.9100
1230.0660;-55.4600;-50.4900;-4.9700
1230.2660;-55.4600;-50.4100;-5.0500
1230.4650;-55.4600;-50.3300;-5.1300
1230.6640;-55.4200;-50.2600;-5.1600
1230.8630;-55.4100;-50.1800;-5.2300
1231.0620;-55.3800;-50.1100;-5.2700
1231.2610;-55.3300;-50.0500;-5.2800
1231.4600;-55.2700;-49.9800;-5.2900
1231.6590;-55.1800;-49.9300;-5.2500
1231.8580;-55.0900;-49.8500;-5.2400
1232.0580;-54.9600;-49.8100;-5.1500
1232.2570;-54.8100;-49.7400;-5.0700
1232.4560;-54.6500;-49.6800;-4.9700
1232.6550;-54.4800;-49.6400;-4.8400
1232.8540;-54.3000;-49.5700;-4.7300
1233.0530;-54.1000;-49.5300;-4.5700
1233.2520;-53.9100;-49.4600;-4.4500
1233.4510;-53.7100;-49.4100;-4.3000
1233.6500;-53.5200;-49.3700;-4.1500
1233.8500;-53.3500;-49.3000;-4.0500
1234.0490;-53.1900;-49.2500;-3.9400
1234.2480;-53.0600;-49.1800;-3.8800
1234.4470;-52.9300;-49.1200;-3.8100
1234.6460;-52.8300;-49.0600;-3.7700
1234.8450;-52.7700;-48.9900;-3.7800
1235.0440;-52.7100;-48.9300;-3.7800
1235.2430;-52.6700;-48.8400;-3.8300
1235.4430;-52.6300;-48.7600;-3.8700
1235.6420;-52.6200;-48.6900;-3.9300
1235.8410;-52.6300;-48.6000;-4.0300
1236.0400;-52.6300;-48.5300;-4.1000
1236.2390;-52.6300;-48.4200;-4.2100
1236.4380;-52.6400;-48.3300;-4.3100
1236.6370;-52.6500;-48.2500;-4.4000
1236.8360;-52.6500;-48.1500;-4.5000
1237.0350;-52.6300;-48.0800;-4.5500
1237.2350;-52.6300;-47.9900;-4.6400
1237.4340;-52.6000;-47.9000;-4.7000
1237.6330;-52.5500;-47.8100;-4.7400
1237.8320;-52.5100;-47.7400;-4.7700
1238.0310;-52.4500;-47.6600;-4.7900
1238.2300;-52.3900;-47.5700;-4.8200
1238.4290;-52.2700;-47.5000;-4.7700
1238.6280;-52.1800;-47.4200;-4.7600
1238.8270;-52.0900;-47.3400;-4.7500
1239.0270;-51.9700;-47.2700;-4.7000
1239.2260;-51.8500;-47.1800;-4.6700
1239.4250;-51.7100;-47.1100;-4.6000
1239.6240;-51.6100;-47.0300;-4.5800
1239.8230;-51.4800;-46.9400;-4.5400
1240.0220;-51.3600;-46.8700;-4.4900
1240.2210;-51.2700;-46.7700;-4.5000
1240.4200;-51.1600;-46.6900;-4.4700
1240.6200;-51.0700;-46.5900;-4.4800
1240.8190;-50.9900;-46.4900;-4.5000
1241.0180;-50.9100;-46.3800;-4.5300
1241.2170;-50.8600;-46.2700;-4.5900
1241.4160;-50.7800;-46.1700;-4.6100
1241.6150;-50.7100;-46.0300;-4.6800
1241.8140;-50.6500;-45.9100;-4.7400
1242.0130;-50.5700;-45.8000;-4.7700
1242.2120;-50.5000;-45.6900;-4.8100
1242.4120;-50.4000;-45.5600;-4.8400
1242.6110;-50.3000;-45.4200;-4.8800
1242.8100;-50.1800;-45.3100;-4.8700
1243.0090;-50.0200;-45.1700;-4.8500
1243.2080;-49.9000;-45.0500;-4.8500
1243.4070;-49.7400;-44.9200;-4.8200
1243.6060;-49.5700;-44.7900;-4.7800
1243.8050;-49.4100;-44.6800;-4.7300
1244.0040;-49.2500;-44.5400;-4.7100
1244.2040;-49.1100;-44.4100;-4.7000
1244.4030;-48.9500;-44.2900;-4.6600
1244.6020;-48.8100;-44.1600;-4.6500
1244.8010;-48.7000;-44.0500;-4.6500
1245.0000;-48.5800;-43.9100;-4.6700
1245.1990;-48.5000;-43.7900;-4.7100
1245.3980;-48.4100;-43.6700;-4.7400
1245.5970;-48.3400;-43.5300;-4.8100
1245.7970;-48.2700;-43.4100;-4.8600
1245.9960;-48.1900;-43.2600;-4.9300
1246.1950;-48.1300;-43.1400;-4.9900
1246.3940;-48.0500;-43.0000;-5.0500
1246.5930;-47.9400;-42.8500;-5.0900
1246.7920;-47.8200;-42.7300;-5.0900
1246.9910;-47.6600;-42.5600;-5.1000
1247.1900;-47.4900;-42.4200;-5.0700
1247.3890;-47.2600;-42.2700;-4.9900
1247.5890;-47.0100;-42.1100;-4.9000
1247.7880;-46.7200;-41.9700;-4.7500
1247.9870;-46.3900;-41.8000;-4.5900
1248.1860;-46.0600;-41.6500;-4.4100
1248.3850;-45.6500;-41.5000;-4.1500
1248.5840;-45.3500;-41.3300;-4.0200
1248.7830;-44.9700;-41.1800;-3.7900
1248.9820;-44.6100;-41.0200;-3.5900
1249.1810;-44.2500;-40.8700;-3.3800
1249.3810;-43.9000;-40.7200;-3.1800
1249.5800;-43.5800;-40.5600;-3.0200
1249.7790;-43.2600;-40.4200;-2.8400
1249.9780;-42.9700;-40.2500;-2.7200
1250.1770;-42.6900;-40.1100;-2.5800
1250.3760;-42.4500;-39.9700;-2.4800
1250.5750;-42.2200;-39.8100;-2.4100
1250.7740;-42.0000;-39.6700;-2.3300
1250.9740;-41.8200;-39.5200;-2.3000
1251.1730;-41.6500;-39.3800;-2.2700
1251.3720;-41.4800;-39.2300;-2.2500
1251.5710;-41.3500;-39.0900;-2.2600
1251.7700;-41.2100;-38.9500;-2.2600
1251.9690;-41.0900;-38.7900;-2.3000
1252.1680;-40.9600;-38.6400;-2.3200
1252.3670;-40.8300;-38.4700;-2.3600
1252.5660;-40.7400;-38.3200;-2.4200
1252.7660;-40.6100;-38.1700;-2.4400
1252.9650;-40.5000;-38.0100;-2.4900
1253.1640;-40.3800;-37.8500;-2.5300
1253.3630;-40.2600;-37.6800;-2.5800
1253.5620;-40.1600;-37.5200;-2.6400
1253.7610;-40.0200;-37.3500;-2.6700
1253.9600;-39.9200;-37.1900;-2.7300
1254.1590;-39.7900;-37.0300;-2.7600
1254.3580;-39.6500;-36.8500;-2.8000
1254.5580;-39.5500;-36.7000;-2.8500
1254.7570;-39.4200;-36.5400;-2.8800
1254.9560;-39.3000;-36.3700;-2.9300
1255.1550;-39.1800;-36.2300;-2.9500
1255.3540;-39.0600;-36.0600;-3.0000
1255.5530;-38.9500;-35.9200;-3.0300
1255.7520;-38.8200;-35.7400;-3.0800
1255.9510;-38.7100;-35.6300;-3.0800
1256.1500;-38.5800;-35.4900;-3.0900
1256.3500;-38.4500;-35.3400;-3.1100
1256.5490;-38.3300;-35.2200;-3.1100
1256.7480;-38.1800;-35.0700;-3.1100
1256.9470;-38.0400;-34.9400;-3.1000
1257.1460;-37.8700;-34.8000;-3.0700
1257.3450;-37.7000;-34.6600;-3.0400
1257.5440;-37.5400;-34.5400;-3.0000
1257.7430;-37.3500;-34.3900;-2.9600
1257.9430;-37.1600;-34.2500;-2.9100
1258.1420;-36.9500;-34.1200;-2.8300
1258.3410;-36.7400;-33.9700;-2.7700
1258.5400;-36.5300;-33.8400;-2.6900
1258.7390;-36.3000;-33.6800;-2.6200
1258.9380;-36.0800;-33.5400;-2.5400
1259.1370;-35.8000;-33.3900;-2.4100
1259.3360;-35.6300;-33.2400;-2.3900
1259.5350;-35.4000;-33.1000;-2.3000
1259.7350;-35.1800;-32.9400;-2.2400
1259.9340;-34.9500;-32.8000;-2.1500
1260.1330;-34.7300;-32.6500;-2.0800
1260.3320;-34.5300;-32.4900;-2.0400
1260.5310;-34.3200;-32.3600;-1.9600
1260.7300;-34.1300;-32.2000;-1.9300
1260.9290;-33.9300;-32.0700;-1.8600
1261.1280;-33.7400;-31.9200;-1.8200
1261.3270;-33.5700;-31.7700;-1.8000
1261.5270;-33.3900;-31.6500;-1.7400
1261.7260;-33.2300;-31.5100;-1.7200
1261.9250;-33.0700;-31.3800;-1.6900
1262.1240;-32.9100;-31.2400;-1.6700
1262.3230;-32.7800;-31.1100;-1.6700
1262.5220;-32.6300;-31.0000;-1.6300
1262.7210;-32.5100;-30.8600;-1.6500
1262.9200;-32.3700;-30.7400;-1.6300
1263.1200;-32.2400;-30.6000;-1.6400
1263.3190;-32.1300;-30.4700;-1.6600
1263.5180;-32.0200;-30.3600;-1.6600
1263.7170;-31.9100;-30.2100;-1.7000
1263.9160;-31.7900;-30.0900;-1.7000
1264.1150;-31.6900;-29.9500;-1.7400
1264.3140;-31.5900;-29.8100;-1.7800
1264.5130;-31.4900;-29.6900;-1.8000
1264.7120;-31.4000;-29.5500;-1.8500
1264.9120;-31.3000;-29.4200;-1.8800
1265.1110;-31.2000;-29.2700;-1.9300
1265.3100;-31.1200;-29.1400;-1.9800
1265.5090;-31.0300;-29.0100;-2.0200
1265.7080;-30.9600;-28.8700;-2.0900
1265.9070;-30.8700;-28.7500;-2.1200
1266.1060;-30.7900;-28.6100;-2.1800
1266.3050;-30.7300;-28.4800;-2.2500
1266.5040;-30.6600;-28.3700;-2.2900
1266.7040;-30.6100;-28.2400;-2.3700
1266.9030;-30.5500;-28.1200;-2.4300
1267.1020;-30.5000;-27.9900;-2.5100
1267.3010;-30.4600;-27.8700;-2.5900
1267.5000;-30.4300;-27.7700;-2.6600
1267.6990;-30.4100;-27.6500;-2.7600
1267.8980;-30.3800;-27.5500;-2.8300
1268.0970;-30.3900;-27.4300;-2.9600
1268.2970;-30.3900;-27.3200;-3.0700
1268.4960;-30.4200;-27.2200;-3.2000
1268.6950;-30.4600;-27.1000;-3.3600
1268.8940;-30.4900;-27.0000;-3.4900
1269.0930;-30.5600;-26.8800;-3.6800
1269.2920;-30.6500;-26.7700;-3.8800
1269.4910;-30.7600;-26.6600;-4.1000
1269.6900;-30.9100;-26.5400;-4.3700
1269.8890;-31.0700;-26.4400;-4.6300
1270.0890;-31.2600;-26.3100;-4.9500
1270.2880;-31.5000;-26.2000;-5.3000
1270.4870;-31.7800;-26.0700;-5.7100
1270.6860;-32.1200;-25.9700;-6.1500
1270.8850;-32.5000;-25.8500;-6.6500
1271.0840;-32.9500;-25.7300;-7.2200
1271.2830;-33.4600;-25.6300;-7.8300
1271.4820;-34.0500;-25.5000;-8.5500
1271.6810;-34.7400;-25.3900;-9.3500
1271.8810;-35.5300;-25.2800;-10.2500
1272.0800;-36.4100;-25.1700;-11.2400
1272.2790;-37.4000;-25.0600;-12.3400
1272.4780;-38.6700;-24.9500;-13.7200
1272.6770;-39.5000;-24.8500;-14.6500
1272.8760;-40.2900;-24.7400;-15.5500
1273.0750;-40.6000;-24.6500;-15.9500
1273.2740;-40.1800;-24.5600;-15.6200
1273.4740;-39.1900;-24.4500;-14.7400
1273.6730;-37.8800;-24.3700;-13.5100
1273.8720;-36.5100;-24.2700;-12.2400
1274.0710;-34.9900;-24.1800;-10.8100
1274.2700;-33.9800;-24.0900;-9.8900
1274.4690;-32.8800;-23.9900;-8.8900
1274.6680;-31.8700;-23.9100;-7.9600
1274.8670;-30.9700;-23.8100;-7.1600
1275.0660;-30.1400;-23.7200;-6.4200
1275.2660;-29.4000;-23.6400;-5.7600
1275.4650;-28.7400;-23.5400;-5.2000
1275.6640;-28.1400;-23.4600;-4.6800
1275.8630;-27.6100;-23.3600;-4.2500
1276.0620;-27.1100;-23.2700;-3.8400
1276.2610;-26.6800;-23.1800;-3.5000
1276.4600;-26.3000;-23.0900;-3.2100
1276.6590;-25.9000;-23.0000;-2.9000
1276.8580;-25.6600;-22.9000;-2.7600
1277.0580;-25.4100;-22.8200;-2.5900
1277.2570;-25.2000;-22.7300;-2.4700
1277.4560;-25.0100;-22.6400;-2.3700
1277.6550;-24.8600;-22.5700;-2.2900
1277.8540;-24.7500;-22.4700;-2.2800
1278.0530;-24.6500;-22.4000;-2.2500
1278.2520;-24.5800;-22.3100;-2.2700
1278.4510;-24.5200;-22.2300;-2.2900
1278.6500;-24.4900;-22.1600;-2.3300
1278.8500;-24.4700;-22.0700;-2.4000
1279.0490;-24.4600;-22.0000;-2.4600
1279.2480;-24.4800;-21.9200;-2.5600
1279.4470;-24.4700;-21.8400;-2.6300
1279.6460;-24.4800;-21.7700;-2.7100
1279.8450;-24.4800;-21.6800;-2.8000
1280.0440;-24.4800;-21.6200;-2.8600
1280.2430;-24.4800;-21.5400;-2.9400
1280.4430;-24.4600;-21.4600;-3.0000
1280.6420;-24.4500;-21.3900;-3.0600
1280.8410;-24.4100;-21.3100;-3.1000
1281.0400;-24.3600;-21.2400;-3.1200
1281.2390;-24.3300;-21.1600;-3.1700
1281.4380;-24.2700;-21.0800;-3.1900
1281.6370;-24.2300;-21.0100;-3.2200
1281.8360;-24.1700;-20.9300;-3.2400
1282.0350;-24.1200;-20.8700;-3.2500
1282.2350;-24.0900;-20.7800;-3.3100
1282.4340;-24.0500;-20.7100;-3.3400
1282.6330;-24.0600;-20.6500;-3.4100
1282.8320;-24.0500;-20.5800;-3.4700
1283.0310;-24.0700;-20.5200;-3.5500
1283.2300;-24.1200;-20.4500;-3.6700
1283.4290;-24.1800;-20.3900;-3.7900
1283.6280;-24.2800;-20.3200;-3.9600
1283.8270;-24.3800;-20.2600;-4.1200
1284.0270;-24.5200;-20.2100;-4.3100
1284.2260;-24.6800;-20.1400;-4.5400
1284.4250;-24.8700;-20.0900;-4.7800
1284.6240;-25.1100;-20.0300;-5.0800
1284.8230;-25.3500;-19.9700;-5.3800
1285.0220;-25.6300;-19.9300;-5.7000
1285.2210;-25.9400;-19.8600;-6.0800
1285.4200;-26.2700;-19.8100;-6.4600
1285.6200;-26.6400;-19.7500;-6.8900
1285.8190;-27.0000;-19.6900;-7.3100
1286.0180;-27.4000;-19.6500;-7.7500
1286.2170;-27.7900;-19.5800;-8.2100
1286.4160;-28.2700;-19.5400;-8.7300
1286.6150;-28.5800;-19.4900;-9.0900
1286.8140;-28.9000;-19.4300;-9.4700
1287.0130;-29.1800;-19.3900;-9.7900
1287.2120;-29.3500;-19.3300;-10.0200
1287.4120;-29.4200;-19.2900;-10.1300
1287.6110;-29.3500;-19.2300;-10.1200
1287.8100;-29.1500;-19.1800;-9.9700
1288.0090;-28.8400;-19.1400;-9.7000
1288.2080;-28.4200;-19.0800;-9.3400
1288.4070;-27.9300;-19.0500;-8.8800
1288.6060;-27.3800;-19.0000;-8.3800
1288.8050;-26.8000;-18.9600;-7.8400
1289.0040;-26.2200;-18.9200;-7.3000
1289.2040;-25.5300;-18.8700;-6.6600
1289.4030;-25.0700;-18.8500;-6.2200
1289.6020;-24.5100;-18.8000;-5.7100
1289.8010;-23.9900;-18.7600;-5.2300
1290.0000;-23.4700;-18.7200;-4.7500
1290.1990;-23.0000;-18.6800;-4.3200
1290.3980;-22.5500;-18.6600;-3.8900
1290.5970;-22.1200;-18.6200;-3.5000
1290.7970;-21.7300;-18.5900;-3.1400
1290.9960;-21.3400;-18.5300;-2.8100
1291.1950;-20.9900;-18.5000;-2.4900
1291.3940;-20.6800;-18.4700;-2.2100
1291.5930;-20.3700;-18.4100;-1.9600
1291.7920;-20.1200;-18.3900;-1.7300
1291.9910;-19.8800;-18.3400;-1.5400
1292.1900;-19.6700;-18.3100;-1.3600
1292.3890;-19.4800;-18.2700;-1.2100
1292.5890;-19.3100;-18.2200;-1.0900
1292.7880;-19.1900;-18.2000;-0.9900
1292.9870;-19.0700;-18.1500;-0.9200
1293.1860;-19.0000;-18.1300;-0.8700
1293.3850;-18.9400;-18.0900;-0.8500
1293.5840;-18.9000;-18.0500;-0.8500
1293.7830;-18.9000;-18.0200;-0.8800
1293.9820;-18.9100;-17.9900;-0.9200
1294.1810;-18.9700;-17.9700;-1.0000
1294.3810;-19.0300;-17.9300;-1.1000
1294.5800;-19.1200;-17.8900;-1.2300
1294.7790;-19.2500;-17.8700;-1.3800
1294.9780;-19.4000;-17.8400;-1.5600
1295.1770;-19.5900;-17.8200;-1.7700
1295.3760;-19.7800;-17.7900;-1.9900
1295.5750;-20.0100;-17.7600;-2.2500
1295.7740;-20.2700;-17.7300;-2.5400
1295.9740;-20.5600;-17.6900;-2.8700
1296.1730;-20.9000;-17.6800;-3.2200
1296.3720;-21.2400;-17.6500;-3.5900
1296.5710;-21.6300;-17.6300;-4.0000
1296.7700;-22.0600;-17.6000;-4.4600
1296.9690;-22.5200;-17.5800;-4.9400
1297.1680;-23.0300;-17.5700;-5.4600
1297.3670;-23.5700;-17.5500;-6.0200
1297.5660;-24.1400;-17.5300;-6.6100
1297.7660;-24.7600;-17.5100;-7.2500
1297.9650;-25.4100;-17.4900;-7.9200
1298.1640;-26.1100;-17.4800;-8.6300
1298.3630;-26.7900;-17.4700;-9.3200
1298.5620;-27.4900;-17.4600;-10.0300
1298.7610;-28.2600;-17.4400;-10.8200
1298.9600;-28.7100;-17.4400;-11.2700
1299.1590;-29.1100;-17.4300;-11.6800
1299.3580;-29.3200;-17.4200;-11.9000
1299.5580;-29.3000;-17.4200;-11.8800
1299.7570;-29.0400;-17.4100;-11.6300
1299.9560;-28.6100;-17.4100;-11.2000
1300.1550;-28.0400;-17.4000;-10.6400
1300.3540;-27.4000;-17.4000;-10.0000
1300.5530;-26.7300;-17.4000;-9.3300
1300.7520;-26.0600;-17.3900;-8.6700
1300.9510;-25.3100;-17.4000;-7.9100
1301.1500;-24.8000;-17.4000;-7.4000
1301.3500;-24.2300;-17.4000;-6.8300
1301.5490;-23.6800;-17.4100;-6.2700
1301.7480;-23.1800;-17.4100;-5.7700
1301.9470;-22.7100;-17.4200;-5.2900
1302.1460;-22.2800;-17.4200;-4.8600
1302.3450;-21.8900;-17.4300;-4.4600
1302.5440;-21.5200;-17.4300;-4.0900
1302.7430;-21.1800;-17.4300;-3.7500
1302.9430;-20.8700;-17.4400;-3.4300
1303.1420;-20.6000;-17.4400;-3.1600
1303.3410;-20.3500;-17.4600;-2.8900
1303.5400;-20.1200;-17.4600;-2.6600
1303.7390;-19.9100;-17.4600;-2.4500
1303.9380;-19.7300;-17.4700;-2.2600
1304.1370;-19.5700;-17.4800;-2.0900
1304.3360;-19.4500;-17.5000;-1.9500
1304.5350;-19.3300;-17.5000;-1.8300
1304.7350;-19.2300;-17.5100;-1.7200
1304.9340;-19.1500;-17.5200;-1.6300
1305.1330;-19.1000;-17.5300;-1.5700
1305.3320;-19.0700;-17.5500;-1.5200
1305.5310;-19.0500;-17.5600;-1.4900
1305.7300;-19.0700;-17.5800;-1.4900
1305.9290;-19.0800;-17.5800;-1.5000
1306.1280;-19.1300;-17.6000;-1.5300
1306.3270;-19.1900;-17.6100;-1.5800
1306.5270;-19.2800;-17.6300;-1.6500
1306.7260;-19.3900;-17.6500;-1.7400
1306.9250;-19.5000;-17.6500;-1.8500
1307.1240;-19.6500;-17.6800;-1.9700
1307.3230;-19.8200;-17.6900;-2.1300
1307.5220;-20.0200;-17.7100;-2.3100
1307.7210;-20.2400;-17.7400;-2.5000
1307.9200;-20.4700;-17.7500;-2.7200
1308.1200;-20.7500;-17.7900;-2.9600
1308.3190;-21.0500;-17.8000;-3.2500
1308.5180;-21.3700;-17.8400;-3.5300
1308.7170;-21.7400;-17.8800;-3.8600
1308.9160;-22.1100;-17.8900;-4.2200
1309.1150;-22.5500;-17.9400;-4.6100
1309.3140;-23.0100;-17.9600;-5.0500
1309.5130;-23.5100;-18.0100;-5.5000
1309.7120;-24.0500;-18.0500;-6.0000
1309.9120;-24.6100;-18.0700;-6.5400
1310.1110;-25.2300;-18.1300;-7.1000
1310.3100;-25.8700;-18.1600;-7.7100
1310.5090;-26.5500;-18.2100;-8.3400
1310.7080;-27.2900;-18.2500;-9.0400
1310.9070;-28.0000;-18.2900;-9.7100
1311.1060;-28.8700;-18.3500;-10.5200
1311.3050;-29.3800;-18.3800;-11.0000
1311.5040;-29.9400;-18.4500;-11.4900
1311.7040;-30.3000;-18.4800;-11.8200
1311.9030;-30.4600;-18.5300;-11.9300
1312.1020;-30.3900;-18.5800;-11.8100
1312.3010;-30.1000;-18.6300;-11.4700
1312.5000;-29.6700;-18.7000;-10.9700
1312.6990;-29.1100;-18.7400;-10.3700
1312.8980;-28.5200;-18.8000;-9.7200
1313.0970;-27.9100;-18.8500;-9.0600
1313.2970;-27.3000;-18.9000;-8.4000
1313.4960;-26.7600;-18.9800;-7.7800
1313.6950;-26.1200;-19.0300;-7.0900
1313.8940;-25.7300;-19.0900;-6.6400
1314.0930;-25.2800;-19.1400;-6.1400
1314.2920;-24.8900;-19.2000;-5.6900
1314.4910;-24.5200;-19.2700;-5.2500
1314.6900;-24.1900;-19.3200;-4.8700
1314.8890;-23.8900;-19.3800;-4.5100
1315.0890;-23.6300;-19.4300;-4.2000
1315.2880;-23.4100;-19.5000;-3.9100
1315.4870;-23.2100;-19.5500;-3.6600
1315.6860;-23.0400;-19.6100;-3.4300
1315.8850;-22.8900;-19.6700;-3.2200
1316.0840;-22.7800;-19.7300;-3.0500
1316.2830;-22.7000;-19.8000;-2.9000
1316.4820;-22.6300;-19.8500;-2.7800
1316.6810;-22.5900;-19.9200;-2.6700
1316.8810;-22.5600;-19.9800;-2.5800
1317.0800;-22.5700;-20.0500;-2.5200
1317.2790;-22.5900;-20.1200;-2.4700
1317.4780;-22.6300;-20.1900;-2.4400
1317.6770;-22.6900;-20.2600;-2.4300
1317.8760;-22.7400;-20.3200;-2.4200
1318.0750;-22.8300;-20.3900;-2.4400
1318.2740;-22.9200;-20.4600;-2.4600
1318.4740;-23.0300;-20.5300;-2.5000
1318.6730;-23.1600;-20.6200;-2.5400
1318.8720;-23.2800;-20.6800;-2.6000
1319.0710;-23.4300;-20.7800;-2.6500
1319.2700;-23.5700;-20.8500;-2.7200
1319.4690;-23.7200;-20.9300;-2.7900
1319.6680;-23.9000;-21.0200;-2.8800
1319.8670;-24.0500;-21.1000;-2.9500
1320.0660;-24.2300;-21.2000;-3.0300
1320.2660;-24.3800;-21.2800;-3.1000
1320.4650;-24.5500;-21.3700;-3.1800
1320.6640;-24.7300;-21.4700;-3.2600
1320.8630;-24.8800;-21.5600;-3.3200
1321.0620;-25.0500;-21.6600;-3.3900
1321.2610;-25.1900;-21.7500;-3.4400
1321.4600;-25.3400;-21.8600;-3.4800
1321.6590;-25.4700;-21.9500;-3.5200
1321.8580;-25.6000;-22.0500;-3.5500
1322.0580;-25.7300;-22.1600;-3.5700
1322.2570;-25.8300;-22.2600;-3.5700
1322.4560;-25.9400;-22.3700;-3.5700
1322.6550;-26.0200;-22.4700;-3.5500
1322.8540;-26.1100;-22.5900;-3.5200
1323.0530;-26.1900;-22.6900;-3.5000
1323.2520;-26.2500;-22.8100;-3.4400
1323.4510;-26.3200;-22.9200;-3.4000
1323.6500;-26.3600;-23.0300;-3.3300
1323.8500;-26.4200;-23.1600;-3.2600
1324.0490;-26.4700;-23.2700;-3.2000
1324.2480;-26.5000;-23.4000;-3.1000
1324.4470;-26.5600;-23.5100;-3.0500
1324.6460;-26.5900;-23.6300;-2.9600
1324.8450;-26.6300;-23.7600;-2.8700
1325.0440;-26.6700;-23.8700;-2.8000
1325.2430;-26.7100;-24.0100;-2.7000
1325.4430;-26.7700;-24.1200;-2.6500
1325.6420;-26.8200;-24.2600;-2.5600
1325.8410;-26.8700;-24.3900;-2.4800
1326.0400;-26.9200;-24.5200;-2.4000
1326.2390;-26.9800;-24.6500;-2.3300
1326.4380;-27.0500;-24.7800;-2.2700
1326.6370;-27.1000;-24.9100;-2.1900
1326.8360;-27.1900;-25.0400;-2.1500
1327.0350;-27.2600;-25.1800;-2.0800
1327.2350;-27.3500;-25.3200;-2.0300
1327.4340;-27.4400;-25.4500;-1.9900
1327.6330;-27.5300;-25.6000;-1.9300
1327.8320;-27.6400;-25.7200;-1.9200
1328.0310;-27.7400;-25.8700;-1.8700
1328.2300;-27.8700;-26.0100;-1.8600
1328.4290;-27.9800;-26.1500;-1.8300
1328.6280;-28.1100;-26.3000;-1.8100
1328.8270;-28.2600;-26.4400;-1.8200
1329.0270;-28.4000;-26.6000;-1.8000
1329.2260;-28.6000;-26.7300;-1.8700
1329.4250;-28.7300;-26.8900;-1.8400
1329.6240;-28.9100;-27.0300;-1.8800
1329.8230;-29.0800;-27.1700;-1.9100
1330.0220;-29.2800;-27.3300;-1.9500
1330.2210;-29.4900;-27.4700;-2.0200
1330.4200;-29.7100;-27.6300;-2.0800
1330.6200;-29.9600;-27.7700;-2.1900
1330.8190;-30.2100;-27.9200;-2.2900
1331.0180;-30.4900;-28.0700;-2.4200
1331.2170;-30.7800;-28.2300;-2.5500
1331.4160;-31.0900;-28.3900;-2.7000
1331.6150;-31.4400;-28.5700;-2.8700
1331.8140;-31.7900;-28.7100;-3.0800
1332.0130;-32.1800;-28.8500;-3.3300
1332.2120;-32.5800;-29.0200;-3.5600
1332.4120;-33.0200;-29.1700;-3.8500
1332.6110;-33.5000;-29.3400;-4.1600
1332.8100;-34.0000;-29.5000;-4.5000
1333.0090;-34.5500;-29.6600;-4.8900
1333.2080;-35.1100;-29.8300;-5.2800
1333.4070;-35.7300;-29.9800;-5.7500
1333.6060;-36.3800;-30.1500;-6.2300
1333.8050;-37.0700;-30.3100;-6.7600
1334.0040;-37.8200;-30.4700;-7.3500
1334.2040;-38.7400;-30.6500;-8.0900
1334.4030;-39.3900;-30.8100;-8.5800
1334.6020;-40.1700;-30.9800;-9.1900
1334.8010;-40.9400;-31.1500;-9.7900
1335.0000;-41.6400;-31.3200;-10.3200
1335.1990;-42.2100;-31.4900;-10.7200
1335.3980;-42.6100;-31.6600;-10.9500
1335.5970;-42.8000;-31.8500;-10.9500
1335.7970;-42.7900;-32.0200;-10.7700
1335.9960;-42.5700;-32.2100;-10.3600
1336.1950;-42.2200;-32.3800;-9.8400
1336.3940;-41.7700;-32.5600;-9.2100
1336.5930;-41.3000;-32.7400;-8.5600
1336.7920;-40.8300;-32.9100;-7.9200
1336.9910;-40.3700;-33.1000;-7.2700
1337.1900;-39.9700;-33.2800;-6.6900
1337.3890;-39.5900;-33.4700;-6.1200
1337.5890;-39.2600;-33.6500;-5.6100
1337.7880;-39.0000;-33.8300;-5.1700
1337.9870;-38.7600;-34.0300;-4.7300
1338.1860;-38.6000;-34.2000;-4.4000
1338.3850;-38.4500;-34.3900;-4.0600
1338.5840;-38.3600;-34.5700;-3.7900
1338.7830;-38.3100;-34.7500;-3.5600
1338.9820;-38.3000;-34.9500;-3.3500
1339.1810;-38.3500;-35.1300;-3.2200
1339.3810;-38.4200;-35.3200;-3.1000
1339.5800;-38.5500;-35.4900;-3.0600
1339.7790;-38.6900;-35.6800;-3.0100
1339.9780;-38.8900;-35.8700;-3.0200
1340.1770;-39.1200;-36.0500;-3.0700
1340.3760;-39.3800;-36.2600;-3.1200
1340.5750;-39.7000;-36.4400;-3.2600
1340.7740;-40.0200;-36.6300;-3.3900
1340.9740;-40.3700;-36.8100;-3.5600
1341.1730;-40.7600;-36.9900;-3.7700
1341.3720;-41.1800;-37.1800;-4.0000
1341.5710;-41.6300;-37.3700;-4.2600
1341.7700;-42.0900;-37.5600;-4.5300
1341.9690;-42.5900;-37.7300;-4.8600
1342.1680;-43.0800;-37.9300;-5.1500
1342.3670;-43.5900;-38.1100;-5.4800
1342.5660;-44.1100;-38.2900;-5.8200
1342.7660;-44.6200;-38.5300;-6.0900
1342.9650;-45.1300;-38.6900;-6.4400
1343.1640;-45.6100;-38.8900;-6.7200
1343.3630;-46.0500;-39.0700;-6.9800
1343.5620;-46.4600;-39.2600;-7.2000
1343.7610;-46.8200;-39.4500;-7.3700
1343.9600;-47.1500;-39.6500;-7.5000
1344.1590;-47.4000;-39.8600;-7.5400
1344.3580;-47.6000;-40.0500;-7.5500
1344.5580;-47.7500;-40.2500;-7.5000
1344.7570;-47.8500;-40.4400;-7.4100
1344.9560;-47.9100;-40.6300;-7.2800
1345.1550;-47.9300;-40.8200;-7.1100
1345.3540;-47.9400;-41.0000;-6.9400
1345.5530;-47.9200;-41.2000;-6.7200
1345.7520;-47.9000;-41.3800;-6.5200
1345.9510;-47.8900;-41.5800;-6.3100
1346.1500;-47.8600;-41.7800;-6.0800
1346.3500;-47.8500;-41.9700;-5.8800
1346.5490;-47.8400;-42.1900;-5.6500
1346.7480;-47.8300;-42.3700;-5.4600
1346.9470;-47.8200;-42.5600;-5.2600
1347.1460;-47.8100;-42.7500;-5.0600
1347.3450;-47.8300;-42.9200;-4.9100
1347.5440;-47.8800;-43.1600;-4.7200
1347.7430;-47.9700;-43.3900;-4.5800
1347.9430;-48.0200;-43.6200;-4.4000
1348.1420;-48.0600;-43.8000;-4.2600
1348.3410;-48.1300;-44.0000;-4.1300
1348.5400;-48.1500;-44.1600;-3.9900
1348.7390;-48.2300;-44.3400;-3.8900
1348.9380;-48.2700;-44.5200;-3.7500
1349.1370;-48.3300;-44.6800;-3.6500
1349.3360;-48.4000;-44.8500;-3.5500
1349.5350;-48.5000;-45.0200;-3.4800
1349.7350;-48.5600;-45.1900;-3.3700
1349.9340;-48.6500;-45.3800;-3.2700
1350.1330;-48.7900;-45.5800;-3.2100
1350.3320;-48.9500;-45.8400;-3.1100
1350.5310;-49.1000;-46.0500;-3.0500
1350.7300;-49.1900;-46.2300;-2.9600
1350.9290;-49.2600;-46.4000;-2.8600
1351.1280;-49.3200;-46.5200;-2.8000
1351.3270;-49.4000;-46.7000;-2.7000
1351.5270;-49.5200;-46.8700;-2.6500
1351.7260;-49.6800;-47.1200;-2.5600
1351.9250;-49.8000;-47.3100;-2.4900
1352.1240;-49.9000;-47.4900;-2.4100
1352.3230;-50.0200;-47.6800;-2.3400
1352.5220;-50.1600;-47.8800;-2.2800
1352.7210;-50.2500;-48.0500;-2.2000
1352.9200;-50.3600;-48.2000;-2.1600
1353.1200;-50.5600;-48.5500;-2.0100
1353.3190;-50.6200;-48.5900;-2.0300
1353.5180;-50.7500;-48.7700;-1.9800
1353.7170;-50.9000;-48.9500;-1.9500
1353.9160;-50.9800;-49.0600;-1.9200
1354.1150;-51.1100;-49.2200;-1.8900
1354.3140;-51.3300;-49.4500;-1.8800
1354.5130;-51.5100;-49.6500;-1.8600
1354.7120;-51.8300;-49.9600;-1.8700
1354.9120;-52.1500;-50.2500;-1.9000
1355.1110;-52.3500;-50.4400;-1.9100
1355.3100;-52.5300;-50.5700;-1.9600
1355.5090;-52.5700;-50.5900;-1.9800
1355.7080;-52.8800;-50.8500;-2.0300
1355.9070;-53.2100;-51.1300;-2.0800
1356.1060;-53.4500;-51.3000;-2.1500
1356.3050;-53.6300;-51.3900;-2.2400
1356.5040;-53.8200;-51.5200;-2.3000
1356.7040;-53.8300;-51.4300;-2.4000
1356.9030;-54.0600;-51.6000;-2.4600
1357.1020;-54.5100;-51.9700;-2.5400
1357.3010;-54.8300;-52.2100;-2.6200
1357.5000;-55.1000;-52.4000;-2.7000
1357.6990;-55.3900;-52.5900;-2.8000
1357.8980;-55.5100;-52.6600;-2.8500
1358.0970;-55.6300;-52.7300;-2.9000
1358.2970;-55.8700;-52.9200;-2.9500
1358.4960;-56.1400;-53.1500;-2.9900
1358.6950;-56.3200;-53.3000;-3.0200
1358.8940;-56.4800;-53.4700;-3.0100
1359.0930;-56.6400;-53.6300;-3.0100
1359.2920;-56.6700;-53.6900;-2.9800
1359.4910;-57.0300;-54.0700;-2.9600
1359.6900;-57.3000;-54.3800;-2.9200
1359.8890;-57.4400;-54.5800;-2.8600
1360.0890;-57.4700;-54.6600;-2.8100
1360.2880;-57.4200;-54.7100;-2.7100
1360.4870;-57.3500;-54.7000;-2.6500
1360.6860;-57.4400;-54.8900;-2.5500
1360.8850;-57.7200;-55.2300;-2.4900
1361.0840;-57.9400;-55.5400;-2.4000
1361.2830;-58.0300;-55.7200;-2.3100
1361.4820;-58.1400;-55.9000;-2.2400
1361.6810;-58.2800;-56.1400;-2.1400
1361.8810;-58.3500;-56.2800;-2.0700
1362.0800;-58.5500;-56.5200;-2.0300
1362.2790;-58.9100;-56.9500;-1.9600
1362.4780;-59.1000;-57.1900;-1.9100
1362.6770;-59.1800;-57.3600;-1.8200
1362.8760;-59.0500;-57.2600;-1.7900
1363.0750;-58.9700;-57.2300;-1.7400
1363.2740;-58.7200;-57.0100;-1.7100
1363.4740;-58.7800;-57.1000;-1.6800
1363.6730;-58.8800;-57.2000;-1.6800
1363.8720;-59.0300;-57.3700;-1.6600
1364.0710;-59.2500;-57.6000;-1.6500
1364.2700;-59.4800;-57.8100;-1.6700
1364.4690;-59.8100;-58.1500;-1.6600
1364.6680;-60.3700;-58.7300;-1.6400
1364.8670;-60.6200;-58.9500;-1.6700
1365.0660;-60.6500;-58.9300;-1.7200
1365.2660;-60.9000;-59.1400;-1.7600
1365.4650;-60.8800;-59.0900;-1.7900
1365.6640;-61.0100;-59.1700;-1.8400
1365.8630;-61.1400;-59.2500;-1.8900
1366.0620;-61.1900;-59.2700;-1.9200
1366.2610;-61.2500;-59.3000;-1.9500
1366.4600;-61.3700;-59.3800;-1.9900
1366.6590;-61.6100;-59.5700;-2.0400
1366.8580;-61.9100;-59.8400;-2.0700
1367.0580;-62.1000;-59.9800;-2.1200
1367.2570;-62.2300;-60.1200;-2.1100
1367.4560;-62.5500;-60.4100;-2.1400
1367.6550;-62.7900;-60.6300;-2.1600
1367.8540;-63.1200;-60.9300;-2.1900
1368.0530;-63.3200;-61.0900;-2.2300
1368.2520;-63.3300;-61.0900;-2.2400
1368.4510;-63.7300;-61.4300;-2.3000
1368.6500;-63.8100;-61.5800;-2.2300
1368.8500;-63.9800;-61.7000;-2.2800
1369.0490;-64.0000;-61.7400;-2.2600
1369.2480;-64.0100;-61.7400;-2.2700
1369.4470;-63.9000;-61.6700;-2.2300
1369.6460;-64.0600;-61.8400;-2.2200
1369.8450;-64.4300;-62.2100;-2.2200
1370.0440;-64.6500;-62.4200;-2.2300
1370.2430;-64.8300;-62.6000;-2.2300
1370.4430;-64.9100;-62.6800;-2.2300
1370.6420;-65.0100;-62.7500;-2.2600
1370.8410;-65.4200;-63.1200;-2.3000
1371.0400;-65.7500;-63.4200;-2.3300
1371.2390;-65.9800;-63.6400;-2.3400
1371.4380;-66.1400;-63.7700;-2.3700
1371.6370;-66.1800;-63.7600;-2.4200
1371.8360;-66.2700;-63.7400;-2.5300
1372.0350;-66.5900;-63.9900;-2.6000
1372.2350;-66.9900;-64.2600;-2.7300
1372.4340;-67.2900;-64.4200;-2.8700
1372.6330;-67.5100;-64.5300;-2.9800
1372.8320;-67.7300;-64.6600;-3.0700
1373.0310;-67.9100;-64.7000;-3.2100
1373.2300;-68.3300;-64.9000;-3.4300
1373.4290;-68.8300;-65.1500;-3.6800
1373.6280;-69.1900;-65.3400;-3.8500
1373.8270;-69.6300;-65.5100;-4.1200
1374.0270;-70.1900;-65.6200;-4.5700
1374.2260;-70.5100;-65.8200;-4.6900
1374.4250;-71.0900;-66.0600;-5.0300
1374.6240;-71.6900;-66.2300;-5.4600
1374.8230;-72.3000;-66.5400;-5.7600
1375.0220;-72.9400;-66.6900;-6.2500
1375.2210;-73.2700;-66.8700;-6.4000
1375.4200;-73.7500;-67.0300;-6.7200
1375.6200;-74.8900;-67.2300;-7.6600
1375.8190;-75.1700;-67.3400;-7.8300
1376.0180;-75.4200;-67.5500;-7.8700
1376.2170;-75.9800;-67.7200;-8.2600
1376.4160;-76.4400;-68.0100;-8.4300
1376.6150;-76.4500;-68.2900;-8.1600
1376.8140;-77.5000;-68.4400;-9.0600
1377.0130;-77.6700;-68.7600;-8.9100
1377.2120;-78.0500;-69.0800;-8.9700
1377.4120;-77.2500;-69.1500;-8.1000
1377.6110;-76.8800;-69.2500;-7.6300
1377.8100;-76.5700;-69.2800;-7.2900
1378.0090;-76.2700;-69.4300;-6.8400
1378.2080;-76.3000;-69.6300;-6.6700
1378.4070;-76.1400;-69.8500;-6.2900
1378.6060;-75.8100;-70.2800;-5.5300
1378.8050;-75.6600;-70.5400;-5.1200
1379.0040;-75.7800;-70.5900;-5.1900
1379.2040;-75.0700;-70.8700;-4.2000
1379.4030;-74.6500;-71.0200;-3.6300
1379.6020;-74.7500;-70.7300;-4.0200
1379.8010;-74.2400;-71.0400;-3.2000
1380.0000;-74.5700;-71.3100;-3.2600
1380.1990;-74.2100;-71.4500;-2.7600
1380.3980;-74.2400;-71.7300;-2.5100
1380.5970;-74.4700;-72.3200;-2.1500
1380.7970;-74.7700;-72.8500;-1.9200
1380.9960;-75.4300;-72.8900;-2.5400
1381.1950;-75.1600;-72.9500;-2.2100
1381.3940;-74.6600;-72.7500;-1.9100
1381.5930;-74.2800;-72.4600;-1.8200
1381.7920;-74.5100;-72.6100;-1.9000
1381.9910;-74.4900;-72.7200;-1.7700
1382.1900;-74.9700;-72.7500;-2.2200
1382.3890;-75.0300;-73.4100;-1.6200
1382.5890;-76.7800;-73.4600;-3.3200
1382.7880;-76.2200;-74.4200;-1.8000
1382.9870;-77.0900;-74.7300;-2.3600
1383.1860;-77.9700;-74.9500;-3.0200
1383.3850;-77.1600;-74.2800;-2.8800
1383.5840;-77.0500;-74.1500;-2.9000
1383.7830;-76.9500;-73.7600;-3.1900
1383.9820;-77.1300;-74.1100;-3.0200
1384.1810;-78.8500;-74.2600;-4.5900
1384.3810;-78.7300;-74.3000;-4.4300
1384.5800;-79.1900;-74.0300;-5.1600
1384.7790;-79.4200;-74.1000;-5.3200
1384.9780;-81.5300;-74.8900;-6.6400
1385.1770;-80.8700;-74.7000;-6.1700
1385.3760;-82.9300;-75.1300;-7.8000
1385.5750;-81.4200;-75.0800;-6.3400
1385.7740;-81.9900;-75.3000;-6.6900
1385.9740;-82.5000;-75.3000;-7.2000
1386.1730;-81.0200;-75.3000;-5.7200
1386.3720;-82.3600;-74.9700;-7.3900
1386.5710;-83.2400;-75.3200;-7.9200
1386.7700;-85.5100;-75.0900;-10.4200
1386.9690;-84.8800;-75.1400;-9.7400
1387.1680;-84.8800;-75.7600;-9.1200
1387.3670;-83.6600;-75.5900;-8.0700
1387.5660;-80.4700;-76.0100;-4.4600
1387.7660;-82.5000;-75.9100;-6.5900
1387.9650;-84.4300;-76.4800;-7.9500
1388.1640;-85.5100;-76.9800;-8.5300
1388.3630;-83.0800;-76.8100;-6.2700
1388.5620;-83.0800;-76.5500;-6.5300
1388.7610;-80.7800;-77.0200;-3.7600
1388.9600;-81.6400;-76.8100;-4.8300
1389.1590;-84.0300;-76.3100;-7.7200
1389.3580;-85.5100;-76.5800;-8.9300
1389.5580;-82.1100;-76.6900;-5.4200
1389.7570;-83.2400;-77.7000;-5.5400
1389.9560;-82.3600;-77.7000;-4.6600
1390.1550;-81.8700;-76.6900;-5.1800
1390.3540;-82.1100;-76.5600;-5.5500
1390.5530;-83.3200;-76.6500;-6.6700
1390.7520;-82.7800;-76.8900;-5.8900
1390.9510;-81.5300;-76.6500;-4.8800
1391.1500;-83.4800;-78.2300;-5.2500
1391.3500;-82.7100;-76.9400;-5.7700
1391.5490;-83.2500;-77.5600;-5.6900
1391.7480;-82.3700;-77.1100;-5.2600
1391.9470;-86.2600;-77.0300;-9.2300
1392.1460;-81.8800;-77.1800;-4.7000
1392.3450;-80.9800;-77.4700;-3.5100
1392.5440;-81.7000;-78.4200;-3.2800
1392.7430;-80.9800;-79.2700;-1.7100
1392.9430;-88.0200;-78.4700;-9.5500
1393.1420;-82.5100;-77.7100;-4.8000
1393.3410;-84.1300;-77.8300;-6.3000
1393.5400;-81.5900;-77.7400;-3.8500
1393.7390;-84.3400;-77.4900;-6.8500
1393.9380;-82.3100;-78.6400;-3.6700
1394.1370;-81.2800;-78.6700;-2.6100
1394.3360;-86.4200;-78.6900;-7.7300
1394.5350;-83.5800;-78.3200;-5.2600
1394.7350;-83.2500;-77.3900;-5.8600
1394.9340;-81.5400;-78.1600;-3.3800
1395.1330;-91.0300;-78.2600;-12.7700
1395.3320;-83.0100;-78.8400;-4.1700
1395.5310;-82.1200;-79.2300;-2.8900
1395.7300;-82.1200;-78.9900;-3.1300
1395.9290;-82.1800;-78.3200;-3.8600
1396.1280;-81.4800;-77.9700;-3.5100
1396.3270;-81.9400;-77.6200;-4.3200
1396.5270;-81.0800;-78.4200;-2.6600
1396.7260;-81.7000;-79.5000;-2.2000
1396.9250;-81.8200;-79.7100;-2.1100
1397.1240;-82.8600;-79.3600;-3.5000
1397.3230;-82.2400;-79.4300;-2.8100
1397.5220;-82.5100;-79.1700;-3.3400
1397.7210;-81.8200;-78.9900;-2.8300
1397.9200;-81.4300;-78.3900;-3.0400
1398.1200;-82.9400;-77.4300;-5.5100
1398.3190;-83.0900;-77.8700;-5.2200
1398.5180;-82.3200;-79.0000;-3.3200
1398.7170;-80.8500;-78.3800;-2.4700
1398.9160;-84.1400;-78.3500;-5.7900
1399.1150;-81.7100;-78.6500;-3.0600
1399.3140;-80.5400;-79.2100;-1.3300
1399.5130;-81.5500;-78.3800;-3.1700
1399.7120;-81.7700;-79.8600;-1.9100
1399.9120;-82.2500;-80.3300;-1.9200
1400.1110;-85.8100;-80.0100;-5.8000
1400.3100;-82.5200;-78.5400;-3.9800
1400.5090;-83.3400;-79.0000;-4.3400
1400.7080;-85.2600;-78.7000;-6.5600
1400.9070;-85.5300;-79.6100;-5.9200
1401.1060;-82.7300;-78.0300;-4.7000
1401.3050;-84.7800;-79.8600;-4.9200
1401.5040;-81.9500;-79.0600;-2.8900
1401.7040;-82.0100;-79.6800;-2.3300
1401.9030;-83.4200;-80.4100;-3.0100
1402.1020;-83.1000;-80.0900;-3.0100
1402.3010;-83.9500;-80.4900;-3.4600
1402.5000;-80.4100;-78.1500;-2.2600
1402.6990;-80.7600;-79.9000;-0.8600
1402.8980;-81.0900;-78.7600;-2.3300
1403.0970;-84.4500;-78.4800;-5.9700
1403.2970;-85.5300;-79.0300;-6.5000
1403.4960;-84.1400;-79.9300;-4.2100
1403.6950;-82.2500;-79.0000;-3.2500
1403.8940;-83.7700;-79.7200;-4.0500
1404.0930;-83.1000;-79.5100;-3.5900
1404.2920;-84.0500;-80.7100;-3.3400
1404.4910;-81.8900;-78.5400;-3.3500
1404.6900;-81.8900;-79.6500;-2.2400
1404.8890;-83.2600;-78.4800;-4.7800
1405.0890;-83.2600;-81.1800;-2.0800
1405.2880;-81.5500;-79.9000;-1.6500
1405.4870;-80.7600;-80.0500;-0.7100
1405.6860;-83.6800;-79.7200;-3.9600
1405.8850;-82.4500;-78.6500;-3.8000
1406.0840;-83.2600;-78.9700;-4.2900
1406.2830;-92.1300;-79.0600;-13.0700
1406.4820;-82.5200;-79.2100;-3.3100
1406.6810;-81.5600;-79.3500;-2.2100
1406.8810;-81.7800;-78.9200;-2.8600
1407.0800;-82.2600;-78.3600;-3.9000
1407.2790;-82.5300;-80.1000;-2.4300
1407.4780;-83.7800;-80.9500;-2.8300
1407.6770;-84.5700;-79.2500;-5.3200
1407.8760;-84.6800;-79.5200;-5.1600
1408.0750;-82.8100;-78.9500;-3.8600
1408.2740;-81.7200;-79.2500;-2.4700
1408.4740;-81.7800;-78.1300;-3.6500
1408.6730;-82.0200;-78.8300;-3.1900
1408.8720;-83.6000;-78.4400;-5.1600
1409.0710;-80.5500;-78.9200;-1.6300
1409.2700;-82.9600;-78.4400;-4.5200
1409.4690;-84.4600;-80.3800;-4.0800
1409.6680;-82.8100;-80.0200;-2.7900
1409.8670;-82.1400;-79.5200;-2.6200
1410.0660;-80.7700;-79.2200;-1.5500
1410.2660;-86.2800;-78.2600;-8.0200
1410.4650;-85.0300;-79.5200;-5.5100
1410.6640;-83.1100;-79.0100;-4.1000
1410.8630;-82.4600;-78.6900;-3.7700
1411.0620;-82.0200;-78.8000;-3.2200
1411.2610;-83.5100;-79.6600;-3.8500
1411.4600;-81.1400;-78.8000;-2.3400
1411.6590;-81.8400;-78.2600;-3.5800
1411.8580;-83.7800;-78.1300;-5.6500
1412.0580;-83.7800;-77.9600;-5.8200
1412.2570;-82.3900;-78.0900;-4.3000
1412.4560;-83.8700;-78.8600;-5.0100
1412.6550;-80.5500;-78.0400;-2.5100
1412.8540;-81.4500;-79.4800;-1.9700
1413.0530;-80.9000;-78.7100;-2.1900
1413.2520;-82.9600;-78.5500;-4.4100
1413.4510;-83.4300;-77.6700;-5.7600
1413.6500;-86.8000;-78.5000;-8.3000
1413.8500;-82.3400;-78.1700;-4.1700
1414.0490;-83.4400;-78.6700;-4.7700
1414.2480;-81.5700;-79.2600;-2.3100
1414.4470;-85.5500;-78.9900;-6.5600
1414.6460;-84.1600;-79.7400;-4.4200
1414.8450;-83.6100;-79.4600;-4.1500
1415.0440;-82.2700;-78.4500;-3.8200
1415.2430;-82.2100;-78.6700;-3.5400
1415.4430;-84.1600;-79.2300;-4.9300
1415.6420;-86.1300;-78.9000;-7.2300
1415.8410;-81.3600;-78.7200;-2.6400
1416.0400;-81.3600;-78.1400;-3.2200
1416.2390;-81.7900;-78.7200;-3.0700
1416.4380;-83.4400;-78.1900;-5.2500
1416.6370;-82.2100;-78.9000;-3.3100
1416.8360;-83.6100;-79.7000;-3.9100
1417.0350;-84.9200;-78.8400;-6.0800
1417.2350;-82.5400;-77.8800;-4.6600
1417.4340;-80.7800;-77.4600;-3.3200
1417.6330;-83.8800;-78.1200;-5.7600
1417.8320;-83.1200;-78.0000;-5.1200
1418.0310;-81.4600;-77.4200;-4.0400
1418.2300;-81.0600;-77.8100;-3.2500
1418.4290;-83.0400;-78.2400;-4.8000
1418.6280;-81.2500;-77.6800;-3.5700
1418.8270;-82.8200;-78.6100;-4.2100
1419.0270;-80.7300;-79.1400;-1.5900
1419.2260;-81.4600;-78.0500;-3.4100
1419.4250;-80.9600;-78.6700;-2.2900
1419.6240;-83.0400;-78.6100;-4.4300
1419.8230;-85.1600;-78.0500;-7.1100
1420.0220;-85.5500;-78.4500;-7.1000
1420.2210;-83.2800;-78.1000;-5.1800
1420.4200;-83.2800;-78.2400;-5.0400
1420.6200;-82.5400;-77.5500;-4.9900
1420.8190;-82.7500;-78.4800;-4.2700
1421.0180;-80.7800;-78.0200;-2.7600
1421.2170;-81.3600;-78.1000;-3.2600
1421.4160;-81.9100;-78.2200;-3.6900
1421.6150;-80.4000;-78.5700;-1.8300
1421.8140;-82.5500;-77.9400;-4.6100
1422.0130;-83.9800;-77.7800;-6.2000
1422.2120;-80.7000;-78.4600;-2.2400
1422.4120;-82.2200;-77.6900;-4.5300
1422.6110;-81.2600;-78.1500;-3.1100
1422.8100;-82.5500;-77.7100;-4.8400
1423.0090;-82.1000;-78.6200;-3.4800
1423.2080;-81.5200;-78.1100;-3.4100
1423.4070;-83.6200;-77.8700;-5.7500
1423.6060;-81.9800;-78.4600;-3.5200
1423.8050;-81.3200;-78.1100;-3.2100
1424.0040;-84.8100;-78.2000;-6.6100
1424.2040;-85.5600;-78.8200;-6.7400
1424.4030;-83.7100;-78.7900;-4.9200
1424.6020;-81.0700;-77.9600;-3.1100
1424.8010;-80.5200;-77.0900;-3.4300
1425.0000;-81.5800;-77.1900;-4.3900
