Wavelength;Intensity_Meas;Intensity_Ref;Difference_dB
1200.0000;-61.4800;-57.3300;-4.1500
1200.1990;-61.4300;-57.3100;-4.1200
1200.3980;-61.3900;-57.2900;-4.1000
1200.5970;-61.3500;-57.2600;-4.0900
1200.7970;-61.3000;-57.2100;-4.0900
1200.9960;-61.2800;-57.2000;-4.0800
1201.1950;-61.2100;-57.1800;-4.0300
1201.3940;-61.2200;-57.1100;-4.1100
1201.5930;-61.2100;-57.0700;-4.1400
1201.7920;-61.1600;-57.0200;-4.1400
1201.9910;-61.1300;-56.9800;-4.1500
1202.1900;-61.0900;-56.9500;-4.1400
1202.3890;-61.1000;-56.8700;-4.2300
1202.5890;-61.0700;-56.8000;-4.2700
1202.7880;-61.0400;-56.7800;-4.2600
1202.9870;-61.0300;-56.7300;-4.3000
1203.1860;-61.0200;-56.6800;-4.3400
1203.3850;-61.0200;-56.6000;-4.4200
1203.5840;-60.9700;-56.5700;-4.4000
1203.7830;-60.9200;-56.5400;-4.3800
1203.9820;-60.9400;-56.4900;-4.4500
1204.1810;-60.9200;-56.4500;-4.4700
1204.3810;-60.9000;-56.3900;-4.5100
1204.5800;-60.8700;-56.3900;-4.4800
1204.7790;-60.8300;-56.3700;-4.4600
1204.9780;-60.8800;-56.3100;-4.5700
1205.1770;-60.8300;-56.2800;-4.5500
1205.3760;-60.8100;-56.2700;-4.5400
1205.5750;-60.7900;-56.2500;-4.5400
1205.7740;-60.7900;-56.2300;-4.5600
1205.9740;-60.7800;-56.2100;-4.5700
1206.1730;-60.7000;-56.2000;-4.5000
1206.3720;-60.6500;-56.1800;-4.4700
1206.5710;-60.6400;-56.1600;-4.4800
1206.7700;-60.5800;-56.1400;-4.4400
1206.9690;-60.5100;-56.1000;-4.4100
1207.1680;-60.4400;-56.1000;-4.3400
1207.3670;-60.3600;-56.0800;-4.2800
1207.5660;-60.3200;-56.0200;-4.3000
1207.7660;-60.2400;-56.0100;-4.2300
1207.9650;-60.1600;-55.9800;-4.1800
1208.1640;-60.0900;-55.9400;-4.1500
1208.3630;-60.0400;-55.8900;-4.1500
1208.5620;-59.9900;-55.8600;-4.1300
1208.7610;-59.8900;-55.8300;-4.0600
1208.9600;-59.8400;-55.7800;-4.0600
1209.1590;-59.7900;-55.7300;-4.0600
1209.3580;-59.7300;-55.6600;-4.0700
1209.5580;-59.6700;-55.6200;-4.0500
1209.7570;-59.6000;-55.6000;-4.0000
1209.9560;-59.5900;-55.5300;-4.0600
1210.1550;-59.5500;-55.4600;-4.0900
1210.3540;-59.4900;-55.4200;-4.0700
1210.5530;-59.4700;-55.3900;-4.0800
1210.7520;-59.4400;-55.3400;-4.1000
1210.9510;-59.4300;-55.2800;-4.1500
1211.1500;-59.3700;-55.2400;-4.1300
1211.3500;-59.3200;-55.2000;-4.1200
1211.5490;-59.3300;-55.1800;-4.1500
1211.7480;-59.3200;-55.1500;-4.1700
1211.9470;-59.2800;-55.0800;-4.2000
1212.1460;-59.2400;-55.0700;-4.1700
1212.3450;-59.2200;-55.0500;-4.1700
1212.5440;-59.2700;-55.0100;-4.2600
1212.7430;-59.2300;-54.9800;-4.2500
1212.9430;-59.1700;-54.9500;-4.2200
1213.1420;-59.1700;-54.9200;-4.2500
1213.3410;-59.2000;-54.8900;-4.3100
1213.5400;-59.1700;-54.8700;-4.3000
1213.7390;-59.1200;-54.8500;-4.2700
1213.9380;-59.1300;-54.8000;-4.3300
1214.1370;-59.1300;-54.7900;-4.3400
1214.3360;-59.1100;-54.7300;-4.3800
1214.5350;-59.0800;-54.7000;-4.3800
1214.7350;-59.0400;-54.6800;-4.3600
1214.9340;-59.0500;-54.6300;-4.4200
1215.1330;-59.0200;-54.5800;-4.4400
1215.3320;-58.9500;-54.5300;-4.4200
1215.5310;-58.9300;-54.4900;-4.4400
1215.7300;-58.9200;-54.4500;-4.4700
1215.9290;-58.8900;-54.3900;-4.5000
1216.1280;-58.8400;-54.3300;-4.5100
1216.3270;-58.7600;-54.2600;-4.5000
1216.5270;-58.7600;-54.2300;-4.5300
1216.7260;-58.7400;-54.1800;-4.5600
1216.9250;-58.6900;-54.1000;-4.5900
1217.1240;-58.6200;-54.0500;-4.5700
1217.3230;-58.5800;-53.9900;-4.5900
1217.5220;-58.6000;-53.9400;-4.6600
1217.7210;-58.5500;-53.9000;-4.6500
1217.9200;-58.4900;-53.8400;-4.6500
1218.1200;-58.4500;-53.8000;-4.6500
1218.3190;-58.4600;-53.7500;-4.7100
1218.5180;-58.4000;-53.7100;-4.6900
1218.7170;-58.3500;-53.6600;-4.6900
1218.9160;-58.3300;-53.6300;-4.7000
1219.1150;-58.3100;-53.6100;-4.7000
1219.3140;-58.2600;-53.5500;-4.7100
1219.5130;-58.2300;-53.5300;-4.7000
1219.7120;-58.1900;-53.5100;-4.6800
1219.9120;-58.1700;-53.4600;-4.7100
1220.1110;-58.1400;-53.4300;-4.7100
1220.3100;-58.0600;-53.3900;-4.6700
1220.5090;-57.9900;-53.3500;-4.6400
1220.7080;-57.9600;-53.3300;-4.6300
1220.9070;-57.9300;-53.2800;-4.6500
1221.1060;-57.8100;-53.2200;-4.5900
1221.3050;-57.7400;-53.1900;-4.5500
1221.5040;-57.6800;-53.1400;-4.5400
1221.7040;-57.6100;-53.0800;-4.5300
1221.9030;-57.5200;-53.0300;-4.4900
1222.1020;-57.4000;-52.9700;-4.4300
1222.3010;-57.3300;-52.9100;-4.4200
1222.5000;-57.2600;-52.8400;-4.4200
1222.6990;-57.1600;-52.7900;-4.3700
1222.8980;-57.0600;-52.7100;-4.3500
1223.0970;-56.9700;-52.6500;-4.3200
1223.2970;-56.9100;-52.5800;-4.3300
1223.4960;-56.8100;-52.5000;-4.3100
1223.6950;-56.7000;-52.4500;-4.2500
1223.8940;-56.6700;-52.3800;-4.2900
1224.0930;-56.5900;-52.3100;-4.2800
1224.2920;-56.5000;-52.2400;-4.2600
1224.4910;-56.4100;-52.1800;-4.2300
1224.6900;-56.3600;-52.1300;-4.2300
1224.8890;-56.3200;-52.0500;-4.2700
1225.0890;-56.2300;-52.0100;-4.2200
1225.2880;-56.1500;-51.9300;-4.2200
1225.4870;-56.0900;-51.8700;-4.2200
1225.6860;-56.0300;-51.8400;-4.1900
1225.8850;-55.9700;-51.7800;-4.1900
1226.0840;-55.8700;-51.7300;-4.1400
1226.2830;-55.8300;-51.6800;-4.1500
1226.4820;-55.7500;-51.6200;-4.1300
1226.6810;-55.6800;-51.5900;-4.0900
1226.8810;-55.6300;-51.5400;-4.0900
1227.0800;-55.5900;-51.4800;-4.1100
1227.2790;-55.5600;-51.4400;-4.1200
1227.4780;-55.5100;-51.3800;-4.1300
1227.6770;-55.4800;-51.3400;-4.1400
1227.8760;-55.4900;-51.2700;-4.2200
1228.0750;-55.4800;-51.2200;-4.2600
1228.2740;-55.4800;-51.1500;-4.3300
1228.4740;-55.4700;-51.0800;-4.3900
1228.6730;-55.4900;-51.0300;-4.4600
1228.8720;-55.5200;-50.9500;-4.5700
1229.0710;-55.5100;-50.8900;-4.6200
1229.2700;-55.5300;-50.8100;-4.7200
1229.4690;-55.5400;-50.7200;-4.8200
1229.6680;-55.5500;-50.6700;-4.8800
1229.8670;-55.5500;-50.5700;-4.9800
1230.0660;-55.5300;-50.4900;-5.0400
1230.2660;-55.5300;-50.4100;-5.1200
1230.4650;-55.5000;-50.3300;-5.1700
1230.6640;-55.4600;-50.2600;-5.2000
1230.8630;-55.4300;-50.1800;-5.2500
1231.0620;-55.3800;-50.1100;-5.2700
1231.2610;-55.3300;-50.0500;-5.2800
1231.4600;-55.2400;-49.9800;-5.2600
1231.6590;-55.1300;-49.9300;-5.2000
1231.8580;-55.0400;-49.8500;-5.1900
1232.0580;-54.9000;-49.8100;-5.0900
1232.2570;-54.7400;-49.7400;-5.0000
1232.4560;-54.5700;-49.6800;-4.8900
1232.6550;-54.4000;-49.6400;-4.7600
1232.8540;-54.2100;-49.5700;-4.6400
1233.0530;-54.0000;-49.5300;-4.4700
1233.2520;-53.8200;-49.4600;-4.3600
1233.4510;-53.6300;-49.4100;-4.2200
1233.6500;-53.4500;-49.3700;-4.0800
1233.8500;-53.2800;-49.3000;-3.9800
1234.0490;-53.1400;-49.2500;-3.8900
1234.2480;-53.0200;-49.1800;-3.8400
1234.4470;-52.9000;-49.1200;-3.7800
1234.6460;-52.8100;-49.0600;-3.7500
1234.8450;-52.7600;-48.9900;-3.7700
1235.0440;-52.7100;-48.9300;-3.7800
1235.2430;-52.6900;-48.8400;-3.8500
1235.4430;-52.6500;-48.7600;-3.8900
1235.6420;-52.6600;-48.6900;-3.9700
1235.8410;-52.6800;-48.6000;-4.0800
1236.0400;-52.6800;-48.5300;-4.1500
1236.2390;-52.6900;-48.4200;-4.2700
1236.4380;-52.7000;-48.3300;-4.3700
1236.6370;-52.7100;-48.2500;-4.4600
1236.8360;-52.7100;-48.1500;-4.5600
1237.0350;-52.6900;-48.0800;-4.6100
1237.2350;-52.6900;-47.9900;-4.7000
1237.4340;-52.6400;-47.9000;-4.7400
1237.6330;-52.5900;-47.8100;-4.7800
1237.8320;-52.5400;-47.7400;-4.8000
1238.0310;-52.4700;-47.6600;-4.8100
1238.2300;-52.4100;-47.5700;-4.8400
1238.4290;-52.2800;-47.5000;-4.7800
1238.6280;-52.1800;-47.4200;-4.7600
1238.8270;-52.0700;-47.3400;-4.7300
1239.0270;-51.9500;-47.2700;-4.6800
1239.2260;-51.8300;-47.1800;-4.6500
1239.4250;-51.7000;-47.1100;-4.5900
1239.6240;-51.5900;-47.0300;-4.5600
1239.8230;-51.4600;-46.9400;-4.5200
1240.0220;-51.3500;-46.8700;-4.4800
1240.2210;-51.2600;-46.7700;-4.4900
1240.4200;-51.1600;-46.6900;-4.4700
1240.6200;-51.0800;-46.5900;-4.4900
1240.8190;-51.0000;-46.4900;-4.5100
1241.0180;-50.9200;-46.3800;-4.5400
1241.2170;-50.8700;-46.2700;-4.6000
1241.4160;-50.7900;-46.1700;-4.6200
1241.6150;-50.7200;-46.0300;-4.6900
1241.8140;-50.6600;-45.9100;-4.7500
1242.0130;-50.5800;-45.8000;-4.7800
1242.2120;-50.5000;-45.6900;-4.8100
1242.4120;-50.3900;-45.5600;-4.8300
1242.6110;-50.2900;-45.4200;-4.8700
1242.8100;-50.1500;-45.3100;-4.8400
1243.0090;-50.0000;-45.1700;-4.8300
1243.2080;-49.8600;-45.0500;-4.8100
1243.4070;-49.7000;-44.9200;-4.7800
1243.6060;-49.5200;-44.7900;-4.7300
1243.8050;-49.3500;-44.6800;-4.6700
1244.0040;-49.1800;-44.5400;-4.6400
1244.2040;-49.0400;-44.4100;-4.6300
1244.4030;-48.8800;-44.2900;-4.5900
1244.6020;-48.7400;-44.1600;-4.5800
1244.8010;-48.6200;-44.0500;-4.5700
1245.0000;-48.5100;-43.9100;-4.6000
1245.1990;-48.4200;-43.7900;-4.6300
1245.3980;-48.3400;-43.6700;-4.6700
1245.5970;-48.2600;-43.5300;-4.7300
1245.7970;-48.1800;-43.4100;-4.7700
1245.9960;-48.1000;-43.2600;-4.8400
1246.1950;-48.0500;-43.1400;-4.9100
1246.3940;-47.9500;-43.0000;-4.9500
1246.5930;-47.8400;-42.8500;-4.9900
1246.7920;-47.7200;-42.7300;-4.9900
1246.9910;-47.5600;-42.5600;-5.0000
1247.1900;-47.3800;-42.4200;-4.9600
1247.3890;-47.1500;-42.2700;-4.8800
1247.5890;-46.9000;-42.1100;-4.7900
1247.7880;-46.6100;-41.9700;-4.6400
1247.9870;-46.2800;-41.8000;-4.4800
1248.1860;-45.9600;-41.6500;-4.3100
1248.3850;-45.5500;-41.5000;-4.0500
1248.5840;-45.2500;-41.3300;-3.9200
1248.7830;-44.8700;-41.1800;-3.6900
1248.9820;-44.5300;-41.0200;-3.5100
1249.1810;-44.1800;-40.8700;-3.3100
1249.3810;-43.8300;-40.7200;-3.1100
1249.5800;-43.5200;-40.5600;-2.9600
1249.7790;-43.2100;-40.4200;-2.7900
1249.9780;-42.9300;-40.2500;-2.6800
1250.1770;-42.6600;-40.1100;-2.5500
1250.3760;-42.4300;-39.9700;-2.4600
1250.5750;-42.2100;-39.8100;-2.4000
1250.7740;-42.0000;-39.6700;-2.3300
1250.9740;-41.8300;-39.5200;-2.3100
1251.1730;-41.6600;-39.3800;-2.2800
1251.3720;-41.5000;-39.2300;-2.2700
1251.5710;-41.3800;-39.0900;-2.2900
1251.7700;-41.2400;-38.9500;-2.2900
1251.9690;-41.1300;-38.7900;-2.3400
1252.1680;-41.0000;-38.6400;-2.3600
1252.3670;-40.8800;-38.4700;-2.4100
1252.5660;-40.8000;-38.3200;-2.4800
1252.7660;-40.6700;-38.1700;-2.5000
1252.9650;-40.5700;-38.0100;-2.5600
1253.1640;-40.4500;-37.8500;-2.6000
1253.3630;-40.3400;-37.6800;-2.6600
1253.5620;-40.2300;-37.5200;-2.7100
1253.7610;-40.1100;-37.3500;-2.7600
1253.9600;-40.0100;-37.1900;-2.8200
1254.1590;-39.8700;-37.0300;-2.8400
1254.3580;-39.7400;-36.8500;-2.8900
1254.5580;-39.6400;-36.7000;-2.9400
1254.7570;-39.5100;-36.5400;-2.9700
1254.9560;-39.4000;-36.3700;-3.0300
1255.1550;-39.2800;-36.2300;-3.0500
1255.3540;-39.1600;-36.0600;-3.1000
1255.5530;-39.0500;-35.9200;-3.1300
1255.7520;-38.9200;-35.7400;-3.1800
1255.9510;-38.8100;-35.6300;-3.1800
1256.1500;-38.6900;-35.4900;-3.2000
1256.3500;-38.5600;-35.3400;-3.2200
1256.5490;-38.4400;-35.2200;-3.2200
1256.7480;-38.2900;-35.0700;-3.2200
1256.9470;-38.1600;-34.9400;-3.2200
1257.1460;-37.9900;-34.8000;-3.1900
1257.3450;-37.8200;-34.6600;-3.1600
1257.5440;-37.6600;-34.5400;-3.1200
1257.7430;-37.4600;-34.3900;-3.0700
1257.9430;-37.2800;-34.2500;-3.0300
1258.1420;-37.0800;-34.1200;-2.9600
1258.3410;-36.8700;-33.9700;-2.9000
1258.5400;-36.6500;-33.8400;-2.8100
1258.7390;-36.4300;-33.6800;-2.7500
1258.9380;-36.2100;-33.5400;-2.6700
1259.1370;-35.9300;-33.3900;-2.5400
1259.3360;-35.7500;-33.2400;-2.5100
1259.5350;-35.5300;-33.1000;-2.4300
1259.7350;-35.3100;-32.9400;-2.3700
1259.9340;-35.0700;-32.8000;-2.2700
1260.1330;-34.8600;-32.6500;-2.2100
1260.3320;-34.6500;-32.4900;-2.1600
1260.5310;-34.4400;-32.3600;-2.0800
1260.7300;-34.2400;-32.2000;-2.0400
1260.9290;-34.0400;-32.0700;-1.9700
1261.1280;-33.8500;-31.9200;-1.9300
1261.3270;-33.6800;-31.7700;-1.9100
1261.5270;-33.5100;-31.6500;-1.8600
1261.7260;-33.3500;-31.5100;-1.8400
1261.9250;-33.1800;-31.3800;-1.8000
1262.1240;-33.0300;-31.2400;-1.7900
1262.3230;-32.9000;-31.1100;-1.7900
1262.5220;-32.7600;-31.0000;-1.7600
1262.7210;-32.6400;-30.8600;-1.7800
1262.9200;-32.5000;-30.7400;-1.7600
1263.1200;-32.3800;-30.6000;-1.7800
1263.3190;-32.2700;-30.4700;-1.8000
1263.5180;-32.1600;-30.3600;-1.8000
1263.7170;-32.0600;-30.2100;-1.8500
1263.9160;-31.9400;-30.0900;-1.8500
1264.1150;-31.8400;-29.9500;-1.8900
1264.3140;-31.7500;-29.8100;-1.9400
1264.5130;-31.6500;-29.6900;-1.9600
1264.7120;-31.5700;-29.5500;-2.0200
1264.9120;-31.4700;-29.4200;-2.0500
1265.1110;-31.3800;-29.2700;-2.1100
1265.3100;-31.2900;-29.1400;-2.1500
1265.5090;-31.2100;-29.0100;-2.2000
1265.7080;-31.1400;-28.8700;-2.2700
1265.9070;-31.0600;-28.7500;-2.3100
1266.1060;-30.9900;-28.6100;-2.3800
1266.3050;-30.9300;-28.4800;-2.4500
1266.5040;-30.8700;-28.3700;-2.5000
1266.7040;-30.8200;-28.2400;-2.5800
1266.9030;-30.7600;-28.1200;-2.6400
1267.1020;-30.7200;-27.9900;-2.7300
1267.3010;-30.6900;-27.8700;-2.8200
1267.5000;-30.6700;-27.7700;-2.9000
1267.6990;-30.6600;-27.6500;-3.0100
1267.8980;-30.6300;-27.5500;-3.0800
1268.0970;-30.6500;-27.4300;-3.2200
1268.2970;-30.6700;-27.3200;-3.3500
1268.4960;-30.7000;-27.2200;-3.4800
1268.6950;-30.7600;-27.1000;-3.6600
1268.8940;-30.8100;-27.0000;-3.8100
1269.0930;-30.8900;-26.8800;-4.0100
1269.2920;-31.0000;-26.7700;-4.2300
1269.4910;-31.1400;-26.6600;-4.4800
1269.6900;-31.3000;-26.5400;-4.7600
1269.8890;-31.4800;-26.4400;-5.0400
1270.0890;-31.7100;-26.3100;-5.4000
1270.2880;-31.9800;-26.2000;-5.7800
1270.4870;-32.3000;-26.0700;-6.2300
1270.6860;-32.6800;-25.9700;-6.7100
1270.8850;-33.1000;-25.8500;-7.2500
1271.0840;-33.6000;-25.7300;-7.8700
1271.2830;-34.1600;-25.6300;-8.5300
1271.4820;-34.8200;-25.5000;-9.3200
1271.6810;-35.5900;-25.3900;-10.2000
1271.8810;-36.4400;-25.2800;-11.1600
1272.0800;-37.4100;-25.1700;-12.2400
1272.2790;-38.6400;-25.0600;-13.5800
1272.4780;-39.4900;-24.9500;-14.5400
1272.6770;-40.3200;-24.8500;-15.4700
1272.8760;-40.7100;-24.7400;-15.9700
1273.0750;-40.4300;-24.6500;-15.7800
1273.2740;-39.5100;-24.5600;-14.9500
1273.4740;-38.2500;-24.4500;-13.8000
1273.6730;-36.8800;-24.3700;-12.5100
1273.8720;-35.3400;-24.2700;-11.0700
1274.0710;-34.3000;-24.1800;-10.1200
1274.2700;-33.1800;-24.0900;-9.0900
1274.4690;-32.1600;-23.9900;-8.1700
1274.6680;-31.2300;-23.9100;-7.3200
1274.8670;-30.3900;-23.8100;-6.5800
1275.0660;-29.6300;-23.7200;-5.9100
1275.2660;-28.9400;-23.6400;-5.3000
1275.4650;-28.3300;-23.5400;-4.7900
1275.6640;-27.7600;-23.4600;-4.3000
1275.8630;-27.2800;-23.3600;-3.9200
1276.0620;-26.8100;-23.2700;-3.5400
1276.2610;-26.4200;-23.1800;-3.2400
1276.4600;-26.0000;-23.0900;-2.9100
1276.6590;-25.7400;-23.0000;-2.7400
1276.8580;-25.4800;-22.9000;-2.5800
1277.0580;-25.2400;-22.8200;-2.4200
1277.2570;-25.0600;-22.7300;-2.3300
1277.4560;-24.8900;-22.6400;-2.2500
1277.6550;-24.7500;-22.5700;-2.1800
1277.8540;-24.6500;-22.4700;-2.1800
1278.0530;-24.5600;-22.4000;-2.1600
1278.2520;-24.5100;-22.3100;-2.2000
1278.4510;-24.4600;-22.2300;-2.2300
1278.6500;-24.4300;-22.1600;-2.2700
1278.8500;-24.4200;-22.0700;-2.3500
1279.0490;-24.4100;-22.0000;-2.4100
1279.2480;-24.4200;-21.9200;-2.5000
1279.4470;-24.4100;-21.8400;-2.5700
1279.6460;-24.4200;-21.7700;-2.6500
1279.8450;-24.4200;-21.6800;-2.7400
1280.0440;-24.4100;-21.6200;-2.7900
1280.2430;-24.4000;-21.5400;-2.8600
1280.4430;-24.3700;-21.4600;-2.9100
1280.6420;-24.3400;-21.3900;-2.9500
1280.8410;-24.2900;-21.3100;-2.9800
1281.0400;-24.2400;-21.2400;-3.0000
1281.2390;-24.1900;-21.1600;-3.0300
1281.4380;-24.1200;-21.0800;-3.0400
1281.6370;-24.0700;-21.0100;-3.0600
1281.8360;-24.0000;-20.9300;-3.0700
1282.0350;-23.9400;-20.8700;-3.0700
1282.2350;-23.9000;-20.7800;-3.1200
1282.4340;-23.8600;-20.7100;-3.1500
1282.6330;-23.8600;-20.6500;-3.2100
1282.8320;-23.8400;-20.5800;-3.2600
1283.0310;-23.8600;-20.5200;-3.3400
1283.2300;-23.8900;-20.4500;-3.4400
1283.4290;-23.9500;-20.3900;-3.5600
1283.6280;-24.0400;-20.3200;-3.7200
1283.8270;-24.1200;-20.2600;-3.8600
1284.0270;-24.2500;-20.2100;-4.0400
1284.2260;-24.4100;-20.1400;-4.2700
1284.4250;-24.5900;-20.0900;-4.5000
1284.6240;-24.8100;-20.0300;-4.7800
1284.8230;-25.0400;-19.9700;-5.0700
1285.0220;-25.3000;-19.9300;-5.3700
1285.2210;-25.5900;-19.8600;-5.7300
1285.4200;-25.9000;-19.8100;-6.0900
1285.6200;-26.2400;-19.7500;-6.4900
1285.8190;-26.5800;-19.6900;-6.8900
1286.0180;-26.9500;-19.6500;-7.3000
1286.2170;-27.3300;-19.5800;-7.7500
1286.4160;-27.6900;-19.5400;-8.1500
1286.6150;-28.0600;-19.4900;-8.5700
1286.8140;-28.4300;-19.4300;-9.0000
1287.0130;-28.6500;-19.3900;-9.2600
1287.2120;-28.8200;-19.3300;-9.4900
1287.4120;-28.9200;-19.2900;-9.6300
1287.6110;-28.8800;-19.2300;-9.6500
1287.8100;-28.7300;-19.1800;-9.5500
1288.0090;-28.4700;-19.1400;-9.3300
1288.2080;-28.1000;-19.0800;-9.0200
1288.4070;-27.6700;-19.0500;-8.6200
1288.6060;-27.1500;-19.0000;-8.1500
1288.8050;-26.6100;-18.9600;-7.6500
1289.0040;-25.9500;-18.9200;-7.0300
1289.2040;-25.4900;-18.8700;-6.6200
1289.4030;-24.9400;-18.8500;-6.0900
1289.6020;-24.4000;-18.8000;-5.6000
1289.8010;-23.8900;-18.7600;-5.1300
1290.0000;-23.3800;-18.7200;-4.6600
1290.1990;-22.9100;-18.6800;-4.2300
1290.3980;-22.4600;-18.6600;-3.8000
1290.5970;-22.0400;-18.6200;-3.4200
1290.7970;-21.6600;-18.5900;-3.0700
1290.9960;-21.2700;-18.5300;-2.7400
1291.1950;-20.9300;-18.5000;-2.4300
1291.3940;-20.6100;-18.4700;-2.1400
1291.5930;-20.3200;-18.4100;-1.9100
1291.7920;-20.0600;-18.3900;-1.6700
1291.9910;-19.8300;-18.3400;-1.4900
1292.1900;-19.6300;-18.3100;-1.3200
1292.3890;-19.4500;-18.2700;-1.1800
1292.5890;-19.2800;-18.2200;-1.0600
1292.7880;-19.1600;-18.2000;-0.9600
1292.9870;-19.0500;-18.1500;-0.9000
1293.1860;-18.9800;-18.1300;-0.8500
1293.3850;-18.9200;-18.0900;-0.8300
1293.5840;-18.8900;-18.0500;-0.8400
1293.7830;-18.8900;-18.0200;-0.8700
1293.9820;-18.9100;-17.9900;-0.9200
1294.1810;-18.9800;-17.9700;-1.0100
1294.3810;-19.0400;-17.9300;-1.1100
1294.5800;-19.1400;-17.8900;-1.2500
1294.7790;-19.2700;-17.8700;-1.4000
1294.9780;-19.4200;-17.8400;-1.5800
1295.1770;-19.6100;-17.8200;-1.7900
1295.3760;-19.8200;-17.7900;-2.0300
1295.5750;-20.0500;-17.7600;-2.2900
1295.7740;-20.3100;-17.7300;-2.5800
1295.9740;-20.6000;-17.6900;-2.9100
1296.1730;-20.9300;-17.6800;-3.2500
1296.3720;-21.2800;-17.6500;-3.6300
1296.5710;-21.6800;-17.6300;-4.0500
1296.7700;-22.0900;-17.6000;-4.4900
1296.9690;-22.5500;-17.5800;-4.9700
1297.1680;-23.0400;-17.5700;-5.4700
1297.3670;-23.5600;-17.5500;-6.0100
1297.5660;-24.1100;-17.5300;-6.5800
1297.7660;-24.6800;-17.5100;-7.1700
1297.9650;-25.2900;-17.4900;-7.8000
1298.1640;-25.9000;-17.4800;-8.4200
1298.3630;-26.5000;-17.4700;-9.0300
1298.5620;-27.0800;-17.4600;-9.6200
1298.7610;-27.5800;-17.4400;-10.1400
1298.9600;-27.9900;-17.4400;-10.5500
1299.1590;-28.2900;-17.4300;-10.8600
1299.3580;-28.3400;-17.4200;-10.9200
1299.5580;-28.2200;-17.4200;-10.8000
1299.7570;-27.9500;-17.4100;-10.5400
1299.9560;-27.5500;-17.4100;-10.1400
1300.1550;-27.0400;-17.4000;-9.6400
1300.3540;-26.4900;-17.4000;-9.0900
1300.5530;-25.8000;-17.4000;-8.4000
1300.7520;-25.3200;-17.3900;-7.9300
1300.9510;-24.7500;-17.4000;-7.3500
1301.1500;-24.2100;-17.4000;-6.8100
1301.3500;-23.7000;-17.4000;-6.3000
1301.5490;-23.2000;-17.4100;-5.7900
1301.7480;-22.7500;-17.4100;-5.3400
1301.9470;-22.3200;-17.4200;-4.9000
1302.1460;-21.9300;-17.4200;-4.5100
1302.3450;-21.5700;-17.4300;-4.1400
1302.5440;-21.2300;-17.4300;-3.8000
1302.7430;-20.9200;-17.4300;-3.4900
1302.9430;-20.6300;-17.4400;-3.1900
1303.1420;-20.3700;-17.4400;-2.9300
1303.3410;-20.1400;-17.4600;-2.6800
1303.5400;-19.9300;-17.4600;-2.4700
1303.7390;-19.7400;-17.4600;-2.2800
1303.9380;-19.5600;-17.4700;-2.0900
1304.1370;-19.4200;-17.4800;-1.9400
1304.3360;-19.3000;-17.5000;-1.8000
1304.5350;-19.1900;-17.5000;-1.6900
1304.7350;-19.1100;-17.5100;-1.6000
1304.9340;-19.0300;-17.5200;-1.5100
1305.1330;-18.9800;-17.5300;-1.4500
1305.3320;-18.9600;-17.5500;-1.4100
1305.5310;-18.9500;-17.5600;-1.3900
1305.7300;-18.9700;-17.5800;-1.3900
1305.9290;-18.9800;-17.5800;-1.4000
1306.1280;-19.0300;-17.6000;-1.4300
1306.3270;-19.0900;-17.6100;-1.4800
1306.5270;-19.1800;-17.6300;-1.5500
1306.7260;-19.3000;-17.6500;-1.6500
1306.9250;-19.4100;-17.6500;-1.7600
1307.1240;-19.5600;-17.6800;-1.8800
1307.3230;-19.7300;-17.6900;-2.0400
1307.5220;-19.9200;-17.7100;-2.2100
1307.7210;-20.1500;-17.7400;-2.4100
1307.9200;-20.3700;-17.7500;-2.6200
1308.1200;-20.6500;-17.7900;-2.8600
1308.3190;-20.9400;-17.8000;-3.1400
1308.5180;-21.2600;-17.8400;-3.4200
1308.7170;-21.6300;-17.8800;-3.7500
1308.9160;-21.9900;-17.8900;-4.1000
1309.1150;-22.4200;-17.9400;-4.4800
1309.3140;-22.8600;-17.9600;-4.9000
1309.5130;-23.3600;-18.0100;-5.3500
1309.7120;-23.8800;-18.0500;-5.8300
1309.9120;-24.4200;-18.0700;-6.3500
1310.1110;-25.0300;-18.1300;-6.9000
1310.3100;-25.6300;-18.1600;-7.4700
1310.5090;-26.2900;-18.2100;-8.0800
1310.7080;-26.9700;-18.2500;-8.7200
1310.9070;-27.6300;-18.2900;-9.3400
1311.1060;-28.4200;-18.3500;-10.0700
1311.3050;-28.8800;-18.3800;-10.5000
1311.5040;-29.3800;-18.4500;-10.9300
1311.7040;-29.6800;-18.4800;-11.2000
1311.9030;-29.8100;-18.5300;-11.2800
1312.1020;-29.7300;-18.5800;-11.1500
1312.3010;-29.4700;-18.6300;-10.8400
1312.5000;-29.0900;-18.7000;-10.3900
1312.6990;-28.5800;-18.7400;-9.8400
1312.8980;-28.0400;-18.8000;-9.2400
1313.0970;-27.4700;-18.8500;-8.6200
1313.2970;-26.9100;-18.9000;-8.0100
1313.4960;-26.4000;-18.9800;-7.4200
1313.6950;-25.8100;-19.0300;-6.7800
1313.8940;-25.4300;-19.0900;-6.3400
1314.0930;-25.0100;-19.1400;-5.8700
1314.2920;-24.6300;-19.2000;-5.4300
1314.4910;-24.2800;-19.2700;-5.0100
1314.6900;-23.9600;-19.3200;-4.6400
1314.8890;-23.6800;-19.3800;-4.3000
1315.0890;-23.4200;-19.4300;-3.9900
1315.2880;-23.2200;-19.5000;-3.7200
1315.4870;-23.0200;-19.5500;-3.4700
1315.6860;-22.8600;-19.6100;-3.2500
1315.8850;-22.7300;-19.6700;-3.0600
1316.0840;-22.6100;-19.7300;-2.8800
1316.2830;-22.5400;-19.8000;-2.7400
1316.4820;-22.4800;-19.8500;-2.6300
1316.6810;-22.4400;-19.9200;-2.5200
1316.8810;-22.4100;-19.9800;-2.4300
1317.0800;-22.4200;-20.0500;-2.3700
1317.2790;-22.4500;-20.1200;-2.3300
1317.4780;-22.4900;-20.1900;-2.3000
1317.6770;-22.5500;-20.2600;-2.2900
1317.8760;-22.6100;-20.3200;-2.2900
1318.0750;-22.6900;-20.3900;-2.3000
1318.2740;-22.7800;-20.4600;-2.3200
1318.4740;-22.8900;-20.5300;-2.3600
1318.6730;-23.0200;-20.6200;-2.4000
1318.8720;-23.1400;-20.6800;-2.4600
1319.0710;-23.2900;-20.7800;-2.5100
1319.2700;-23.4200;-20.8500;-2.5700
1319.4690;-23.5700;-20.9300;-2.6400
1319.6680;-23.7400;-21.0200;-2.7200
1319.8670;-23.8900;-21.1000;-2.7900
1320.0660;-24.0600;-21.2000;-2.8600
1320.2660;-24.2200;-21.2800;-2.9400
1320.4650;-24.3800;-21.3700;-3.0100
1320.6640;-24.5500;-21.4700;-3.0800
1320.8630;-24.7000;-21.5600;-3.1400
1321.0620;-24.8600;-21.6600;-3.2000
1321.2610;-25.0000;-21.7500;-3.2500
1321.4600;-25.1500;-21.8600;-3.2900
1321.6590;-25.2700;-21.9500;-3.3200
1321.8580;-25.3900;-22.0500;-3.3400
1322.0580;-25.5300;-22.1600;-3.3700
1322.2570;-25.6200;-22.2600;-3.3600
1322.4560;-25.7300;-22.3700;-3.3600
1322.6550;-25.8100;-22.4700;-3.3400
1322.8540;-25.8900;-22.5900;-3.3000
1323.0530;-25.9800;-22.6900;-3.2900
1323.2520;-26.0400;-22.8100;-3.2300
1323.4510;-26.1100;-22.9200;-3.1900
1323.6500;-26.1600;-23.0300;-3.1300
1323.8500;-26.2200;-23.1600;-3.0600
1324.0490;-26.2700;-23.2700;-3.0000
1324.2480;-26.3200;-23.4000;-2.9200
1324.4470;-26.3700;-23.5100;-2.8600
1324.6460;-26.4100;-23.6300;-2.7800
1324.8450;-26.4600;-23.7600;-2.7000
1325.0440;-26.5000;-23.8700;-2.6300
1325.2430;-26.5500;-24.0100;-2.5400
1325.4430;-26.6100;-24.1200;-2.4900
1325.6420;-26.6600;-24.2600;-2.4000
1325.8410;-26.7300;-24.3900;-2.3400
1326.0400;-26.7800;-24.5200;-2.2600
1326.2390;-26.8400;-24.6500;-2.1900
1326.4380;-26.9200;-24.7800;-2.1400
1326.6370;-26.9800;-24.9100;-2.0700
1326.8360;-27.0700;-25.0400;-2.0300
1327.0350;-27.1400;-25.1800;-1.9600
1327.2350;-27.2300;-25.3200;-1.9100
1327.4340;-27.3200;-25.4500;-1.8700
1327.6330;-27.4200;-25.6000;-1.8200
1327.8320;-27.5300;-25.7200;-1.8100
1328.0310;-27.6400;-25.8700;-1.7700
1328.2300;-27.7600;-26.0100;-1.7500
1328.4290;-27.8800;-26.1500;-1.7300
1328.6280;-28.0100;-26.3000;-1.7100
1328.8270;-28.1600;-26.4400;-1.7200
1329.0270;-28.3000;-26.6000;-1.7000
1329.2260;-28.5000;-26.7300;-1.7700
1329.4250;-28.6300;-26.8900;-1.7400
1329.6240;-28.8100;-27.0300;-1.7800
1329.8230;-28.9800;-27.1700;-1.8100
1330.0220;-29.1800;-27.3300;-1.8500
1330.2210;-29.3900;-27.4700;-1.9200
1330.4200;-29.6100;-27.6300;-1.9800
1330.6200;-29.8600;-27.7700;-2.0900
1330.8190;-30.1000;-27.9200;-2.1800
1331.0180;-30.3800;-28.0700;-2.3100
1331.2170;-30.6700;-28.2300;-2.4400
1331.4160;-30.9700;-28.3900;-2.5800
1331.6150;-31.3100;-28.5700;-2.7400
1331.8140;-31.6600;-28.7100;-2.9500
1332.0130;-32.0500;-28.8500;-3.2000
1332.2120;-32.4400;-29.0200;-3.4200
1332.4120;-32.8800;-29.1700;-3.7100
1332.6110;-33.3500;-29.3400;-4.0100
1332.8100;-33.8400;-29.5000;-4.3400
1333.0090;-34.3800;-29.6600;-4.7200
1333.2080;-34.9300;-29.8300;-5.1000
1333.4070;-35.5300;-29.9800;-5.5500
1333.6060;-36.1600;-30.1500;-6.0100
1333.8050;-36.8300;-30.3100;-6.5200
1334.0040;-37.5300;-30.4700;-7.0600
1334.2040;-38.2500;-30.6500;-7.6000
1334.4030;-39.1500;-30.8100;-8.3400
1334.6020;-39.7300;-30.9800;-8.7500
1334.8010;-40.4300;-31.1500;-9.2800
1335.0000;-41.0400;-31.3200;-9.7200
1335.1990;-41.5400;-31.4900;-10.0500
1335.3980;-41.8800;-31.6600;-10.2200
1335.5970;-42.0200;-31.8500;-10.1700
1335.7970;-42.0200;-32.0200;-10.0000
1335.9960;-41.8200;-32.2100;-9.6100
1336.1950;-41.5200;-32.3800;-9.1400
1336.3940;-41.1300;-32.5600;-8.5700
1336.5930;-40.7100;-32.7400;-7.9700
1336.7920;-40.3000;-32.9100;-7.3900
1336.9910;-39.8900;-33.1000;-6.7900
1337.1900;-39.5300;-33.2800;-6.2500
1337.3890;-39.1800;-33.4700;-5.7100
1337.5890;-38.8900;-33.6500;-5.2400
1337.7880;-38.6400;-33.8300;-4.8100
1337.9870;-38.4400;-34.0300;-4.4100
1338.1860;-38.2900;-34.2000;-4.0900
1338.3850;-38.1600;-34.3900;-3.7700
1338.5840;-38.0900;-34.5700;-3.5200
1338.7830;-38.0500;-34.7500;-3.3000
1338.9820;-38.0600;-34.9500;-3.1100
1339.1810;-38.1200;-35.1300;-2.9900
1339.3810;-38.2100;-35.3200;-2.8900
1339.5800;-38.3400;-35.4900;-2.8500
1339.7790;-38.4900;-35.6800;-2.8100
1339.9780;-38.7000;-35.8700;-2.8300
1340.1770;-38.9400;-36.0500;-2.8900
1340.3760;-39.2100;-36.2600;-2.9500
1340.5750;-39.5400;-36.4400;-3.1000
1340.7740;-39.8700;-36.6300;-3.2400
1340.9740;-40.2400;-36.8100;-3.4300
1341.1730;-40.6300;-36.9900;-3.6400
1341.3720;-41.0600;-37.1800;-3.8800
1341.5710;-41.5300;-37.3700;-4.1600
1341.7700;-42.0000;-37.5600;-4.4400
1341.9690;-42.5100;-37.7300;-4.7800
1342.1680;-43.0200;-37.9300;-5.0900
1342.3670;-43.5600;-38.1100;-5.4500
1342.5660;-44.1000;-38.2900;-5.8100
1342.7660;-44.6300;-38.5300;-6.1000
1342.9650;-45.1700;-38.6900;-6.4800
1343.1640;-45.6700;-38.8900;-6.7800
1343.3630;-46.1600;-39.0700;-7.0900
1343.5620;-46.6000;-39.2600;-7.3400
1343.7610;-46.9900;-39.4500;-7.5400
1343.9600;-47.3500;-39.6500;-7.7000
1344.1590;-47.6200;-39.8600;-7.7600
1344.3580;-47.8600;-40.0500;-7.8100
1344.5580;-48.0200;-40.2500;-7.7700
1344.7570;-48.1300;-40.4400;-7.6900
1344.9560;-48.2000;-40.6300;-7.5700
1345.1550;-48.2300;-40.8200;-7.4100
1345.3540;-48.2400;-41.0000;-7.2400
1345.5530;-48.2200;-41.2000;-7.0200
1345.7520;-48.1900;-41.3800;-6.8100
1345.9510;-48.1700;-41.5800;-6.5900
1346.1500;-48.1300;-41.7800;-6.3500
1346.3500;-48.1200;-41.9700;-6.1500
1346.5490;-48.1000;-42.1900;-5.9100
1346.7480;-48.0900;-42.3700;-5.7200
1346.9470;-48.0600;-42.5600;-5.5000
1347.1460;-48.0600;-42.7500;-5.3100
1347.3450;-48.0500;-42.9200;-5.1300
1347.5440;-48.1100;-43.1600;-4.9500
1347.7430;-48.1900;-43.3900;-4.8000
1347.9430;-48.2300;-43.6200;-4.6100
1348.1420;-48.2700;-43.8000;-4.4700
1348.3410;-48.3400;-44.0000;-4.3400
1348.5400;-48.3400;-44.1600;-4.1800
1348.7390;-48.4200;-44.3400;-4.0800
1348.9380;-48.4600;-44.5200;-3.9400
1349.1370;-48.5200;-44.6800;-3.8400
1349.3360;-48.5600;-44.8500;-3.7100
1349.5350;-48.6400;-45.0200;-3.6200
1349.7350;-48.7000;-45.1900;-3.5100
1349.9340;-48.7900;-45.3800;-3.4100
1350.1330;-48.9100;-45.5800;-3.3300
1350.3320;-49.0700;-45.8400;-3.2300
1350.5310;-49.2000;-46.0500;-3.1500
1350.7300;-49.2800;-46.2300;-3.0500
1350.9290;-49.3500;-46.4000;-2.9500
1351.1280;-49.3900;-46.5200;-2.8700
1351.3270;-49.4600;-46.7000;-2.7600
1351.5270;-49.5700;-46.8700;-2.7000
1351.7260;-49.7100;-47.1200;-2.5900
1351.9250;-49.8300;-47.3100;-2.5200
1352.1240;-49.9200;-47.4900;-2.4300
1352.3230;-50.0200;-47.6800;-2.3400
1352.5220;-50.1600;-47.8800;-2.2800
1352.7210;-50.2300;-48.0500;-2.1800
1352.9200;-50.3300;-48.2000;-2.1300
1353.1200;-50.5200;-48.5500;-1.9700
1353.3190;-50.5700;-48.5900;-1.9800
1353.5180;-50.7000;-48.7700;-1.9300
1353.7170;-50.8400;-48.9500;-1.8900
1353.9160;-50.9200;-49.0600;-1.8600
1354.1150;-51.0400;-49.2200;-1.8200
1354.3140;-51.2600;-49.4500;-1.8100
1354.5130;-51.4400;-49.6500;-1.7900
1354.7120;-51.7600;-49.9600;-1.8000
1354.9120;-52.0700;-50.2500;-1.8200
1355.1110;-52.2700;-50.4400;-1.8300
1355.3100;-52.4500;-50.5700;-1.8800
1355.5090;-52.4800;-50.5900;-1.8900
1355.7080;-52.7900;-50.8500;-1.9400
1355.9070;-53.1300;-51.1300;-2.0000
1356.1060;-53.3700;-51.3000;-2.0700
1356.3050;-53.5400;-51.3900;-2.1500
1356.5040;-53.7400;-51.5200;-2.2200
1356.7040;-53.7300;-51.4300;-2.3000
1356.9030;-53.9600;-51.6000;-2.3600
1357.1020;-54.4100;-51.9700;-2.4400
1357.3010;-54.7400;-52.2100;-2.5300
1357.5000;-55.0100;-52.4000;-2.6100
1357.6990;-55.2800;-52.5900;-2.6900
1357.8980;-55.3900;-52.6600;-2.7300
1358.0970;-55.5200;-52.7300;-2.7900
1358.2970;-55.7600;-52.9200;-2.8400
1358.4960;-56.0200;-53.1500;-2.8700
1358.6950;-56.2000;-53.3000;-2.9000
1358.8940;-56.3600;-53.4700;-2.8900
1359.0930;-56.5300;-53.6300;-2.9000
1359.2920;-56.5600;-53.6900;-2.8700
1359.4910;-56.9100;-54.0700;-2.8400
1359.6900;-57.1700;-54.3800;-2.7900
1359.8890;-57.3200;-54.5800;-2.7400
1360.0890;-57.3500;-54.6600;-2.6900
1360.2880;-57.3100;-54.7100;-2.6000
1360.4870;-57.2400;-54.7000;-2.5400
1360.6860;-57.3300;-54.8900;-2.4400
1360.8850;-57.6100;-55.2300;-2.3800
1361.0840;-57.8400;-55.5400;-2.3000
1361.2830;-57.9100;-55.7200;-2.1900
1361.4820;-58.0200;-55.9000;-2.1200
1361.6810;-58.1800;-56.1400;-2.0400
1361.8810;-58.2500;-56.2800;-1.9700
1362.0800;-58.4600;-56.5200;-1.9400
1362.2790;-58.8200;-56.9500;-1.8700
1362.4780;-59.0000;-57.1900;-1.8100
1362.6770;-59.1100;-57.3600;-1.7500
1362.8760;-58.9600;-57.2600;-1.7000
1363.0750;-58.9000;-57.2300;-1.6700
1363.2740;-58.6500;-57.0100;-1.6400
1363.4740;-58.7100;-57.1000;-1.6100
1363.6730;-58.8100;-57.2000;-1.6100
1363.8720;-58.9700;-57.3700;-1.6000
1364.0710;-59.2000;-57.6000;-1.6000
1364.2700;-59.4200;-57.8100;-1.6100
1364.4690;-59.7700;-58.1500;-1.6200
1364.6680;-60.3100;-58.7300;-1.5800
1364.8670;-60.6000;-58.9500;-1.6500
1365.0660;-60.6400;-58.9300;-1.7100
1365.2660;-60.8600;-59.1400;-1.7200
1365.4650;-60.8500;-59.0900;-1.7600
1365.6640;-60.9700;-59.1700;-1.8000
1365.8630;-61.0900;-59.2500;-1.8400
1366.0620;-61.1500;-59.2700;-1.8800
1366.2610;-61.2100;-59.3000;-1.9100
1366.4600;-61.3600;-59.3800;-1.9800
1366.6590;-61.6000;-59.5700;-2.0300
1366.8580;-61.8900;-59.8400;-2.0500
1367.0580;-62.0900;-59.9800;-2.1100
1367.2570;-62.2800;-60.1200;-2.1600
1367.4560;-62.6100;-60.4100;-2.2000
1367.6550;-62.8400;-60.6300;-2.2100
1367.8540;-63.1700;-60.9300;-2.2400
1368.0530;-63.3900;-61.0900;-2.3000
1368.2520;-63.4000;-61.0900;-2.3100
1368.4510;-63.7700;-61.4300;-2.3400
1368.6500;-63.8900;-61.5800;-2.3100
1368.8500;-64.0400;-61.7000;-2.3400
1369.0490;-64.0500;-61.7400;-2.3100
1369.2480;-64.0500;-61.7400;-2.3100
1369.4470;-64.0300;-61.6700;-2.3600
1369.6460;-64.1800;-61.8400;-2.3400
1369.8450;-64.5400;-62.2100;-2.3300
1370.0440;-64.7800;-62.4200;-2.3600
1370.2430;-64.9200;-62.6000;-2.3200
1370.4430;-65.0400;-62.6800;-2.3600
1370.6420;-65.1300;-62.7500;-2.3800
1370.8410;-65.5100;-63.1200;-2.3900
1371.0400;-65.8500;-63.4200;-2.4300
1371.2390;-66.1700;-63.6400;-2.5300
1371.4380;-66.2200;-63.7700;-2.4500
1371.6370;-66.2500;-63.7600;-2.4900
1371.8360;-66.3900;-63.7400;-2.6500
1372.0350;-66.6200;-63.9900;-2.6300
1372.2350;-67.0600;-64.2600;-2.8000
1372.4340;-67.2700;-64.4200;-2.8500
1372.6330;-67.5500;-64.5300;-3.0200
1372.8320;-67.6900;-64.6600;-3.0300
1373.0310;-68.0900;-64.7000;-3.3900
1373.2300;-68.3900;-64.9000;-3.4900
1373.4290;-68.8600;-65.1500;-3.7100
1373.6280;-69.2200;-65.3400;-3.8800
1373.8270;-69.6100;-65.5100;-4.1000
1374.0270;-69.9900;-65.6200;-4.3700
1374.2260;-70.5100;-65.8200;-4.6900
1374.4250;-70.8400;-66.0600;-4.7800
1374.6240;-71.5700;-66.2300;-5.3400
1374.8230;-72.1400;-66.5400;-5.6000
1375.0220;-72.9100;-66.6900;-6.2200
1375.2210;-73.4000;-66.8700;-6.5300
1375.4200;-73.6600;-67.0300;-6.6300
1375.6200;-74.4300;-67.2300;-7.2000
1375.8190;-74.4500;-67.3400;-7.1100
1376.0180;-75.5700;-67.5500;-8.0200
1376.2170;-75.3400;-67.7200;-7.6200
1376.4160;-76.1900;-68.0100;-8.1800
1376.6150;-76.8200;-68.2900;-8.5300
1376.8140;-76.4300;-68.4400;-7.9900
1377.0130;-77.0100;-68.7600;-8.2500
1377.2120;-76.9700;-69.0800;-7.8900
1377.4120;-76.8000;-69.1500;-7.6500
1377.6110;-76.4700;-69.2500;-7.2200
1377.8100;-75.7200;-69.2800;-6.4400
1378.0090;-76.0500;-69.4300;-6.6200
1378.2080;-75.3500;-69.6300;-5.7200
1378.4070;-75.6600;-69.8500;-5.8100
1378.6060;-75.8500;-70.2800;-5.5700
1378.8050;-75.1200;-70.5400;-4.5800
1379.0040;-75.1800;-70.5900;-4.5900
1379.2040;-74.9900;-70.8700;-4.1200
1379.4030;-75.1500;-71.0200;-4.1300
1379.6020;-74.5300;-70.7300;-3.8000
1379.8010;-74.4900;-71.0400;-3.4500
1380.0000;-74.4900;-71.3100;-3.1800
1380.1990;-74.0100;-71.4500;-2.5600
1380.3980;-74.1400;-71.7300;-2.4100
1380.5970;-74.0900;-72.3200;-1.7700
1380.7970;-74.9400;-72.8500;-2.0900
1380.9960;-74.8400;-72.8900;-1.9500
1381.1950;-74.9300;-72.9500;-1.9800
1381.3940;-74.5100;-72.7500;-1.7600
1381.5930;-74.4200;-72.4600;-1.9600
1381.7920;-74.4600;-72.6100;-1.8500
1381.9910;-74.8900;-72.7200;-2.1700
1382.1900;-74.9300;-72.7500;-2.1800
1382.3890;-75.1800;-73.4100;-1.7700
1382.5890;-75.8800;-73.4600;-2.4200
1382.7880;-76.8600;-74.4200;-2.4400
1382.9870;-76.5400;-74.7300;-1.8100
1383.1860;-76.4300;-74.9500;-1.4800
1383.3850;-77.0500;-74.2800;-2.7700
1383.5840;-77.5000;-74.1500;-3.3500
1383.7830;-76.9900;-73.7600;-3.2300
1383.9820;-78.1700;-74.1100;-4.0600
1384.1810;-77.9200;-74.2600;-3.6600
1384.3810;-79.1200;-74.3000;-4.8200
1384.5800;-79.8000;-74.0300;-5.7700
1384.7790;-80.7400;-74.1000;-6.6400
1384.9780;-80.3500;-74.8900;-5.4600
1385.1770;-83.1600;-74.7000;-8.4600
1385.3760;-81.6900;-75.1300;-6.5600
1385.5750;-80.8300;-75.0800;-5.7500
1385.7740;-81.2700;-75.3000;-5.9700
1385.9740;-82.9300;-75.3000;-7.6300
1386.1730;-81.5800;-75.3000;-6.2800
1386.3720;-85.0000;-74.9700;-10.0300
1386.5710;-82.5000;-75.3200;-7.1800
1386.7700;-85.5100;-75.0900;-10.4200
1386.9690;-83.4800;-75.1400;-8.3400
1387.1680;-80.6500;-75.7600;-4.8900
1387.3670;-81.2700;-75.5900;-5.6800
1387.5660;-82.4300;-76.0100;-6.4200
1387.7660;-81.9900;-75.9100;-6.0800
1387.9650;-82.9300;-76.4800;-6.4500
1388.1640;-82.7800;-76.9800;-5.8000
1388.3630;-84.0300;-76.8100;-7.2200
1388.5620;-81.4200;-76.5500;-4.8700
1388.7610;-83.0000;-77.0200;-5.9800
1388.9600;-83.5700;-76.8100;-6.7600
1389.1590;-81.8700;-76.3100;-5.5600
1389.3580;-80.6900;-76.5800;-4.1100
1389.5580;-81.4200;-76.6900;-4.7300
1389.7570;-84.3300;-77.7000;-6.6300
1389.9560;-82.5000;-77.7000;-4.8000
1390.1550;-82.3600;-76.6900;-5.6700
1390.3540;-80.9200;-76.5600;-4.3600
1390.5530;-80.8300;-76.6500;-4.1800
1390.7520;-81.3200;-76.8900;-4.4300
1390.9510;-82.7100;-76.6500;-6.0600
1391.1500;-81.5300;-78.2300;-3.3000
1391.3500;-82.5000;-76.9400;-5.5600
1391.5490;-82.7900;-77.5600;-5.2300
1391.7480;-83.0100;-77.1100;-5.9000
1391.9470;-81.2200;-77.0300;-4.1900
1392.1460;-82.1200;-77.1800;-4.9400
1392.3450;-81.1200;-77.4700;-3.6500
1392.5440;-81.7000;-78.4200;-3.2800
1392.7430;-83.2500;-79.2700;-3.9800
1392.9430;-82.3700;-78.4700;-3.9000
1393.1420;-82.9400;-77.7100;-5.2300
1393.3410;-87.1500;-77.8300;-9.3200
1393.5400;-83.6700;-77.7400;-5.9300
1393.7390;-85.5200;-77.4900;-8.0300
1393.9380;-84.3400;-78.6400;-5.7000
1394.1370;-83.2500;-78.6700;-4.5800
1394.3360;-81.7600;-78.6900;-3.0700
1394.5350;-81.6500;-78.3200;-3.3300
1394.7350;-81.1700;-77.3900;-3.7800
1394.9340;-78.9600;-78.1600;-0.8000
1395.1330;-81.2800;-78.2600;-3.0200
1395.3320;-84.1300;-78.8400;-5.2900
1395.5310;-81.2200;-79.2300;-1.9900
1395.7300;-80.2400;-78.9900;-1.2500
1395.9290;-82.2400;-78.3200;-3.9200
1396.1280;-81.8800;-77.9700;-3.9100
1396.3270;-80.0000;-77.6200;-2.3800
1396.5270;-84.4400;-78.4200;-6.0200
1396.7260;-81.7000;-79.5000;-2.2000
1396.9250;-81.7000;-79.7100;-1.9900
1397.1240;-81.4800;-79.3600;-2.1200
1397.3230;-80.6600;-79.4300;-1.2300
1397.5220;-83.9400;-79.1700;-4.7700
1397.7210;-81.5400;-78.9900;-2.5500
1397.9200;-80.9300;-78.3900;-2.5400
1398.1200;-81.4800;-77.4300;-4.0500
1398.3190;-82.0600;-77.8700;-4.1900
1398.5180;-80.5400;-79.0000;-1.5400
1398.7170;-81.4900;-78.3800;-3.1100
1398.9160;-81.3900;-78.3500;-3.0400
1399.1150;-81.1300;-78.6500;-2.4800
1399.3140;-80.4100;-79.2100;-1.2000
1399.5130;-83.9500;-78.3800;-5.5700
1399.7120;-82.9500;-79.8600;-3.0900
1399.9120;-83.9500;-80.3300;-3.6200
1400.1110;-82.8000;-80.0100;-2.7900
1400.3100;-81.4900;-78.5400;-2.9500
1400.5090;-82.9500;-79.0000;-3.9500
1400.7080;-87.3600;-78.7000;-8.6600
1400.9070;-83.9500;-79.6100;-4.3400
1401.1060;-83.9500;-78.0300;-5.9200
1401.3050;-83.3400;-79.8600;-3.4800
1401.5040;-84.2400;-79.0600;-5.1800
1401.7040;-84.0500;-79.6800;-4.3700
1401.9030;-81.5500;-80.4100;-1.1400
1402.1020;-81.2900;-80.0900;-1.2000
1402.3010;-84.4500;-80.4900;-3.9600
1402.5000;-80.9400;-78.1500;-2.7900
1402.6990;-82.9500;-79.9000;-3.0500
1402.8980;-81.7700;-78.7600;-3.0100
1403.0970;-81.3900;-78.4800;-2.9100
1403.2970;-83.5900;-79.0300;-4.5600
1403.4960;-81.8300;-79.9300;-1.9000
1403.6950;-84.5600;-79.0000;-5.5600
1403.8940;-83.5900;-79.7200;-3.8700
1404.0930;-82.5200;-79.5100;-3.0100
1404.2920;-82.9500;-80.7100;-2.2400
1404.4910;-85.8100;-78.5400;-7.2700
1404.6900;-82.9500;-79.6500;-3.3000
1404.8890;-86.7800;-78.4800;-8.3000
1405.0890;-81.6600;-81.1800;-0.4800
1405.2880;-81.9500;-79.9000;-2.0500
1405.4870;-82.5200;-80.0500;-2.4700
1405.6860;-84.4500;-79.7200;-4.7300
1405.8850;-84.9000;-78.6500;-6.2500
1406.0840;-81.1800;-78.9700;-2.2100
1406.2830;-81.7100;-79.0600;-2.6500
1406.4820;-82.1300;-79.2100;-2.9200
1406.6810;-82.5300;-79.3500;-3.1800
1406.8810;-86.1200;-78.9200;-7.2000
1407.0800;-82.2600;-78.3600;-3.9000
1407.2790;-82.7400;-80.1000;-2.6400
1407.4780;-83.6000;-80.9500;-2.6500
1407.6770;-82.8100;-79.2500;-3.5600
1407.8760;-84.9100;-79.5200;-5.3900
1408.0750;-82.9600;-78.9500;-4.0100
1408.2740;-82.1400;-79.2500;-2.8900
1408.4740;-85.8200;-78.1300;-7.6900
1408.6730;-83.7800;-78.8300;-4.9500
1408.8720;-82.1400;-78.4400;-3.7000
1409.0710;-83.1100;-78.9200;-4.1900
1409.2700;-83.4300;-78.4400;-4.9900
1409.4690;-84.5700;-80.3800;-4.1900
1409.6680;-81.4000;-80.0200;-1.3800
1409.8670;-80.8600;-79.5200;-1.3400
1410.0660;-81.3000;-79.2200;-2.0800
1410.2660;-82.3900;-78.2600;-4.1300
1410.4650;-81.5600;-79.5200;-2.0400
1410.6640;-84.9100;-79.0100;-5.9000
1410.8630;-82.9600;-78.6900;-4.2700
1411.0620;-80.2600;-78.8000;-1.4600
1411.2610;-81.3500;-79.6600;-1.6900
1411.4600;-81.1000;-78.8000;-2.3000
1411.6590;-82.0800;-78.2600;-3.8200
1411.8580;-82.5300;-78.1300;-4.4000
1412.0580;-81.9600;-77.9600;-4.0000
1412.2570;-80.5000;-78.0900;-2.4100
1412.4560;-82.1400;-78.8600;-3.2800
1412.6550;-81.2400;-78.0400;-3.2000
1412.8540;-83.1900;-79.4800;-3.7100
1413.0530;-82.2600;-78.7100;-3.5500
1413.2520;-82.2600;-78.5500;-3.7100
1413.4510;-82.0200;-77.6700;-4.3500
1413.6500;-83.5200;-78.5000;-5.0200
1413.8500;-84.3700;-78.1700;-6.2000
1414.0490;-82.0900;-78.6700;-3.4200
1414.2480;-81.8500;-79.2600;-2.5900
1414.4470;-81.2500;-78.9900;-2.2600
1414.6460;-84.3700;-79.7400;-4.6300
1414.8450;-84.8000;-79.4600;-5.3400
1415.0440;-83.9700;-78.4500;-5.5200
1415.2430;-81.5700;-78.6700;-2.9000
1415.4430;-80.7300;-79.2300;-1.5000
1415.6420;-82.9700;-78.9000;-4.0700
1415.8410;-82.2700;-78.7200;-3.5500
1416.0400;-82.0300;-78.1400;-3.8900
1416.2390;-82.9700;-78.7200;-4.2500
1416.4380;-84.2600;-78.1900;-6.0700
1416.6370;-80.1900;-78.9000;-1.2900
1416.8360;-82.0300;-79.7000;-2.3300
1417.0350;-81.7900;-78.8400;-2.9500
1417.2350;-80.6400;-77.8800;-2.7600
1417.4340;-82.3400;-77.4600;-4.8800
1417.6330;-80.3900;-78.1200;-2.2700
1417.8320;-82.4000;-78.0000;-4.4000
1418.0310;-81.7900;-77.4200;-4.3700
1418.2300;-82.5400;-77.8100;-4.7300
1418.4290;-80.6900;-78.2400;-2.4500
1418.6280;-82.0300;-77.6800;-4.3500
1418.8270;-82.0300;-78.6100;-3.4200
1419.0270;-81.9100;-79.1400;-2.7700
1419.2260;-86.2900;-78.0500;-8.2400
1419.4250;-80.7800;-78.6700;-2.1100
1419.6240;-82.5400;-78.6100;-3.9300
1419.8230;-80.4300;-78.0500;-2.3800
1420.0220;-81.3600;-78.4500;-2.9100
1420.2210;-82.2700;-78.1000;-4.1700
1420.4200;-83.2800;-78.2400;-5.0400
1420.6200;-81.1100;-77.5500;-3.5600
1420.8190;-81.9100;-78.4800;-3.4300
1421.0180;-83.2800;-78.0200;-5.2600
1421.2170;-83.6100;-78.1000;-5.5100
1421.4160;-80.7800;-78.2200;-2.5600
1421.6150;-82.9800;-78.5700;-4.4100
1421.8140;-80.0000;-77.9400;-2.0600
1422.0130;-80.7000;-77.7800;-2.9200
1422.2120;-81.1600;-78.4600;-2.7000
1422.4120;-82.0400;-77.6900;-4.3500
1422.6110;-81.1200;-78.1500;-2.9700
1422.8100;-80.0400;-77.7100;-2.3300
1423.0090;-82.0400;-78.6200;-3.4200
1423.2080;-81.1600;-78.1100;-3.0500
1423.4070;-80.4000;-77.8700;-2.5300
1423.6060;-83.8000;-78.4600;-5.3400
1423.8050;-83.8000;-78.1100;-5.6900
1424.0040;-82.5500;-78.2000;-4.3500
1424.2040;-80.4000;-78.8200;-1.5800
1424.4030;-82.2200;-78.7900;-3.4300
1424.6020;-84.0800;-77.9600;-6.1200
1424.8010;-84.1700;-77.0900;-7.0800
1425.0000;-81.2600;-77.1900;-4.0700
