Wavelength;Intensity_Meas;Intensity_Ref;Difference_dB
1200.0000;-61.6500;-57.3300;-4.3200
1200.1990;-61.5800;-57.3100;-4.2700
1200.3980;-61.5300;-57.2900;-4.2400
1200.5970;-61.4800;-57.2600;-4.2200
1200.7970;-61.4100;-57.2100;-4.2000
1200.9960;-61.3300;-57.2000;-4.1300
1201.1950;-61.3000;-57.1800;-4.1200
1201.3940;-61.2500;-57.1100;-4.1400
1201.5930;-61.1800;-57.0700;-4.1100
1201.7920;-61.1200;-57.0200;-4.1000
1201.9910;-61.0600;-56.9800;-4.0800
1202.1900;-60.9900;-56.9500;-4.0400
1202.3890;-60.9400;-56.8700;-4.0700
1202.5890;-60.8900;-56.8000;-4.0900
1202.7880;-60.8300;-56.7800;-4.0500
1202.9870;-60.7800;-56.7300;-4.0500
1203.1860;-60.7400;-56.6800;-4.0600
1203.3850;-60.6900;-56.6000;-4.0900
1203.5840;-60.6500;-56.5700;-4.0800
1203.7830;-60.6200;-56.5400;-4.0800
1203.9820;-60.6400;-56.4900;-4.1500
1204.1810;-60.6100;-56.4500;-4.1600
1204.3810;-60.5800;-56.3900;-4.1900
1204.5800;-60.6000;-56.3900;-4.2100
1204.7790;-60.6000;-56.3700;-4.2300
1204.9780;-60.6300;-56.3100;-4.3200
1205.1770;-60.6600;-56.2800;-4.3800
1205.3760;-60.6900;-56.2700;-4.4200
1205.5750;-60.7100;-56.2500;-4.4600
1205.7740;-60.7800;-56.2300;-4.5500
1205.9740;-60.8000;-56.2100;-4.5900
1206.1730;-60.8000;-56.2000;-4.6000
1206.3720;-60.7900;-56.1800;-4.6100
1206.5710;-60.8300;-56.1600;-4.6700
1206.7700;-60.8100;-56.1400;-4.6700
1206.9690;-60.7700;-56.1000;-4.6700
1207.1680;-60.7400;-56.1000;-4.6400
1207.3670;-60.7200;-56.0800;-4.6400
1207.5660;-60.6700;-56.0200;-4.6500
1207.7660;-60.5900;-56.0100;-4.5800
1207.9650;-60.5200;-55.9800;-4.5400
1208.1640;-60.4800;-55.9400;-4.5400
1208.3630;-60.4400;-55.8900;-4.5500
1208.5620;-60.3600;-55.8600;-4.5000
1208.7610;-60.2700;-55.8300;-4.4400
1208.9600;-60.2000;-55.7800;-4.4200
1209.1590;-60.1500;-55.7300;-4.4200
1209.3580;-60.1100;-55.6600;-4.4500
1209.5580;-60.0200;-55.6200;-4.4000
1209.7570;-59.9500;-55.6000;-4.3500
1209.9560;-59.9200;-55.5300;-4.3900
1210.1550;-59.8700;-55.4600;-4.4100
1210.3540;-59.8000;-55.4200;-4.3800
1210.5530;-59.7400;-55.3900;-4.3500
1210.7520;-59.7200;-55.3400;-4.3800
1210.9510;-59.7000;-55.2800;-4.4200
1211.1500;-59.6300;-55.2400;-4.3900
1211.3500;-59.5700;-55.2000;-4.3700
1211.5490;-59.5600;-55.1800;-4.3800
1211.7480;-59.5500;-55.1500;-4.4000
1211.9470;-59.5000;-55.0800;-4.4200
1212.1460;-59.4400;-55.0700;-4.3700
1212.3450;-59.4400;-55.0500;-4.3900
1212.5440;-59.4500;-55.0100;-4.4400
1212.7430;-59.4300;-54.9800;-4.4500
1212.9430;-59.4000;-54.9500;-4.4500
1213.1420;-59.3900;-54.9200;-4.4700
1213.3410;-59.4200;-54.8900;-4.5300
1213.5400;-59.4100;-54.8700;-4.5400
1213.7390;-59.3800;-54.8500;-4.5300
1213.9380;-59.3700;-54.8000;-4.5700
1214.1370;-59.3800;-54.7900;-4.5900
1214.3360;-59.3800;-54.7300;-4.6500
1214.5350;-59.3400;-54.7000;-4.6400
1214.7350;-59.3100;-54.6800;-4.6300
1214.9340;-59.3100;-54.6300;-4.6800
1215.1330;-59.2900;-54.5800;-4.7100
1215.3320;-59.2300;-54.5300;-4.7000
1215.5310;-59.2000;-54.4900;-4.7100
1215.7300;-59.1800;-54.4500;-4.7300
1215.9290;-59.1600;-54.3900;-4.7700
1216.1280;-59.1000;-54.3300;-4.7700
1216.3270;-59.0300;-54.2600;-4.7700
1216.5270;-59.0100;-54.2300;-4.7800
1216.7260;-58.9700;-54.1800;-4.7900
1216.9250;-58.9100;-54.1000;-4.8100
1217.1240;-58.8400;-54.0500;-4.7900
1217.3230;-58.8200;-53.9900;-4.8300
1217.5220;-58.7900;-53.9400;-4.8500
1217.7210;-58.7600;-53.9000;-4.8600
1217.9200;-58.6900;-53.8400;-4.8500
1218.1200;-58.6400;-53.8000;-4.8400
1218.3190;-58.6400;-53.7500;-4.8900
1218.5180;-58.6200;-53.7100;-4.9100
1218.7170;-58.5600;-53.6600;-4.9000
1218.9160;-58.5300;-53.6300;-4.9000
1219.1150;-58.5400;-53.6100;-4.9300
1219.3140;-58.5100;-53.5500;-4.9600
1219.5130;-58.4700;-53.5300;-4.9400
1219.7120;-58.4400;-53.5100;-4.9300
1219.9120;-58.4200;-53.4600;-4.9600
1220.1110;-58.4000;-53.4300;-4.9700
1220.3100;-58.3400;-53.3900;-4.9500
1220.5090;-58.2800;-53.3500;-4.9300
1220.7080;-58.2900;-53.3300;-4.9600
1220.9070;-58.2600;-53.2800;-4.9800
1221.1060;-58.1700;-53.2200;-4.9500
1221.3050;-58.1100;-53.1900;-4.9200
1221.5040;-58.0700;-53.1400;-4.9300
1221.7040;-58.0400;-53.0800;-4.9600
1221.9030;-57.9500;-53.0300;-4.9200
1222.1020;-57.8600;-52.9700;-4.8900
1222.3010;-57.8300;-52.9100;-4.9200
1222.5000;-57.7700;-52.8400;-4.9300
1222.6990;-57.7000;-52.7900;-4.9100
1222.8980;-57.6300;-52.7100;-4.9200
1223.0970;-57.5800;-52.6500;-4.9300
1223.2970;-57.5600;-52.5800;-4.9800
1223.4960;-57.4600;-52.5000;-4.9600
1223.6950;-57.4100;-52.4500;-4.9600
1223.8940;-57.3800;-52.3800;-5.0000
1224.0930;-57.3500;-52.3100;-5.0400
1224.2920;-57.2900;-52.2400;-5.0500
1224.4910;-57.2200;-52.1800;-5.0400
1224.6900;-57.1700;-52.1300;-5.0400
1224.8890;-57.1200;-52.0500;-5.0700
1225.0890;-57.0300;-52.0100;-5.0200
1225.2880;-56.9400;-51.9300;-5.0100
1225.4870;-56.8400;-51.8700;-4.9700
1225.6860;-56.7700;-51.8400;-4.9300
1225.8850;-56.6300;-51.7800;-4.8500
1226.0840;-56.4700;-51.7300;-4.7400
1226.2830;-56.3700;-51.6800;-4.6900
1226.4820;-56.2300;-51.6200;-4.6100
1226.6810;-56.0800;-51.5900;-4.4900
1226.8810;-55.9100;-51.5400;-4.3700
1227.0800;-55.7400;-51.4800;-4.2600
1227.2790;-55.6400;-51.4400;-4.2000
1227.4780;-55.4800;-51.3800;-4.1000
1227.6770;-55.3500;-51.3400;-4.0100
1227.8760;-55.2400;-51.2700;-3.9700
1228.0750;-55.1300;-51.2200;-3.9100
1228.2740;-55.0300;-51.1500;-3.8800
1228.4740;-54.9100;-51.0800;-3.8300
1228.6730;-54.8600;-51.0300;-3.8300
1228.8720;-54.8000;-50.9500;-3.8500
1229.0710;-54.7300;-50.8900;-3.8400
1229.2700;-54.6800;-50.8100;-3.8700
1229.4690;-54.6400;-50.7200;-3.9200
1229.6680;-54.6300;-50.6700;-3.9600
1229.8670;-54.5800;-50.5700;-4.0100
1230.0660;-54.5800;-50.4900;-4.0900
1230.2660;-54.6100;-50.4100;-4.2000
1230.4650;-54.6100;-50.3300;-4.2800
1230.6640;-54.6400;-50.2600;-4.3800
1230.8630;-54.7000;-50.1800;-4.5200
1231.0620;-54.7700;-50.1100;-4.6600
1231.2610;-54.8400;-50.0500;-4.7900
1231.4600;-54.8900;-49.9800;-4.9100
1231.6590;-54.9600;-49.9300;-5.0300
1231.8580;-55.0100;-49.8500;-5.1600
1232.0580;-55.0400;-49.8100;-5.2300
1232.2570;-55.0500;-49.7400;-5.3100
1232.4560;-55.0200;-49.6800;-5.3400
1232.6550;-54.9600;-49.6400;-5.3200
1232.8540;-54.8500;-49.5700;-5.2800
1233.0530;-54.7000;-49.5300;-5.1700
1233.2520;-54.5500;-49.4600;-5.0900
1233.4510;-54.3500;-49.4100;-4.9400
1233.6500;-54.1500;-49.3700;-4.7800
1233.8500;-53.9100;-49.3000;-4.6100
1234.0490;-53.7000;-49.2500;-4.4500
1234.2480;-53.5000;-49.1800;-4.3200
1234.4470;-53.2900;-49.1200;-4.1700
1234.6460;-53.1000;-49.0600;-4.0400
1234.8450;-52.9400;-48.9900;-3.9500
1235.0440;-52.7900;-48.9300;-3.8600
1235.2430;-52.6600;-48.8400;-3.8200
1235.4430;-52.5300;-48.7600;-3.7700
1235.6420;-52.4500;-48.6900;-3.7600
1235.8410;-52.3600;-48.6000;-3.7600
1236.0400;-52.3000;-48.5300;-3.7700
1236.2390;-52.2400;-48.4200;-3.8200
1236.4380;-52.2000;-48.3300;-3.8700
1236.6370;-52.2000;-48.2500;-3.9500
1236.8360;-52.1700;-48.1500;-4.0200
1237.0350;-52.1700;-48.0800;-4.0900
1237.2350;-52.1800;-47.9900;-4.1900
1237.4340;-52.1900;-47.9000;-4.2900
1237.6330;-52.2000;-47.8100;-4.3900
1237.8320;-52.2000;-47.7400;-4.4600
1238.0310;-52.2200;-47.6600;-4.5600
1238.2300;-52.2200;-47.5700;-4.6500
1238.4290;-52.1900;-47.5000;-4.6900
1238.6280;-52.1800;-47.4200;-4.7600
1238.8270;-52.1200;-47.3400;-4.7800
1239.0270;-52.0600;-47.2700;-4.7900
1239.2260;-51.9600;-47.1800;-4.7800
1239.4250;-51.8500;-47.1100;-4.7400
1239.6240;-51.7700;-47.0300;-4.7400
1239.8230;-51.6200;-46.9400;-4.6800
1240.0220;-51.4800;-46.8700;-4.6100
1240.2210;-51.3500;-46.7700;-4.5800
1240.4200;-51.2100;-46.6900;-4.5200
1240.6200;-51.0900;-46.5900;-4.5000
1240.8190;-50.9600;-46.4900;-4.4700
1241.0180;-50.8500;-46.3800;-4.4700
1241.2170;-50.7500;-46.2700;-4.4800
1241.4160;-50.6500;-46.1700;-4.4800
1241.6150;-50.5800;-46.0300;-4.5500
1241.8140;-50.5300;-45.9100;-4.6200
1242.0130;-50.4800;-45.8000;-4.6800
1242.2120;-50.4300;-45.6900;-4.7400
1242.4120;-50.4000;-45.5600;-4.8400
1242.6110;-50.3800;-45.4200;-4.9600
1242.8100;-50.3400;-45.3100;-5.0300
1243.0090;-50.3000;-45.1700;-5.1300
1243.2080;-50.2700;-45.0500;-5.2200
1243.4070;-50.2400;-44.9200;-5.3200
1243.6060;-50.1800;-44.7900;-5.3900
1243.8050;-50.1200;-44.6800;-5.4400
1244.0040;-50.0700;-44.5400;-5.5300
1244.2040;-49.9900;-44.4100;-5.5800
1244.4030;-49.9200;-44.2900;-5.6300
1244.6020;-49.8500;-44.1600;-5.6900
1244.8010;-49.7800;-44.0500;-5.7300
1245.0000;-49.7200;-43.9100;-5.8100
1245.1990;-49.6500;-43.7900;-5.8600
1245.3980;-49.6100;-43.6700;-5.9400
1245.5970;-49.5800;-43.5300;-6.0500
1245.7970;-49.5300;-43.4100;-6.1200
1245.9960;-49.5000;-43.2600;-6.2400
1246.1950;-49.4800;-43.1400;-6.3400
1246.3940;-49.4500;-43.0000;-6.4500
1246.5930;-49.4200;-42.8500;-6.5700
1246.7920;-49.3700;-42.7300;-6.6400
1246.9910;-49.3000;-42.5600;-6.7400
1247.1900;-49.1800;-42.4200;-6.7600
1247.3890;-49.0300;-42.2700;-6.7600
1247.5890;-48.8400;-42.1100;-6.7300
1247.7880;-48.5900;-41.9700;-6.6200
1247.9870;-48.2800;-41.8000;-6.4800
1248.1860;-47.9300;-41.6500;-6.2800
1248.3850;-47.5500;-41.5000;-6.0500
1248.5840;-47.1400;-41.3300;-5.8100
1248.7830;-46.6900;-41.1800;-5.5100
1248.9820;-46.2600;-41.0200;-5.2400
1249.1810;-45.7300;-40.8700;-4.8600
1249.3810;-45.3600;-40.7200;-4.6400
1249.5800;-44.9300;-40.5600;-4.3700
1249.7790;-44.5200;-40.4200;-4.1000
1249.9780;-44.1200;-40.2500;-3.8700
1250.1770;-43.7400;-40.1100;-3.6300
1250.3760;-43.3900;-39.9700;-3.4200
1250.5750;-43.0500;-39.8100;-3.2400
1250.7740;-42.7300;-39.6700;-3.0600
1250.9740;-42.4500;-39.5200;-2.9300
1251.1730;-42.1800;-39.3800;-2.8000
1251.3720;-41.9300;-39.2300;-2.7000
1251.5710;-41.6800;-39.0900;-2.5900
1251.7700;-41.4600;-38.9500;-2.5100
1251.9690;-41.2500;-38.7900;-2.4600
1252.1680;-41.0300;-38.6400;-2.3900
1252.3670;-40.8300;-38.4700;-2.3600
1252.5660;-40.6400;-38.3200;-2.3200
1252.7660;-40.4500;-38.1700;-2.2800
1252.9650;-40.2700;-38.0100;-2.2600
1253.1640;-40.0800;-37.8500;-2.2300
1253.3630;-39.9000;-37.6800;-2.2200
1253.5620;-39.7100;-37.5200;-2.1900
1253.7610;-39.5100;-37.3500;-2.1600
1253.9600;-39.3400;-37.1900;-2.1500
1254.1590;-39.1400;-37.0300;-2.1100
1254.3580;-38.9500;-36.8500;-2.1000
1254.5580;-38.7500;-36.7000;-2.0500
1254.7570;-38.5500;-36.5400;-2.0100
1254.9560;-38.3600;-36.3700;-1.9900
1255.1550;-38.1700;-36.2300;-1.9400
1255.3540;-37.9900;-36.0600;-1.9300
1255.5530;-37.7900;-35.9200;-1.8700
1255.7520;-37.6000;-35.7400;-1.8600
1255.9510;-37.4200;-35.6300;-1.7900
1256.1500;-37.2500;-35.4900;-1.7600
1256.3500;-37.0800;-35.3400;-1.7400
1256.5490;-36.9000;-35.2200;-1.6800
1256.7480;-36.7300;-35.0700;-1.6600
1256.9470;-36.5500;-34.9400;-1.6100
1257.1460;-36.3700;-34.8000;-1.5700
1257.3450;-36.2100;-34.6600;-1.5500
1257.5440;-36.0400;-34.5400;-1.5000
1257.7430;-35.8400;-34.3900;-1.4500
1257.9430;-35.6900;-34.2500;-1.4400
1258.1420;-35.5300;-34.1200;-1.4100
1258.3410;-35.3500;-33.9700;-1.3800
1258.5400;-35.1700;-33.8400;-1.3300
1258.7390;-35.0000;-33.6800;-1.3200
1258.9380;-34.8200;-33.5400;-1.2800
1259.1370;-34.6500;-33.3900;-1.2600
1259.3360;-34.4700;-33.2400;-1.2300
1259.5350;-34.3000;-33.1000;-1.2000
1259.7350;-34.1300;-32.9400;-1.1900
1259.9340;-33.9500;-32.8000;-1.1500
1260.1330;-33.8000;-32.6500;-1.1500
1260.3320;-33.6300;-32.4900;-1.1400
1260.5310;-33.4700;-32.3600;-1.1100
1260.7300;-33.3200;-32.2000;-1.1200
1260.9290;-33.1600;-32.0700;-1.0900
1261.1280;-33.0100;-31.9200;-1.0900
1261.3270;-32.8600;-31.7700;-1.0900
1261.5270;-32.7200;-31.6500;-1.0700
1261.7260;-32.5800;-31.5100;-1.0700
1261.9250;-32.4300;-31.3800;-1.0500
1262.1240;-32.3000;-31.2400;-1.0600
1262.3230;-32.1500;-31.1100;-1.0400
1262.5220;-32.0100;-31.0000;-1.0100
1262.7210;-31.8800;-30.8600;-1.0200
1262.9200;-31.7300;-30.7400;-0.9900
1263.1200;-31.6000;-30.6000;-1.0000
1263.3190;-31.4400;-30.4700;-0.9700
1263.5180;-31.3100;-30.3600;-0.9500
1263.7170;-31.1700;-30.2100;-0.9600
1263.9160;-31.0200;-30.0900;-0.9300
1264.1150;-30.8900;-29.9500;-0.9400
1264.3140;-30.7400;-29.8100;-0.9300
1264.5130;-30.6000;-29.6900;-0.9100
1264.7120;-30.4600;-29.5500;-0.9100
1264.9120;-30.3200;-29.4200;-0.9000
1265.1110;-30.1900;-29.2700;-0.9200
1265.3100;-30.0400;-29.1400;-0.9000
1265.5090;-29.9200;-29.0100;-0.9100
1265.7080;-29.8000;-28.8700;-0.9300
1265.9070;-29.6700;-28.7500;-0.9200
1266.1060;-29.5600;-28.6100;-0.9500
1266.3050;-29.4400;-28.4800;-0.9600
1266.5040;-29.3400;-28.3700;-0.9700
1266.7040;-29.2300;-28.2400;-0.9900
1266.9030;-29.1200;-28.1200;-1.0000
1267.1020;-29.0400;-27.9900;-1.0500
1267.3010;-28.9300;-27.8700;-1.0600
1267.5000;-28.8500;-27.7700;-1.0800
1267.6990;-28.7700;-27.6500;-1.1200
1267.8980;-28.6800;-27.5500;-1.1300
1268.0970;-28.6200;-27.4300;-1.1900
1268.2970;-28.5300;-27.3200;-1.2100
1268.4960;-28.4700;-27.2200;-1.2500
1268.6950;-28.4100;-27.1000;-1.3100
1268.8940;-28.3500;-27.0000;-1.3500
1269.0930;-28.3100;-26.8800;-1.4300
1269.2920;-28.2500;-26.7700;-1.4800
1269.4910;-28.2300;-26.6600;-1.5700
1269.6900;-28.2100;-26.5400;-1.6700
1269.8890;-28.1900;-26.4400;-1.7500
1270.0890;-28.2100;-26.3100;-1.9000
1270.2880;-28.2200;-26.2000;-2.0200
1270.4870;-28.2800;-26.0700;-2.2100
1270.6860;-28.3500;-25.9700;-2.3800
1270.8850;-28.4400;-25.8500;-2.5900
1271.0840;-28.5800;-25.7300;-2.8500
1271.2830;-28.7200;-25.6300;-3.0900
1271.4820;-28.9200;-25.5000;-3.4200
1271.6810;-29.1600;-25.3900;-3.7700
1271.8810;-29.4400;-25.2800;-4.1600
1272.0800;-29.7900;-25.1700;-4.6200
1272.2790;-30.1700;-25.0600;-5.1100
1272.4780;-30.6300;-24.9500;-5.6800
1272.6770;-31.1500;-24.8500;-6.3000
1272.8760;-31.7400;-24.7400;-7.0000
1273.0750;-32.4400;-24.6500;-7.7900
1273.2740;-33.2100;-24.5600;-8.6500
1273.4740;-34.1000;-24.4500;-9.6500
1273.6730;-35.0800;-24.3700;-10.7100
1273.8720;-36.1500;-24.2700;-11.8800
1274.0710;-37.2600;-24.1800;-13.0800
1274.2700;-38.4700;-24.0900;-14.3800
1274.4690;-38.9900;-23.9900;-15.0000
1274.6680;-39.0800;-23.9100;-15.1700
1274.8670;-38.5300;-23.8100;-14.7200
1275.0660;-37.4900;-23.7200;-13.7700
1275.2660;-36.2600;-23.6400;-12.6200
1275.4650;-34.8100;-23.5400;-11.2700
1275.6640;-33.8300;-23.4600;-10.3700
1275.8630;-32.7700;-23.3600;-9.4100
1276.0620;-31.8000;-23.2700;-8.5300
1276.2610;-30.9600;-23.1800;-7.7800
1276.4600;-30.1900;-23.0900;-7.1000
1276.6590;-29.5200;-23.0000;-6.5200
1276.8580;-28.9400;-22.9000;-6.0400
1277.0580;-28.4200;-22.8200;-5.6000
1277.2570;-27.9900;-22.7300;-5.2600
1277.4560;-27.6000;-22.6400;-4.9600
1277.6550;-27.2800;-22.5700;-4.7100
1277.8540;-27.0100;-22.4700;-4.5400
1278.0530;-26.7900;-22.4000;-4.3900
1278.2520;-26.6300;-22.3100;-4.3200
1278.4510;-26.4900;-22.2300;-4.2600
1278.6500;-26.4200;-22.1600;-4.2600
1278.8500;-26.3600;-22.0700;-4.2900
1279.0490;-26.3400;-22.0000;-4.3400
1279.2480;-26.3700;-21.9200;-4.4500
1279.4470;-26.4200;-21.8400;-4.5800
1279.6460;-26.5100;-21.7700;-4.7400
1279.8450;-26.6100;-21.6800;-4.9300
1280.0440;-26.7400;-21.6200;-5.1200
1280.2430;-26.8900;-21.5400;-5.3500
1280.4430;-27.0400;-21.4600;-5.5800
1280.6420;-27.2200;-21.3900;-5.8300
1280.8410;-27.3900;-21.3100;-6.0800
1281.0400;-27.5700;-21.2400;-6.3300
1281.2390;-27.7600;-21.1600;-6.6000
1281.4380;-27.9300;-21.0800;-6.8500
1281.6370;-28.1100;-21.0100;-7.1000
1281.8360;-28.2700;-20.9300;-7.3400
1282.0350;-28.4300;-20.8700;-7.5600
1282.2350;-28.5700;-20.7800;-7.7900
1282.4340;-28.7200;-20.7100;-8.0100
1282.6330;-28.8800;-20.6500;-8.2300
1282.8320;-29.0200;-20.5800;-8.4400
1283.0310;-29.1700;-20.5200;-8.6500
1283.2300;-29.3300;-20.4500;-8.8800
1283.4290;-29.5000;-20.3900;-9.1100
1283.6280;-29.7000;-20.3200;-9.3800
1283.8270;-29.8900;-20.2600;-9.6300
1284.0270;-30.1100;-20.2100;-9.9000
1284.2260;-30.3200;-20.1400;-10.1800
1284.4250;-30.5500;-20.0900;-10.4600
1284.6240;-30.7900;-20.0300;-10.7600
1284.8230;-30.9900;-19.9700;-11.0200
1285.0220;-31.1900;-19.9300;-11.2600
1285.2210;-31.3200;-19.8600;-11.4600
1285.4200;-31.3900;-19.8100;-11.5800
1285.6200;-31.3800;-19.7500;-11.6300
1285.8190;-31.2600;-19.6900;-11.5700
1286.0180;-31.0500;-19.6500;-11.4000
1286.2170;-30.7200;-19.5800;-11.1400
1286.4160;-30.3200;-19.5400;-10.7800
1286.6150;-29.8700;-19.4900;-10.3800
1286.8140;-29.3500;-19.4300;-9.9200
1287.0130;-28.8200;-19.3900;-9.4300
1287.2120;-28.2500;-19.3300;-8.9200
1287.4120;-27.7000;-19.2900;-8.4100
1287.6110;-27.1600;-19.2300;-7.9300
1287.8100;-26.6300;-19.1800;-7.4500
1288.0090;-26.0500;-19.1400;-6.9100
1288.2080;-25.6500;-19.0800;-6.5700
1288.4070;-25.2200;-19.0500;-6.1700
1288.6060;-24.7900;-19.0000;-5.7900
1288.8050;-24.3900;-18.9600;-5.4300
1289.0040;-24.0100;-18.9200;-5.0900
1289.2040;-23.6500;-18.8700;-4.7800
1289.4030;-23.3300;-18.8500;-4.4800
1289.6020;-23.0100;-18.8000;-4.2100
1289.8010;-22.7200;-18.7600;-3.9600
1290.0000;-22.4400;-18.7200;-3.7200
1290.1990;-22.1800;-18.6800;-3.5000
1290.3980;-21.9400;-18.6600;-3.2800
1290.5970;-21.7100;-18.6200;-3.0900
1290.7970;-21.5000;-18.5900;-2.9100
1290.9960;-21.2800;-18.5300;-2.7500
1291.1950;-21.0800;-18.5000;-2.5800
1291.3940;-20.9000;-18.4700;-2.4300
1291.5930;-20.7100;-18.4100;-2.3000
1291.7920;-20.5700;-18.3900;-2.1800
1291.9910;-20.4100;-18.3400;-2.0700
1292.1900;-20.2800;-18.3100;-1.9700
1292.3890;-20.1600;-18.2700;-1.8900
1292.5890;-20.0400;-18.2200;-1.8200
1292.7880;-19.9600;-18.2000;-1.7600
1292.9870;-19.8600;-18.1500;-1.7100
1293.1860;-19.8000;-18.1300;-1.6700
1293.3850;-19.7400;-18.0900;-1.6500
1293.5840;-19.6900;-18.0500;-1.6400
1293.7830;-19.6800;-18.0200;-1.6600
1293.9820;-19.6600;-17.9900;-1.6700
1294.1810;-19.6700;-17.9700;-1.7000
1294.3810;-19.6900;-17.9300;-1.7600
1294.5800;-19.7200;-17.8900;-1.8300
1294.7790;-19.7900;-17.8700;-1.9200
1294.9780;-19.8600;-17.8400;-2.0200
1295.1770;-19.9700;-17.8200;-2.1500
1295.3760;-20.0800;-17.7900;-2.2900
1295.5750;-20.2100;-17.7600;-2.4500
1295.7740;-20.3800;-17.7300;-2.6500
1295.9740;-20.5500;-17.6900;-2.8600
1296.1730;-20.7700;-17.6800;-3.0900
1296.3720;-20.9900;-17.6500;-3.3400
1296.5710;-21.2500;-17.6300;-3.6200
1296.7700;-21.5500;-17.6000;-3.9500
1296.9690;-21.8600;-17.5800;-4.2800
1297.1680;-22.2300;-17.5700;-4.6600
1297.3670;-22.6100;-17.5500;-5.0600
1297.5660;-23.0300;-17.5300;-5.5000
1297.7660;-23.5000;-17.5100;-5.9900
1297.9650;-24.0100;-17.4900;-6.5200
1298.1640;-24.5900;-17.4800;-7.1100
1298.3630;-25.2100;-17.4700;-7.7400
1298.5620;-25.9000;-17.4600;-8.4400
1298.7610;-26.6500;-17.4400;-9.2100
1298.9600;-27.4900;-17.4400;-10.0500
1299.1590;-28.6100;-17.4300;-11.1800
1299.3580;-29.4500;-17.4200;-12.0300
1299.5580;-30.5400;-17.4200;-13.1200
1299.7570;-31.7100;-17.4100;-14.3000
1299.9560;-32.9100;-17.4100;-15.5000
1300.1550;-33.9600;-17.4000;-16.5600
1300.3540;-34.6500;-17.4000;-17.2500
1300.5530;-34.7400;-17.4000;-17.3400
1300.7520;-34.2000;-17.3900;-16.8100
1300.9510;-33.2500;-17.4000;-15.8500
1301.1500;-32.1000;-17.4000;-14.7000
1301.3500;-30.9400;-17.4000;-13.5400
1301.5490;-29.8400;-17.4100;-12.4300
1301.7480;-28.8200;-17.4100;-11.4100
1301.9470;-27.9000;-17.4200;-10.4800
1302.1460;-27.0700;-17.4200;-9.6500
1302.3450;-26.3100;-17.4300;-8.8800
1302.5440;-25.5200;-17.4300;-8.0900
1302.7430;-25.0200;-17.4300;-7.5900
1302.9430;-24.4600;-17.4400;-7.0200
1303.1420;-23.9600;-17.4400;-6.5200
1303.3410;-23.5100;-17.4600;-6.0500
1303.5400;-23.1000;-17.4600;-5.6400
1303.7390;-22.7300;-17.4600;-5.2700
1303.9380;-22.3900;-17.4700;-4.9200
1304.1370;-22.1000;-17.4800;-4.6200
1304.3360;-21.8400;-17.5000;-4.3400
1304.5350;-21.6100;-17.5000;-4.1100
1304.7350;-21.4200;-17.5100;-3.9100
1304.9340;-21.2300;-17.5200;-3.7100
1305.1330;-21.0900;-17.5300;-3.5600
1305.3320;-20.9700;-17.5500;-3.4200
1305.5310;-20.8800;-17.5600;-3.3200
1305.7300;-20.8200;-17.5800;-3.2400
1305.9290;-20.7600;-17.5800;-3.1800
1306.1280;-20.7500;-17.6000;-3.1500
1306.3270;-20.7500;-17.6100;-3.1400
1306.5270;-20.7800;-17.6300;-3.1500
1306.7260;-20.8400;-17.6500;-3.1900
1306.9250;-20.9000;-17.6500;-3.2500
1307.1240;-21.0100;-17.6800;-3.3300
1307.3230;-21.1300;-17.6900;-3.4400
1307.5220;-21.2800;-17.7100;-3.5700
1307.7210;-21.4700;-17.7400;-3.7300
1307.9200;-21.6700;-17.7500;-3.9200
1308.1200;-21.9100;-17.7900;-4.1200
1308.3190;-22.1600;-17.8000;-4.3600
1308.5180;-22.4600;-17.8400;-4.6200
1308.7170;-22.8000;-17.8800;-4.9200
1308.9160;-23.1400;-17.8900;-5.2500
1309.1150;-23.5400;-17.9400;-5.6000
1309.3140;-23.9600;-17.9600;-6.0000
1309.5130;-24.4300;-18.0100;-6.4200
1309.7120;-24.9400;-18.0500;-6.8900
1309.9120;-25.4700;-18.0700;-7.4000
1310.1110;-26.0700;-18.1300;-7.9400
1310.3100;-26.6900;-18.1600;-8.5300
1310.5090;-27.3700;-18.2100;-9.1600
1310.7080;-28.1100;-18.2500;-9.8600
1310.9070;-29.0400;-18.2900;-10.7500
1311.1060;-29.7200;-18.3500;-11.3700
1311.3050;-30.5400;-18.3800;-12.1600
1311.5040;-31.3700;-18.4500;-12.9200
1311.7040;-32.1100;-18.4800;-13.6300
1311.9030;-32.7300;-18.5300;-14.2000
1312.1020;-33.1400;-18.5800;-14.5600
1312.3010;-33.2800;-18.6300;-14.6500
1312.5000;-33.1700;-18.7000;-14.4700
1312.6990;-32.7900;-18.7400;-14.0500
1312.8980;-32.2700;-18.8000;-13.4700
1313.0970;-31.6500;-18.8500;-12.8000
1313.2970;-31.0000;-18.9000;-12.1000
1313.4960;-30.3800;-18.9800;-11.4000
1313.6950;-29.7600;-19.0300;-10.7300
1313.8940;-29.2100;-19.0900;-10.1200
1314.0930;-28.6800;-19.1400;-9.5400
1314.2920;-28.2100;-19.2000;-9.0100
1314.4910;-27.7900;-19.2700;-8.5200
1314.6900;-27.4100;-19.3200;-8.0900
1314.8890;-27.0900;-19.3800;-7.7100
1315.0890;-26.7800;-19.4300;-7.3500
1315.2880;-26.5400;-19.5000;-7.0400
1315.4870;-26.3200;-19.5500;-6.7700
1315.6860;-26.1100;-19.6100;-6.5000
1315.8850;-25.9900;-19.6700;-6.3200
1316.0840;-25.8700;-19.7300;-6.1400
1316.2830;-25.7900;-19.8000;-5.9900
1316.4820;-25.7300;-19.8500;-5.8800
1316.6810;-25.7100;-19.9200;-5.7900
1316.8810;-25.7000;-19.9800;-5.7200
1317.0800;-25.7200;-20.0500;-5.6700
1317.2790;-25.7600;-20.1200;-5.6400
1317.4780;-25.8300;-20.1900;-5.6400
1317.6770;-25.9300;-20.2600;-5.6700
1317.8760;-26.0200;-20.3200;-5.7000
1318.0750;-26.1500;-20.3900;-5.7600
1318.2740;-26.2800;-20.4600;-5.8200
1318.4740;-26.4400;-20.5300;-5.9100
1318.6730;-26.6300;-20.6200;-6.0100
1318.8720;-26.8000;-20.6800;-6.1200
1319.0710;-27.0300;-20.7800;-6.2500
1319.2700;-27.2300;-20.8500;-6.3800
1319.4690;-27.4400;-20.9300;-6.5100
1319.6680;-27.7000;-21.0200;-6.6800
1319.8670;-27.9300;-21.1000;-6.8300
1320.0660;-28.1900;-21.2000;-6.9900
1320.2660;-28.4700;-21.2800;-7.1900
1320.4650;-28.6700;-21.3700;-7.3000
1320.6640;-28.9000;-21.4700;-7.4300
1320.8630;-29.1300;-21.5600;-7.5700
1321.0620;-29.3500;-21.6600;-7.6900
1321.2610;-29.5500;-21.7500;-7.8000
1321.4600;-29.7400;-21.8600;-7.8800
1321.6590;-29.8900;-21.9500;-7.9400
1321.8580;-30.0300;-22.0500;-7.9800
1322.0580;-30.1400;-22.1600;-7.9800
1322.2570;-30.2200;-22.2600;-7.9600
1322.4560;-30.2900;-22.3700;-7.9200
1322.6550;-30.3300;-22.4700;-7.8600
1322.8540;-30.3500;-22.5900;-7.7600
1323.0530;-30.3400;-22.6900;-7.6500
1323.2520;-30.3200;-22.8100;-7.5100
1323.4510;-30.2800;-22.9200;-7.3600
1323.6500;-30.2200;-23.0300;-7.1900
1323.8500;-30.1700;-23.1600;-7.0100
1324.0490;-30.1000;-23.2700;-6.8300
1324.2480;-30.0300;-23.4000;-6.6300
1324.4470;-29.9500;-23.5100;-6.4400
1324.6460;-29.8800;-23.6300;-6.2500
1324.8450;-29.8200;-23.7600;-6.0600
1325.0440;-29.7500;-23.8700;-5.8800
1325.2430;-29.6900;-24.0100;-5.6800
1325.4430;-29.6400;-24.1200;-5.5200
1325.6420;-29.6000;-24.2600;-5.3400
1325.8410;-29.5700;-24.3900;-5.1800
1326.0400;-29.5500;-24.5200;-5.0300
1326.2390;-29.5400;-24.6500;-4.8900
1326.4380;-29.5300;-24.7800;-4.7500
1326.6370;-29.5300;-24.9100;-4.6200
1326.8360;-29.5500;-25.0400;-4.5100
1327.0350;-29.5800;-25.1800;-4.4000
1327.2350;-29.6300;-25.3200;-4.3100
1327.4340;-29.6800;-25.4500;-4.2300
1327.6330;-29.7500;-25.6000;-4.1500
1327.8320;-29.8300;-25.7200;-4.1100
1328.0310;-29.9100;-25.8700;-4.0400
1328.2300;-30.0300;-26.0100;-4.0200
1328.4290;-30.1400;-26.1500;-3.9900
1328.6280;-30.2700;-26.3000;-3.9700
1328.8270;-30.4100;-26.4400;-3.9700
1329.0270;-30.5600;-26.6000;-3.9600
1329.2260;-30.7400;-26.7300;-4.0100
1329.4250;-30.9100;-26.8900;-4.0200
1329.6240;-31.1100;-27.0300;-4.0800
1329.8230;-31.3100;-27.1700;-4.1400
1330.0220;-31.5300;-27.3300;-4.2000
1330.2210;-31.7800;-27.4700;-4.3100
1330.4200;-32.0300;-27.6300;-4.4000
1330.6200;-32.3200;-27.7700;-4.5500
1330.8190;-32.6100;-27.9200;-4.6900
1331.0180;-32.9300;-28.0700;-4.8600
1331.2170;-33.2700;-28.2300;-5.0400
1331.4160;-33.6300;-28.3900;-5.2400
1331.6150;-34.0200;-28.5700;-5.4500
1331.8140;-34.4100;-28.7100;-5.7000
1332.0130;-34.8700;-28.8500;-6.0200
1332.2120;-35.3200;-29.0200;-6.3000
1332.4120;-35.8200;-29.1700;-6.6500
1332.6110;-36.3600;-29.3400;-7.0200
1332.8100;-36.9200;-29.5000;-7.4200
1333.0090;-37.5300;-29.6600;-7.8700
1333.2080;-38.1700;-29.8300;-8.3400
1333.4070;-39.0200;-29.9800;-9.0400
1333.6060;-39.6300;-30.1500;-9.4800
1333.8050;-40.4300;-30.3100;-10.1200
1334.0040;-41.3000;-30.4700;-10.8300
1334.2040;-42.2300;-30.6500;-11.5800
1334.4030;-43.2300;-30.8100;-12.4200
1334.6020;-44.2800;-30.9800;-13.3000
1334.8010;-45.3900;-31.1500;-14.2400
1335.0000;-46.5000;-31.3200;-15.1800
1335.1990;-47.5600;-31.4900;-16.0700
1335.3980;-48.6200;-31.6600;-16.9600
1335.5970;-49.0400;-31.8500;-17.1900
1335.7970;-49.2100;-32.0200;-17.1900
1335.9960;-48.9900;-32.2100;-16.7800
1336.1950;-48.4700;-32.3800;-16.0900
1336.3940;-47.7600;-32.5600;-15.2000
1336.5930;-47.0100;-32.7400;-14.2700
1336.7920;-46.1400;-32.9100;-13.2300
1336.9910;-45.5900;-33.1000;-12.4900
1337.1900;-44.9600;-33.2800;-11.6800
1337.3890;-44.4100;-33.4700;-10.9400
1337.5890;-43.9300;-33.6500;-10.2800
1337.7880;-43.5000;-33.8300;-9.6700
1337.9870;-43.1500;-34.0300;-9.1200
1338.1860;-42.8400;-34.2000;-8.6400
1338.3850;-42.5900;-34.3900;-8.2000
1338.5840;-42.3800;-34.5700;-7.8100
1338.7830;-42.2100;-34.7500;-7.4600
1338.9820;-42.1000;-34.9500;-7.1500
1339.1810;-42.0200;-35.1300;-6.8900
1339.3810;-41.9800;-35.3200;-6.6600
1339.5800;-41.9600;-35.4900;-6.4700
1339.7790;-41.9800;-35.6800;-6.3000
1339.9780;-42.0300;-35.8700;-6.1600
1340.1770;-42.0900;-36.0500;-6.0400
1340.3760;-42.2000;-36.2600;-5.9400
1340.5750;-42.3100;-36.4400;-5.8700
1340.7740;-42.4400;-36.6300;-5.8100
1340.9740;-42.5700;-36.8100;-5.7600
1341.1730;-42.7100;-36.9900;-5.7200
1341.3720;-42.8700;-37.1800;-5.6900
1341.5710;-43.0200;-37.3700;-5.6500
1341.7700;-43.1800;-37.5600;-5.6200
1341.9690;-43.3300;-37.7300;-5.6000
1342.1680;-43.4700;-37.9300;-5.5400
1342.3670;-43.6100;-38.1100;-5.5000
1342.5660;-43.7300;-38.2900;-5.4400
1342.7660;-43.8500;-38.5300;-5.3200
1342.9650;-43.9400;-38.6900;-5.2500
1343.1640;-44.0400;-38.8900;-5.1500
1343.3630;-44.1100;-39.0700;-5.0400
1343.5620;-44.1700;-39.2600;-4.9100
1343.7610;-44.2400;-39.4500;-4.7900
1343.9600;-44.2900;-39.6500;-4.6400
1344.1590;-44.3400;-39.8600;-4.4800
1344.3580;-44.3800;-40.0500;-4.3300
1344.5580;-44.4200;-40.2500;-4.1700
1344.7570;-44.4600;-40.4400;-4.0200
1344.9560;-44.4900;-40.6300;-3.8600
1345.1550;-44.5300;-40.8200;-3.7100
1345.3540;-44.5600;-41.0000;-3.5600
1345.5530;-44.6000;-41.2000;-3.4000
1345.7520;-44.6600;-41.3800;-3.2800
1345.9510;-44.7200;-41.5800;-3.1400
1346.1500;-44.7900;-41.7800;-3.0100
1346.3500;-44.8600;-41.9700;-2.8900
1346.5490;-44.9500;-42.1900;-2.7600
1346.7480;-45.0300;-42.3700;-2.6600
1346.9470;-45.1100;-42.5600;-2.5500
1347.1460;-45.2100;-42.7500;-2.4600
1347.3450;-45.2900;-42.9200;-2.3700
1347.5440;-45.4500;-43.1600;-2.2900
1347.7430;-45.6000;-43.3900;-2.2100
1347.9430;-45.7500;-43.6200;-2.1300
1348.1420;-45.8800;-43.8000;-2.0800
1348.3410;-46.0200;-44.0000;-2.0200
1348.5400;-46.1400;-44.1600;-1.9800
1348.7390;-46.2700;-44.3400;-1.9300
1348.9380;-46.4100;-44.5200;-1.8900
1349.1370;-46.5600;-44.6800;-1.8800
1349.3360;-46.7000;-44.8500;-1.8500
1349.5350;-46.8700;-45.0200;-1.8500
1349.7350;-47.0300;-45.1900;-1.8400
1349.9340;-47.2200;-45.3800;-1.8400
1350.1330;-47.4400;-45.5800;-1.8600
1350.3320;-47.7100;-45.8400;-1.8700
1350.5310;-47.9600;-46.0500;-1.9100
1350.7300;-48.1800;-46.2300;-1.9500
1350.9290;-48.3900;-46.4000;-1.9900
1351.1280;-48.5800;-46.5200;-2.0600
1351.3270;-48.8000;-46.7000;-2.1000
1351.5270;-49.0400;-46.8700;-2.1700
1351.7260;-49.3500;-47.1200;-2.2300
1351.9250;-49.6200;-47.3100;-2.3100
1352.1240;-49.8800;-47.4900;-2.3900
1352.3230;-50.1600;-47.6800;-2.4800
1352.5220;-50.4400;-47.8800;-2.5600
1352.7210;-50.7000;-48.0500;-2.6500
1352.9200;-50.9400;-48.2000;-2.7400
1353.1200;-51.3000;-48.5500;-2.7500
1353.3190;-51.5000;-48.5900;-2.9100
1353.5180;-51.7700;-48.7700;-3.0000
1353.7170;-52.0600;-48.9500;-3.1100
1353.9160;-52.2500;-49.0600;-3.1900
1354.1150;-52.5000;-49.2200;-3.2800
1354.3140;-52.8200;-49.4500;-3.3700
1354.5130;-53.1100;-49.6500;-3.4600
1354.7120;-53.5300;-49.9600;-3.5700
1354.9120;-53.9100;-50.2500;-3.6600
1355.1110;-54.2100;-50.4400;-3.7700
1355.3100;-54.4400;-50.5700;-3.8700
1355.5090;-54.5500;-50.5900;-3.9600
1355.7080;-54.9200;-50.8500;-4.0700
1355.9070;-55.3000;-51.1300;-4.1700
1356.1060;-55.6000;-51.3000;-4.3000
1356.3050;-55.8200;-51.3900;-4.4300
1356.5040;-56.0600;-51.5200;-4.5400
1356.7040;-56.1000;-51.4300;-4.6700
1356.9030;-56.3800;-51.6000;-4.7800
1357.1020;-56.8600;-51.9700;-4.8900
1357.3010;-57.2400;-52.2100;-5.0300
1357.5000;-57.5600;-52.4000;-5.1600
1357.6990;-57.8800;-52.5900;-5.2900
1357.8980;-58.0400;-52.6600;-5.3800
1358.0970;-58.2100;-52.7300;-5.4800
1358.2970;-58.5500;-52.9200;-5.6300
1358.4960;-58.8200;-53.1500;-5.6700
1358.6950;-59.0200;-53.3000;-5.7200
1358.8940;-59.2200;-53.4700;-5.7500
1359.0930;-59.4000;-53.6300;-5.7700
1359.2920;-59.4600;-53.6900;-5.7700
1359.4910;-59.8200;-54.0700;-5.7500
1359.6900;-60.0700;-54.3800;-5.6900
1359.8890;-60.1900;-54.5800;-5.6100
1360.0890;-60.1600;-54.6600;-5.5000
1360.2880;-60.1000;-54.7100;-5.3900
1360.4870;-59.9700;-54.7000;-5.2700
1360.6860;-60.0200;-54.8900;-5.1300
1360.8850;-60.2400;-55.2300;-5.0100
1361.0840;-60.3700;-55.5400;-4.8300
1361.2830;-60.3800;-55.7200;-4.6600
1361.4820;-60.4000;-55.9000;-4.5000
1361.6810;-60.4800;-56.1400;-4.3400
1361.8810;-60.4700;-56.2800;-4.1900
1362.0800;-60.5200;-56.5200;-4.0000
1362.2790;-60.8400;-56.9500;-3.8900
1362.4780;-60.9300;-57.1900;-3.7400
1362.6770;-60.9500;-57.3600;-3.5900
1362.8760;-60.7000;-57.2600;-3.4400
1363.0750;-60.5400;-57.2300;-3.3100
1363.2740;-60.1700;-57.0100;-3.1600
1363.4740;-60.1700;-57.1000;-3.0700
1363.6730;-60.1800;-57.2000;-2.9800
1363.8720;-60.2400;-57.3700;-2.8700
1364.0710;-60.4000;-57.6000;-2.8000
1364.2700;-60.5300;-57.8100;-2.7200
1364.4690;-60.7900;-58.1500;-2.6400
1364.6680;-61.2500;-58.7300;-2.5200
1364.8670;-61.4300;-58.9500;-2.4800
1365.0660;-61.3500;-58.9300;-2.4200
1365.2660;-61.5100;-59.1400;-2.3700
1365.4650;-61.4000;-59.0900;-2.3100
1365.6640;-61.4200;-59.1700;-2.2500
1365.8630;-61.4700;-59.2500;-2.2200
1366.0620;-61.4300;-59.2700;-2.1600
1366.2610;-61.4000;-59.3000;-2.1000
1366.4600;-61.4600;-59.3800;-2.0800
1366.6590;-61.6200;-59.5700;-2.0500
1366.8580;-61.8100;-59.8400;-1.9700
1367.0580;-61.9400;-59.9800;-1.9600
1367.2570;-62.0100;-60.1200;-1.8900
1367.4560;-62.2500;-60.4100;-1.8400
1367.6550;-62.4100;-60.6300;-1.7800
1367.8540;-62.7000;-60.9300;-1.7700
1368.0530;-62.7800;-61.0900;-1.6900
1368.2520;-62.7600;-61.0900;-1.6700
1368.4510;-63.0800;-61.4300;-1.6500
1368.6500;-63.1900;-61.5800;-1.6100
1368.8500;-63.2700;-61.7000;-1.5700
1369.0490;-63.2600;-61.7400;-1.5200
1369.2480;-63.2300;-61.7400;-1.4900
1369.4470;-63.1700;-61.6700;-1.5000
1369.6460;-63.3200;-61.8400;-1.4800
1369.8450;-63.7000;-62.2100;-1.4900
1370.0440;-63.8900;-62.4200;-1.4700
1370.2430;-64.1200;-62.6000;-1.5200
1370.4430;-64.2200;-62.6800;-1.5400
1370.6420;-64.3200;-62.7500;-1.5700
1370.8410;-64.7200;-63.1200;-1.6000
1371.0400;-65.0900;-63.4200;-1.6700
1371.2390;-65.4200;-63.6400;-1.7800
1371.4380;-65.5700;-63.7700;-1.8000
1371.6370;-65.7100;-63.7600;-1.9500
1371.8360;-65.8500;-63.7400;-2.1100
1372.0350;-66.2400;-63.9900;-2.2500
1372.2350;-66.6900;-64.2600;-2.4300
1372.4340;-67.0600;-64.4200;-2.6400
1372.6330;-67.4300;-64.5300;-2.9000
1372.8320;-67.7100;-64.6600;-3.0500
1373.0310;-68.0200;-64.7000;-3.3200
1373.2300;-68.5200;-64.9000;-3.6200
1373.4290;-69.0000;-65.1500;-3.8500
1373.6280;-69.5600;-65.3400;-4.2200
1373.8270;-70.2400;-65.5100;-4.7300
1374.0270;-70.7700;-65.6200;-5.1500
1374.2260;-71.5700;-65.8200;-5.7500
1374.4250;-72.1600;-66.0600;-6.1000
1374.6240;-73.1500;-66.2300;-6.9200
1374.8230;-73.4000;-66.5400;-6.8600
1375.0220;-74.1700;-66.6900;-7.4800
1375.2210;-75.4500;-66.8700;-8.5800
1375.4200;-76.4600;-67.0300;-9.4300
1375.6200;-77.4400;-67.2300;-10.2100
1375.8190;-78.5000;-67.3400;-11.1600
1376.0180;-78.4400;-67.5500;-10.8900
1376.2170;-79.1100;-67.7200;-11.3900
1376.4160;-80.4500;-68.0100;-12.4400
1376.6150;-80.8600;-68.2900;-12.5700
1376.8140;-78.7300;-68.4400;-10.2900
1377.0130;-79.9800;-68.7600;-11.2200
1377.2120;-78.9100;-69.0800;-9.8300
1377.4120;-79.8700;-69.1500;-10.7200
1377.6110;-78.0500;-69.2500;-8.8000
1377.8100;-77.0500;-69.2800;-7.7700
1378.0090;-77.1100;-69.4300;-7.6800
1378.2080;-76.9900;-69.6300;-7.3600
1378.4070;-76.2700;-69.8500;-6.4200
1378.6060;-76.1400;-70.2800;-5.8600
1378.8050;-76.0200;-70.5400;-5.4800
1379.0040;-75.5800;-70.5900;-4.9900
1379.2040;-75.8200;-70.8700;-4.9500
1379.4030;-75.5400;-71.0200;-4.5200
1379.6020;-75.0300;-70.7300;-4.3000
1379.8010;-75.0100;-71.0400;-3.9700
1380.0000;-74.9600;-71.3100;-3.6500
1380.1990;-74.5100;-71.4500;-3.0600
1380.3980;-74.7100;-71.7300;-2.9800
1380.5970;-75.2900;-72.3200;-2.9700
1380.7970;-75.2100;-72.8500;-2.3600
1380.9960;-76.2200;-72.8900;-3.3300
1381.1950;-76.3700;-72.9500;-3.4200
1381.3940;-75.6200;-72.7500;-2.8700
1381.5930;-75.8400;-72.4600;-3.3800
1381.7920;-75.8100;-72.6100;-3.2000
1381.9910;-75.7100;-72.7200;-2.9900
1382.1900;-75.6500;-72.7500;-2.9000
1382.3890;-76.3000;-73.4100;-2.8900
1382.5890;-76.8800;-73.4600;-3.4200
1382.7880;-77.9700;-74.4200;-3.5500
1382.9870;-79.6500;-74.7300;-4.9200
1383.1860;-79.0600;-74.9500;-4.1100
1383.3850;-79.2100;-74.2800;-4.9300
1383.5840;-78.7300;-74.1500;-4.5800
1383.7830;-78.2200;-73.7600;-4.4600
1383.9820;-79.7200;-74.1100;-5.6100
1384.1810;-78.7900;-74.2600;-4.5300
1384.3810;-80.0600;-74.3000;-5.7600
1384.5800;-79.9100;-74.0300;-5.8800
1384.7790;-79.9900;-74.1000;-5.8900
1384.9780;-80.8700;-74.8900;-5.9800
1385.1770;-79.4900;-74.7000;-4.7900
1385.3760;-81.3200;-75.1300;-6.1900
1385.5750;-80.3500;-75.0800;-5.2700
1385.7740;-82.2300;-75.3000;-6.9300
1385.9740;-81.9300;-75.3000;-6.6300
1386.1730;-80.5200;-75.3000;-5.2200
1386.3720;-80.4300;-74.9700;-5.4600
1386.5710;-81.8100;-75.3200;-6.4900
1386.7700;-82.7800;-75.0900;-7.6900
1386.9690;-83.4800;-75.1400;-8.3400
1387.1680;-80.8700;-75.7600;-5.1100
1387.3670;-81.2100;-75.5900;-5.6200
1387.5660;-80.6500;-76.0100;-4.6400
1387.7660;-81.6900;-75.9100;-5.7800
1387.9650;-83.0800;-76.4800;-6.6000
1388.1640;-81.3700;-76.9800;-4.3900
1388.3630;-81.1600;-76.8100;-4.3500
1388.5620;-81.5300;-76.5500;-4.9800
1388.7610;-83.0800;-77.0200;-6.0600
1388.9600;-80.8300;-76.8100;-4.0200
1389.1590;-80.1500;-76.3100;-3.8400
1389.3580;-80.3100;-76.5800;-3.7300
1389.5580;-81.6900;-76.6900;-5.0000
1389.7570;-83.7500;-77.7000;-6.0500
1389.9560;-82.5000;-77.7000;-4.8000
1390.1550;-81.1100;-76.6900;-4.4200
1390.3540;-83.6600;-76.5600;-7.1000
1390.5530;-81.3200;-76.6500;-4.6700
1390.7520;-83.0000;-76.8900;-6.1100
1390.9510;-82.5000;-76.6500;-5.8500
1391.1500;-82.4300;-78.2300;-4.2000
1391.3500;-82.7100;-76.9400;-5.7700
1391.5490;-81.3800;-77.5600;-3.8200
1391.7480;-82.8600;-77.1100;-5.7500
1391.9470;-82.2400;-77.0300;-5.2100
1392.1460;-88.0200;-77.1800;-10.8400
1392.3450;-88.0200;-77.4700;-10.5500
1392.5440;-82.5100;-78.4200;-4.0900
1392.7430;-88.0200;-79.2700;-8.7500
1392.9430;-88.5300;-78.4700;-10.0600
1393.1420;-84.8900;-77.7100;-7.1800
1393.3410;-83.7600;-77.8300;-5.9300
1393.5400;-82.1800;-77.7400;-4.4400
1393.7390;-83.9400;-77.4900;-6.4500
1393.9380;-83.2500;-78.6400;-4.6100
1394.1370;-84.3400;-78.6700;-5.6700
1394.3360;-82.3100;-78.6900;-3.6200
1394.5350;-83.4100;-78.3200;-5.0900
1394.7350;-81.5400;-77.3900;-4.1500
1394.9340;-85.0100;-78.1600;-6.8500
1395.1330;-82.7200;-78.2600;-4.4600
1395.3320;-81.8800;-78.8400;-3.0400
1395.5310;-81.8800;-79.2300;-2.6500
1395.7300;-85.3800;-78.9900;-6.3900
1395.9290;-84.2300;-78.3200;-5.9100
1396.1280;-86.9500;-77.9700;-8.9800
1396.3270;-83.2500;-77.6200;-5.6300
1396.5270;-84.2300;-78.4200;-5.8100
1396.7260;-82.7900;-79.5000;-3.2900
1396.9250;-84.5500;-79.7100;-4.8400
1397.1240;-84.8900;-79.3600;-5.5300
1397.3230;-83.3300;-79.4300;-3.9000
1397.5220;-81.1200;-79.1700;-1.9500
1397.7210;-81.5400;-78.9900;-2.5500
1397.9200;-82.1200;-78.3900;-3.7300
1398.1200;-80.2400;-77.4300;-2.8100
1398.3190;-81.3300;-77.8700;-3.4600
1398.5180;-80.7100;-79.0000;-1.7100
1398.7170;-79.7900;-78.3800;-1.4100
1398.9160;-82.1900;-78.3500;-3.8400
1399.1150;-83.2600;-78.6500;-4.6100
1399.3140;-82.8700;-79.2100;-3.6600
1399.5130;-82.1300;-78.3800;-3.7500
1399.7120;-83.9500;-79.8600;-4.0900
1399.9120;-81.4400;-80.3300;-1.1100
1400.1110;-81.8900;-80.0100;-1.8800
1400.3100;-82.9500;-78.5400;-4.4100
1400.5090;-82.7300;-79.0000;-3.7300
1400.7080;-87.3600;-78.7000;-8.6600
1400.9070;-83.3400;-79.6100;-3.7300
1401.1060;-83.1000;-78.0300;-5.0700
1401.3050;-81.7100;-79.8600;-1.8500
1401.5040;-80.3300;-79.0600;-1.2700
1401.7040;-81.7100;-79.6800;-2.0300
1401.9030;-83.5900;-80.4100;-3.1800
1402.1020;-87.5700;-80.0900;-7.4800
1402.3010;-85.0200;-80.4900;-4.5300
1402.5000;-82.0100;-78.1500;-3.8600
1402.6990;-81.5500;-79.9000;-1.6500
1402.8980;-82.5200;-78.7600;-3.7600
1403.0970;-82.4500;-78.4800;-3.9700
1403.2970;-82.1300;-79.0300;-3.1000
1403.4960;-84.2400;-79.9300;-4.3100
1403.6950;-83.4200;-79.0000;-4.4200
1403.8940;-85.9600;-79.7200;-6.2400
1404.0930;-84.0500;-79.5100;-4.5400
1404.2920;-81.3900;-80.7100;-0.6800
1404.4910;-81.0900;-78.5400;-2.5500
1404.6900;-82.1300;-79.6500;-2.4800
1404.8890;-91.0400;-78.4800;-12.5600
1405.0890;-81.7100;-81.1800;-0.5300
1405.2880;-83.4200;-79.9000;-3.5200
1405.4870;-82.0100;-80.0500;-1.9600
1405.6860;-83.1800;-79.7200;-3.4600
1405.8850;-82.0100;-78.6500;-3.3600
1406.0840;-82.5200;-78.9700;-3.5500
1406.2830;-80.3300;-79.0600;-1.2700
1406.4820;-80.4100;-79.2100;-1.2000
1406.6810;-84.9100;-79.3500;-5.5600
1406.8810;-82.3300;-78.9200;-3.4100
1407.0800;-84.3600;-78.3600;-6.0000
1407.2790;-93.6000;-80.1000;-13.5000
1407.4780;-84.5700;-80.9500;-3.6200
1407.6770;-83.6000;-79.2500;-4.3500
1407.8760;-82.8100;-79.5200;-3.2900
1408.0750;-80.8600;-78.9500;-1.9100
1408.2740;-81.8400;-79.2500;-2.5900
1408.4740;-82.3900;-78.1300;-4.2600
1408.6730;-81.7800;-78.8300;-2.9500
1408.8720;-82.2600;-78.4400;-3.8200
1409.0710;-81.7200;-78.9200;-2.8000
1409.2700;-83.0300;-78.4400;-4.5900
1409.4690;-84.3600;-80.3800;-3.9800
1409.6680;-82.0200;-80.0200;-2.0000
1409.8670;-81.4500;-79.5200;-1.9300
1410.0660;-82.7400;-79.2200;-3.5200
1410.2660;-83.7800;-78.2600;-5.5200
1410.4650;-81.3000;-79.5200;-1.7800
1410.6640;-85.5400;-79.0100;-6.5300
1410.8630;-82.5300;-78.6900;-3.8400
1411.0620;-82.8100;-78.8000;-4.0100
1411.2610;-81.1000;-79.6600;-1.4400
1411.4600;-82.0200;-78.8000;-3.2200
1411.6590;-82.5300;-78.2600;-4.2700
1411.8580;-81.0000;-78.1300;-2.8700
1412.0580;-81.3000;-77.9600;-3.3400
1412.2570;-81.9600;-78.0900;-3.8700
1412.4560;-81.3500;-78.8600;-2.4900
1412.6550;-81.2400;-78.0400;-3.2000
1412.8540;-83.2700;-79.4800;-3.7900
1413.0530;-83.2700;-78.7100;-4.5600
1413.2520;-81.8400;-78.5500;-3.2900
1413.4510;-81.1000;-77.6700;-3.4300
1413.6500;-82.2100;-78.5000;-3.7100
1413.8500;-82.7500;-78.1700;-4.5800
1414.0490;-82.6800;-78.6700;-4.0100
1414.2480;-85.0400;-79.2600;-5.7800
1414.4470;-83.9700;-78.9900;-4.9800
1414.6460;-84.1600;-79.7400;-4.4200
1414.8450;-83.1200;-79.4600;-3.6600
1415.0440;-85.0400;-78.4500;-6.5900
1415.2430;-81.2000;-78.6700;-2.5300
1415.4430;-82.7500;-79.2300;-3.5200
1415.6420;-82.3400;-78.9000;-3.4400
1415.8410;-89.4600;-78.7200;-10.7400
1416.0400;-79.6700;-78.1400;-1.5300
1416.2390;-83.7000;-78.7200;-4.9800
1416.4380;-82.0300;-78.1900;-3.8400
1416.6370;-83.4400;-78.9000;-4.5400
1416.8360;-81.4600;-79.7000;-1.7600
1417.0350;-82.2100;-78.8400;-3.3700
1417.2350;-81.9700;-77.8800;-4.0900
1417.4340;-81.4100;-77.4600;-3.9500
1417.6330;-80.5100;-78.1200;-2.3900
1417.8320;-82.1500;-78.0000;-4.1500
1418.0310;-82.2700;-77.4200;-4.8500
1418.2300;-84.8000;-77.8100;-6.9900
1418.4290;-82.2100;-78.2400;-3.9700
1418.6280;-81.0600;-77.6800;-3.3800
1418.8270;-82.2100;-78.6100;-3.6000
1419.0270;-82.0300;-79.1400;-2.8900
1419.2260;-81.3100;-78.0500;-3.2600
1419.4250;-83.1200;-78.6700;-4.4500
1419.6240;-85.2800;-78.6100;-6.6700
1419.8230;-83.7900;-78.0500;-5.7400
1420.0220;-82.8200;-78.4500;-4.3700
1420.2210;-83.5200;-78.1000;-5.4200
1420.4200;-83.1200;-78.2400;-4.8800
1420.6200;-81.5100;-77.5500;-3.9600
1420.8190;-81.9100;-78.4800;-3.4300
1421.0180;-81.6800;-78.0200;-3.6600
1421.2170;-86.8000;-78.1000;-8.7000
1421.4160;-83.3600;-78.2200;-5.1400
1421.6150;-86.1400;-78.5700;-7.5700
1421.8140;-81.3700;-77.9400;-3.4300
1422.0130;-85.4200;-77.7800;-7.6400
1422.2120;-79.8900;-78.4600;-1.4300
1422.4120;-79.9300;-77.6900;-2.2400
1422.6110;-84.2700;-78.1500;-6.1200
1422.8100;-82.2800;-77.7100;-4.5700
1423.0090;-82.7600;-78.6200;-4.1400
1423.2080;-82.3500;-78.1100;-4.2400
1423.4070;-80.4400;-77.8700;-2.5700
1423.6060;-81.1600;-78.4600;-2.7000
1423.8050;-84.3800;-78.1100;-6.2700
1424.0040;-80.2000;-78.2000;-2.0000
1424.2040;-82.9800;-78.8200;-4.1600
1424.4030;-81.3200;-78.7900;-2.5300
1424.6020;-81.0200;-77.9600;-3.0600
1424.8010;-81.1600;-77.0900;-4.0700
1425.0000;-80.5700;-77.1900;-3.3800
