Wavelength;Intensity_Meas;Intensity_Ref;Difference_dB
1200.0000;-61.6000;-57.3300;-4.2700
1200.1990;-61.5300;-57.3100;-4.2200
1200.3980;-61.4600;-57.2900;-4.1700
1200.5970;-61.4300;-57.2600;-4.1700
1200.7970;-61.3700;-57.2100;-4.1600
1200.9960;-61.3000;-57.2000;-4.1000
1201.1950;-61.2200;-57.1800;-4.0400
1201.3940;-61.1700;-57.1100;-4.0600
1201.5930;-61.1200;-57.0700;-4.0500
1201.7920;-61.0700;-57.0200;-4.0500
1201.9910;-61.0100;-56.9800;-4.0300
1202.1900;-60.9300;-56.9500;-3.9800
1202.3890;-60.8700;-56.8700;-4.0000
1202.5890;-60.8400;-56.8000;-4.0400
1202.7880;-60.7600;-56.7800;-3.9800
1202.9870;-60.7000;-56.7300;-3.9700
1203.1860;-60.6600;-56.6800;-3.9800
1203.3850;-60.6200;-56.6000;-4.0200
1203.5840;-60.5800;-56.5700;-4.0100
1203.7830;-60.5300;-56.5400;-3.9900
1203.9820;-60.5300;-56.4900;-4.0400
1204.1810;-60.5300;-56.4500;-4.0800
1204.3810;-60.5000;-56.3900;-4.1100
1204.5800;-60.5100;-56.3900;-4.1200
1204.7790;-60.5300;-56.3700;-4.1600
1204.9780;-60.5900;-56.3100;-4.2800
1205.1770;-60.5900;-56.2800;-4.3100
1205.3760;-60.6000;-56.2700;-4.3300
1205.5750;-60.6600;-56.2500;-4.4100
1205.7740;-60.7000;-56.2300;-4.4700
1205.9740;-60.7500;-56.2100;-4.5400
1206.1730;-60.7400;-56.2000;-4.5400
1206.3720;-60.7500;-56.1800;-4.5700
1206.5710;-60.7800;-56.1600;-4.6200
1206.7700;-60.7700;-56.1400;-4.6300
1206.9690;-60.7300;-56.1000;-4.6300
1207.1680;-60.6900;-56.1000;-4.5900
1207.3670;-60.6700;-56.0800;-4.5900
1207.5660;-60.6700;-56.0200;-4.6500
1207.7660;-60.5600;-56.0100;-4.5500
1207.9650;-60.4900;-55.9800;-4.5100
1208.1640;-60.4400;-55.9400;-4.5000
1208.3630;-60.4000;-55.8900;-4.5100
1208.5620;-60.3300;-55.8600;-4.4700
1208.7610;-60.2100;-55.8300;-4.3800
1208.9600;-60.1500;-55.7800;-4.3700
1209.1590;-60.1100;-55.7300;-4.3800
1209.3580;-60.0500;-55.6600;-4.3900
1209.5580;-59.9800;-55.6200;-4.3600
1209.7570;-59.9000;-55.6000;-4.3000
1209.9560;-59.8800;-55.5300;-4.3500
1210.1550;-59.8300;-55.4600;-4.3700
1210.3540;-59.7400;-55.4200;-4.3200
1210.5530;-59.7100;-55.3900;-4.3200
1210.7520;-59.6400;-55.3400;-4.3000
1210.9510;-59.6100;-55.2800;-4.3300
1211.1500;-59.5400;-55.2400;-4.3000
1211.3500;-59.4900;-55.2000;-4.2900
1211.5490;-59.5000;-55.1800;-4.3200
1211.7480;-59.4800;-55.1500;-4.3300
1211.9470;-59.4400;-55.0800;-4.3600
1212.1460;-59.3700;-55.0700;-4.3000
1212.3450;-59.3600;-55.0500;-4.3100
1212.5440;-59.3900;-55.0100;-4.3800
1212.7430;-59.3500;-54.9800;-4.3700
1212.9430;-59.3000;-54.9500;-4.3500
1213.1420;-59.3100;-54.9200;-4.3900
1213.3410;-59.3300;-54.8900;-4.4400
1213.5400;-59.3300;-54.8700;-4.4600
1213.7390;-59.2800;-54.8500;-4.4300
1213.9380;-59.2900;-54.8000;-4.4900
1214.1370;-59.2900;-54.7900;-4.5000
1214.3360;-59.2800;-54.7300;-4.5500
1214.5350;-59.2500;-54.7000;-4.5500
1214.7350;-59.2100;-54.6800;-4.5300
1214.9340;-59.2200;-54.6300;-4.5900
1215.1330;-59.2000;-54.5800;-4.6200
1215.3320;-59.1300;-54.5300;-4.6000
1215.5310;-59.1100;-54.4900;-4.6200
1215.7300;-59.1000;-54.4500;-4.6500
1215.9290;-59.0600;-54.3900;-4.6700
1216.1280;-59.0000;-54.3300;-4.6700
1216.3270;-58.9300;-54.2600;-4.6700
1216.5270;-58.9200;-54.2300;-4.6900
1216.7260;-58.9000;-54.1800;-4.7200
1216.9250;-58.8400;-54.1000;-4.7400
1217.1240;-58.7500;-54.0500;-4.7000
1217.3230;-58.7300;-53.9900;-4.7400
1217.5220;-58.7500;-53.9400;-4.8100
1217.7210;-58.6800;-53.9000;-4.7800
1217.9200;-58.6100;-53.8400;-4.7700
1218.1200;-58.5800;-53.8000;-4.7800
1218.3190;-58.5800;-53.7500;-4.8300
1218.5180;-58.5500;-53.7100;-4.8400
1218.7170;-58.5100;-53.6600;-4.8500
1218.9160;-58.4900;-53.6300;-4.8600
1219.1150;-58.4700;-53.6100;-4.8600
1219.3140;-58.4600;-53.5500;-4.9100
1219.5130;-58.4200;-53.5300;-4.8900
1219.7120;-58.3800;-53.5100;-4.8700
1219.9120;-58.3800;-53.4600;-4.9200
1220.1110;-58.3600;-53.4300;-4.9300
1220.3100;-58.3000;-53.3900;-4.9100
1220.5090;-58.2700;-53.3500;-4.9200
1220.7080;-58.2600;-53.3300;-4.9300
1220.9070;-58.2400;-53.2800;-4.9600
1221.1060;-58.1500;-53.2200;-4.9300
1221.3050;-58.0900;-53.1900;-4.9000
1221.5040;-58.0700;-53.1400;-4.9300
1221.7040;-58.0200;-53.0800;-4.9400
1221.9030;-57.9500;-53.0300;-4.9200
1222.1020;-57.8700;-52.9700;-4.9000
1222.3010;-57.8300;-52.9100;-4.9200
1222.5000;-57.7800;-52.8400;-4.9400
1222.6990;-57.7000;-52.7900;-4.9100
1222.8980;-57.6400;-52.7100;-4.9300
1223.0970;-57.5800;-52.6500;-4.9300
1223.2970;-57.5500;-52.5800;-4.9700
1223.4960;-57.4800;-52.5000;-4.9800
1223.6950;-57.4100;-52.4500;-4.9600
1223.8940;-57.3800;-52.3800;-5.0000
1224.0930;-57.3300;-52.3100;-5.0200
1224.2920;-57.2500;-52.2400;-5.0100
1224.4910;-57.1800;-52.1800;-5.0000
1224.6900;-57.1200;-52.1300;-4.9900
1224.8890;-57.0600;-52.0500;-5.0100
1225.0890;-56.9600;-52.0100;-4.9500
1225.2880;-56.8400;-51.9300;-4.9100
1225.4870;-56.7600;-51.8700;-4.8900
1225.6860;-56.6300;-51.8400;-4.7900
1225.8850;-56.4900;-51.7800;-4.7100
1226.0840;-56.3200;-51.7300;-4.5900
1226.2830;-56.1900;-51.6800;-4.5100
1226.4820;-56.0500;-51.6200;-4.4300
1226.6810;-55.8800;-51.5900;-4.2900
1226.8810;-55.6800;-51.5400;-4.1400
1227.0800;-55.5600;-51.4800;-4.0800
1227.2790;-55.4300;-51.4400;-3.9900
1227.4780;-55.2600;-51.3800;-3.8800
1227.6770;-55.1200;-51.3400;-3.7800
1227.8760;-55.0300;-51.2700;-3.7600
1228.0750;-54.9000;-51.2200;-3.6800
1228.2740;-54.8000;-51.1500;-3.6500
1228.4740;-54.6900;-51.0800;-3.6100
1228.6730;-54.6300;-51.0300;-3.6000
1228.8720;-54.5900;-50.9500;-3.6400
1229.0710;-54.5100;-50.8900;-3.6200
1229.2700;-54.4700;-50.8100;-3.6600
1229.4690;-54.4400;-50.7200;-3.7200
1229.6680;-54.4300;-50.6700;-3.7600
1229.8670;-54.4000;-50.5700;-3.8300
1230.0660;-54.4000;-50.4900;-3.9100
1230.2660;-54.4200;-50.4100;-4.0100
1230.4650;-54.4400;-50.3300;-4.1100
1230.6640;-54.4600;-50.2600;-4.2000
1230.8630;-54.5400;-50.1800;-4.3600
1231.0620;-54.6000;-50.1100;-4.4900
1231.2610;-54.6800;-50.0500;-4.6300
1231.4600;-54.7500;-49.9800;-4.7700
1231.6590;-54.8000;-49.9300;-4.8700
1231.8580;-54.8700;-49.8500;-5.0200
1232.0580;-54.8900;-49.8100;-5.0800
1232.2570;-54.8900;-49.7400;-5.1500
1232.4560;-54.8600;-49.6800;-5.1800
1232.6550;-54.7900;-49.6400;-5.1500
1232.8540;-54.7000;-49.5700;-5.1300
1233.0530;-54.5400;-49.5300;-5.0100
1233.2520;-54.3900;-49.4600;-4.9300
1233.4510;-54.2000;-49.4100;-4.7900
1233.6500;-53.9900;-49.3700;-4.6200
1233.8500;-53.7700;-49.3000;-4.4700
1234.0490;-53.5600;-49.2500;-4.3100
1234.2480;-53.3700;-49.1800;-4.1900
1234.4470;-53.1500;-49.1200;-4.0300
1234.6460;-52.9700;-49.0600;-3.9100
1234.8450;-52.8200;-48.9900;-3.8300
1235.0440;-52.6700;-48.9300;-3.7400
1235.2430;-52.5500;-48.8400;-3.7100
1235.4430;-52.4100;-48.7600;-3.6500
1235.6420;-52.3300;-48.6900;-3.6400
1235.8410;-52.2500;-48.6000;-3.6500
1236.0400;-52.1800;-48.5300;-3.6500
1236.2390;-52.1300;-48.4200;-3.7100
1236.4380;-52.1000;-48.3300;-3.7700
1236.6370;-52.0800;-48.2500;-3.8300
1236.8360;-52.0600;-48.1500;-3.9100
1237.0350;-52.0600;-48.0800;-3.9800
1237.2350;-52.0700;-47.9900;-4.0800
1237.4340;-52.0700;-47.9000;-4.1700
1237.6330;-52.0800;-47.8100;-4.2700
1237.8320;-52.1000;-47.7400;-4.3600
1238.0310;-52.1100;-47.6600;-4.4500
1238.2300;-52.1200;-47.5700;-4.5500
1238.4290;-52.0800;-47.5000;-4.5800
1238.6280;-52.0700;-47.4200;-4.6500
1238.8270;-52.0300;-47.3400;-4.6900
1239.0270;-51.9600;-47.2700;-4.6900
1239.2260;-51.8800;-47.1800;-4.7000
1239.4250;-51.7700;-47.1100;-4.6600
1239.6240;-51.6700;-47.0300;-4.6400
1239.8230;-51.5400;-46.9400;-4.6000
1240.0220;-51.3900;-46.8700;-4.5200
1240.2210;-51.2700;-46.7700;-4.5000
1240.4200;-51.1300;-46.6900;-4.4400
1240.6200;-50.9900;-46.5900;-4.4000
1240.8190;-50.8600;-46.4900;-4.3700
1241.0180;-50.7400;-46.3800;-4.3600
1241.2170;-50.6500;-46.2700;-4.3800
1241.4160;-50.5400;-46.1700;-4.3700
1241.6150;-50.4500;-46.0300;-4.4200
1241.8140;-50.3900;-45.9100;-4.4800
1242.0130;-50.3300;-45.8000;-4.5300
1242.2120;-50.2900;-45.6900;-4.6000
1242.4120;-50.2500;-45.5600;-4.6900
1242.6110;-50.2200;-45.4200;-4.8000
1242.8100;-50.1800;-45.3100;-4.8700
1243.0090;-50.1400;-45.1700;-4.9700
1243.2080;-50.1300;-45.0500;-5.0800
1243.4070;-50.0900;-44.9200;-5.1700
1243.6060;-50.0500;-44.7900;-5.2600
1243.8050;-50.0100;-44.6800;-5.3300
1244.0040;-49.9700;-44.5400;-5.4300
1244.2040;-49.9400;-44.4100;-5.5300
1244.4030;-49.8700;-44.2900;-5.5800
1244.6020;-49.8300;-44.1600;-5.6700
1244.8010;-49.7900;-44.0500;-5.7400
1245.0000;-49.7400;-43.9100;-5.8300
1245.1990;-49.7100;-43.7900;-5.9200
1245.3980;-49.6700;-43.6700;-6.0000
1245.5970;-49.6400;-43.5300;-6.1100
1245.7970;-49.6000;-43.4100;-6.1900
1245.9960;-49.5500;-43.2600;-6.2900
1246.1950;-49.5500;-43.1400;-6.4100
1246.3940;-49.4900;-43.0000;-6.4900
1246.5930;-49.4300;-42.8500;-6.5800
1246.7920;-49.3500;-42.7300;-6.6200
1246.9910;-49.2300;-42.5600;-6.6700
1247.1900;-49.0900;-42.4200;-6.6700
1247.3890;-48.9000;-42.2700;-6.6300
1247.5890;-48.6700;-42.1100;-6.5600
1247.7880;-48.3900;-41.9700;-6.4200
1247.9870;-48.0500;-41.8000;-6.2500
1248.1860;-47.7100;-41.6500;-6.0600
1248.3850;-47.3200;-41.5000;-5.8200
1248.5840;-46.9100;-41.3300;-5.5800
1248.7830;-46.4700;-41.1800;-5.2900
1248.9820;-46.0500;-41.0200;-5.0300
1249.1810;-45.5600;-40.8700;-4.6900
1249.3810;-45.2100;-40.7200;-4.4900
1249.5800;-44.8200;-40.5600;-4.2600
1249.7790;-44.4300;-40.4200;-4.0100
1249.9780;-44.0700;-40.2500;-3.8200
1250.1770;-43.7100;-40.1100;-3.6000
1250.3760;-43.3900;-39.9700;-3.4200
1250.5750;-43.0900;-39.8100;-3.2800
1250.7740;-42.7900;-39.6700;-3.1200
1250.9740;-42.5400;-39.5200;-3.0200
1251.1730;-42.2800;-39.3800;-2.9000
1251.3720;-42.0400;-39.2300;-2.8100
1251.5710;-41.8400;-39.0900;-2.7500
1251.7700;-41.6200;-38.9500;-2.6700
1251.9690;-41.4300;-38.7900;-2.6400
1252.1680;-41.2200;-38.6400;-2.5800
1252.3670;-41.0300;-38.4700;-2.5600
1252.5660;-40.8600;-38.3200;-2.5400
1252.7660;-40.6700;-38.1700;-2.5000
1252.9650;-40.5000;-38.0100;-2.4900
1253.1640;-40.3100;-37.8500;-2.4600
1253.3630;-40.1300;-37.6800;-2.4500
1253.5620;-39.9500;-37.5200;-2.4300
1253.7610;-39.7500;-37.3500;-2.4000
1253.9600;-39.5700;-37.1900;-2.3800
1254.1590;-39.3600;-37.0300;-2.3300
1254.3580;-39.1600;-36.8500;-2.3100
1254.5580;-38.9700;-36.7000;-2.2700
1254.7570;-38.7600;-36.5400;-2.2200
1254.9560;-38.5600;-36.3700;-2.1900
1255.1550;-38.3500;-36.2300;-2.1200
1255.3540;-38.1500;-36.0600;-2.0900
1255.5530;-37.9500;-35.9200;-2.0300
1255.7520;-37.7400;-35.7400;-2.0000
1255.9510;-37.5500;-35.6300;-1.9200
1256.1500;-37.3500;-35.4900;-1.8600
1256.3500;-37.1600;-35.3400;-1.8200
1256.5490;-36.9700;-35.2200;-1.7500
1256.7480;-36.7800;-35.0700;-1.7100
1256.9470;-36.6000;-34.9400;-1.6600
1257.1460;-36.4100;-34.8000;-1.6100
1257.3450;-36.2200;-34.6600;-1.5600
1257.5440;-36.0500;-34.5400;-1.5100
1257.7430;-35.8300;-34.3900;-1.4400
1257.9430;-35.6700;-34.2500;-1.4200
1258.1420;-35.5000;-34.1200;-1.3800
1258.3410;-35.3300;-33.9700;-1.3600
1258.5400;-35.1500;-33.8400;-1.3100
1258.7390;-34.9700;-33.6800;-1.2900
1258.9380;-34.7900;-33.5400;-1.2500
1259.1370;-34.6100;-33.3900;-1.2200
1259.3360;-34.4500;-33.2400;-1.2100
1259.5350;-34.2800;-33.1000;-1.1800
1259.7350;-34.1200;-32.9400;-1.1800
1259.9340;-33.9400;-32.8000;-1.1400
1260.1330;-33.7900;-32.6500;-1.1400
1260.3320;-33.6400;-32.4900;-1.1500
1260.5310;-33.4800;-32.3600;-1.1200
1260.7300;-33.3400;-32.2000;-1.1400
1260.9290;-33.1800;-32.0700;-1.1100
1261.1280;-33.0300;-31.9200;-1.1100
1261.3270;-32.9000;-31.7700;-1.1300
1261.5270;-32.7600;-31.6500;-1.1100
1261.7260;-32.6300;-31.5100;-1.1200
1261.9250;-32.4800;-31.3800;-1.1000
1262.1240;-32.3400;-31.2400;-1.1000
1262.3230;-32.2100;-31.1100;-1.1000
1262.5220;-32.0600;-31.0000;-1.0600
1262.7210;-31.9300;-30.8600;-1.0700
1262.9200;-31.7800;-30.7400;-1.0400
1263.1200;-31.6300;-30.6000;-1.0300
1263.3190;-31.4900;-30.4700;-1.0200
1263.5180;-31.3500;-30.3600;-0.9900
1263.7170;-31.2100;-30.2100;-1.0000
1263.9160;-31.0500;-30.0900;-0.9600
1264.1150;-30.9000;-29.9500;-0.9500
1264.3140;-30.7600;-29.8100;-0.9500
1264.5130;-30.6100;-29.6900;-0.9200
1264.7120;-30.4700;-29.5500;-0.9200
1264.9120;-30.3100;-29.4200;-0.8900
1265.1110;-30.1700;-29.2700;-0.9000
1265.3100;-30.0300;-29.1400;-0.8900
1265.5090;-29.8900;-29.0100;-0.8800
1265.7080;-29.7700;-28.8700;-0.9000
1265.9070;-29.6300;-28.7500;-0.8800
1266.1060;-29.5000;-28.6100;-0.8900
1266.3050;-29.3800;-28.4800;-0.9000
1266.5040;-29.2700;-28.3700;-0.9000
1266.7040;-29.1700;-28.2400;-0.9300
1266.9030;-29.0500;-28.1200;-0.9300
1267.1020;-28.9400;-27.9900;-0.9500
1267.3010;-28.8400;-27.8700;-0.9700
1267.5000;-28.7500;-27.7700;-0.9800
1267.6990;-28.6700;-27.6500;-1.0200
1267.8980;-28.5700;-27.5500;-1.0200
1268.0970;-28.4900;-27.4300;-1.0600
1268.2970;-28.4100;-27.3200;-1.0900
1268.4960;-28.3400;-27.2200;-1.1200
1268.6950;-28.2800;-27.1000;-1.1800
1268.8940;-28.2100;-27.0000;-1.2100
1269.0930;-28.1500;-26.8800;-1.2700
1269.2920;-28.1000;-26.7700;-1.3300
1269.4910;-28.0700;-26.6600;-1.4100
1269.6900;-28.0500;-26.5400;-1.5100
1269.8890;-28.0200;-26.4400;-1.5800
1270.0890;-28.0300;-26.3100;-1.7200
1270.2880;-28.0500;-26.2000;-1.8500
1270.4870;-28.0900;-26.0700;-2.0200
1270.6860;-28.1700;-25.9700;-2.2000
1270.8850;-28.2500;-25.8500;-2.4000
1271.0840;-28.3700;-25.7300;-2.6400
1271.2830;-28.5200;-25.6300;-2.8900
1271.4820;-28.7100;-25.5000;-3.2100
1271.6810;-28.9400;-25.3900;-3.5500
1271.8810;-29.2100;-25.2800;-3.9300
1272.0800;-29.5400;-25.1700;-4.3700
1272.2790;-29.9100;-25.0600;-4.8500
1272.4780;-30.3500;-24.9500;-5.4000
1272.6770;-30.8600;-24.8500;-6.0100
1272.8760;-31.4300;-24.7400;-6.6900
1273.0750;-32.1100;-24.6500;-7.4600
1273.2740;-32.8600;-24.5600;-8.3000
1273.4740;-33.7300;-24.4500;-9.2800
1273.6730;-34.7200;-24.3700;-10.3500
1273.8720;-35.8200;-24.2700;-11.5500
1274.0710;-37.0400;-24.1800;-12.8600
1274.2700;-38.5500;-24.0900;-14.4600
1274.4690;-39.4300;-23.9900;-15.4400
1274.6680;-40.0600;-23.9100;-16.1500
1274.8670;-39.9400;-23.8100;-16.1300
1275.0660;-39.0900;-23.7200;-15.3700
1275.2660;-37.8200;-23.6400;-14.1800
1275.4650;-36.4700;-23.5400;-12.9300
1275.6640;-34.9400;-23.4600;-11.4800
1275.8630;-33.9600;-23.3600;-10.6000
1276.0620;-32.9100;-23.2700;-9.6400
1276.2610;-31.9900;-23.1800;-8.8100
1276.4600;-31.1800;-23.0900;-8.0900
1276.6590;-30.4500;-23.0000;-7.4500
1276.8580;-29.8400;-22.9000;-6.9400
1277.0580;-29.3000;-22.8200;-6.4800
1277.2570;-28.8400;-22.7300;-6.1100
1277.4560;-28.4600;-22.6400;-5.8200
1277.6550;-28.1300;-22.5700;-5.5600
1277.8540;-27.8600;-22.4700;-5.3900
1278.0530;-27.6400;-22.4000;-5.2400
1278.2520;-27.4800;-22.3100;-5.1700
1278.4510;-27.3700;-22.2300;-5.1400
1278.6500;-27.3000;-22.1600;-5.1400
1278.8500;-27.2800;-22.0700;-5.2100
1279.0490;-27.2900;-22.0000;-5.2900
1279.2480;-27.3400;-21.9200;-5.4200
1279.4470;-27.4300;-21.8400;-5.5900
1279.6460;-27.5300;-21.7700;-5.7600
1279.8450;-27.6800;-21.6800;-6.0000
1280.0440;-27.8300;-21.6200;-6.2100
1280.2430;-28.0100;-21.5400;-6.4700
1280.4430;-28.2000;-21.4600;-6.7400
1280.6420;-28.3900;-21.3900;-7.0000
1280.8410;-28.5900;-21.3100;-7.2800
1281.0400;-28.7600;-21.2400;-7.5200
1281.2390;-28.9300;-21.1600;-7.7700
1281.4380;-29.0800;-21.0800;-8.0000
1281.6370;-29.1900;-21.0100;-8.1800
1281.8360;-29.3000;-20.9300;-8.3700
1282.0350;-29.3600;-20.8700;-8.4900
1282.2350;-29.4100;-20.7800;-8.6300
1282.4340;-29.4300;-20.7100;-8.7200
1282.6330;-29.4500;-20.6500;-8.8000
1282.8320;-29.4600;-20.5800;-8.8800
1283.0310;-29.4500;-20.5200;-8.9300
1283.2300;-29.4500;-20.4500;-9.0000
1283.4290;-29.4500;-20.3900;-9.0600
1283.6280;-29.4500;-20.3200;-9.1300
1283.8270;-29.4700;-20.2600;-9.2100
1284.0270;-29.4900;-20.2100;-9.2800
1284.2260;-29.5200;-20.1400;-9.3800
1284.4250;-29.5500;-20.0900;-9.4600
1284.6240;-29.5800;-20.0300;-9.5500
1284.8230;-29.6000;-19.9700;-9.6300
1285.0220;-29.6000;-19.9300;-9.6700
1285.2210;-29.5800;-19.8600;-9.7200
1285.4200;-29.5000;-19.8100;-9.6900
1285.6200;-29.3900;-19.7500;-9.6400
1285.8190;-29.2200;-19.6900;-9.5300
1286.0180;-28.9900;-19.6500;-9.3400
1286.2170;-28.7200;-19.5800;-9.1400
1286.4160;-28.3900;-19.5400;-8.8500
1286.6150;-28.0300;-19.4900;-8.5400
1286.8140;-27.6200;-19.4300;-8.1900
1287.0130;-27.1800;-19.3900;-7.7900
1287.2120;-26.7500;-19.3300;-7.4200
1287.4120;-26.2900;-19.2900;-7.0000
1287.6110;-25.7700;-19.2300;-6.5400
1287.8100;-25.4000;-19.1800;-6.2200
1288.0090;-24.9800;-19.1400;-5.8400
1288.2080;-24.5800;-19.0800;-5.5000
1288.4070;-24.1800;-19.0500;-5.1300
1288.6060;-23.8200;-19.0000;-4.8200
1288.8050;-23.4600;-18.9600;-4.5000
1289.0040;-23.1200;-18.9200;-4.2000
1289.2040;-22.8100;-18.8700;-3.9400
1289.4030;-22.5200;-18.8500;-3.6700
1289.6020;-22.2600;-18.8000;-3.4600
1289.8010;-21.9900;-18.7600;-3.2300
1290.0000;-21.7600;-18.7200;-3.0400
1290.1990;-21.5500;-18.6800;-2.8700
1290.3980;-21.3400;-18.6600;-2.6800
1290.5970;-21.1700;-18.6200;-2.5500
1290.7970;-20.9800;-18.5900;-2.3900
1290.9960;-20.8100;-18.5300;-2.2800
1291.1950;-20.6700;-18.5000;-2.1700
1291.3940;-20.5400;-18.4700;-2.0700
1291.5930;-20.4200;-18.4100;-2.0100
1291.7920;-20.3100;-18.3900;-1.9200
1291.9910;-20.2100;-18.3400;-1.8700
1292.1900;-20.1300;-18.3100;-1.8200
1292.3890;-20.0600;-18.2700;-1.7900
1292.5890;-20.0100;-18.2200;-1.7900
1292.7880;-19.9600;-18.2000;-1.7600
1292.9870;-19.9400;-18.1500;-1.7900
1293.1860;-19.9200;-18.1300;-1.7900
1293.3850;-19.9100;-18.0900;-1.8200
1293.5840;-19.9200;-18.0500;-1.8700
1293.7830;-19.9400;-18.0200;-1.9200
1293.9820;-19.9800;-17.9900;-1.9900
1294.1810;-20.0300;-17.9700;-2.0600
1294.3810;-20.1000;-17.9300;-2.1700
1294.5800;-20.1800;-17.8900;-2.2900
1294.7790;-20.2800;-17.8700;-2.4100
1294.9780;-20.4100;-17.8400;-2.5700
1295.1770;-20.5400;-17.8200;-2.7200
1295.3760;-20.6900;-17.7900;-2.9000
1295.5750;-20.8700;-17.7600;-3.1100
1295.7740;-21.0600;-17.7300;-3.3300
1295.9740;-21.2800;-17.6900;-3.5900
1296.1730;-21.5200;-17.6800;-3.8400
1296.3720;-21.7900;-17.6500;-4.1400
1296.5710;-22.0700;-17.6300;-4.4400
1296.7700;-22.3900;-17.6000;-4.7900
1296.9690;-22.7500;-17.5800;-5.1700
1297.1680;-23.1300;-17.5700;-5.5600
1297.3670;-23.5500;-17.5500;-6.0000
1297.5660;-23.9900;-17.5300;-6.4600
1297.7660;-24.4900;-17.5100;-6.9800
1297.9650;-25.0500;-17.4900;-7.5600
1298.1640;-25.6300;-17.4800;-8.1500
1298.3630;-26.2800;-17.4700;-8.8100
1298.5620;-26.9600;-17.4600;-9.5000
1298.7610;-27.7100;-17.4400;-10.2700
1298.9600;-28.6900;-17.4400;-11.2500
1299.1590;-29.3900;-17.4300;-11.9600
1299.3580;-30.2600;-17.4200;-12.8400
1299.5580;-31.1100;-17.4200;-13.6900
1299.7570;-31.9000;-17.4100;-14.4900
1299.9560;-32.4900;-17.4100;-15.0800
1300.1550;-32.7900;-17.4000;-15.3900
1300.3540;-32.7200;-17.4000;-15.3200
1300.5530;-32.2900;-17.4000;-14.8900
1300.7520;-31.6400;-17.3900;-14.2500
1300.9510;-30.8200;-17.4000;-13.4200
1301.1500;-29.9700;-17.4000;-12.5700
1301.3500;-29.1100;-17.4000;-11.7100
1301.5490;-28.2900;-17.4100;-10.8800
1301.7480;-27.5300;-17.4100;-10.1200
1301.9470;-26.8000;-17.4200;-9.3800
1302.1460;-26.1600;-17.4200;-8.7400
1302.3450;-25.4400;-17.4300;-8.0100
1302.5440;-25.0100;-17.4300;-7.5800
1302.7430;-24.4900;-17.4300;-7.0600
1302.9430;-24.0300;-17.4400;-6.5900
1303.1420;-23.6300;-17.4400;-6.1900
1303.3410;-23.2400;-17.4600;-5.7800
1303.5400;-22.9200;-17.4600;-5.4600
1303.7390;-22.6000;-17.4600;-5.1400
1303.9380;-22.3200;-17.4700;-4.8500
1304.1370;-22.0900;-17.4800;-4.6100
1304.3360;-21.8700;-17.5000;-4.3700
1304.5350;-21.7100;-17.5000;-4.2100
1304.7350;-21.5400;-17.5100;-4.0300
1304.9340;-21.4100;-17.5200;-3.8900
1305.1330;-21.3200;-17.5300;-3.7900
1305.3320;-21.2300;-17.5500;-3.6800
1305.5310;-21.2000;-17.5600;-3.6400
1305.7300;-21.1600;-17.5800;-3.5800
1305.9290;-21.1600;-17.5800;-3.5800
1306.1280;-21.1800;-17.6000;-3.5800
1306.3270;-21.2300;-17.6100;-3.6200
1306.5270;-21.3200;-17.6300;-3.6900
1306.7260;-21.4000;-17.6500;-3.7500
1306.9250;-21.5300;-17.6500;-3.8800
1307.1240;-21.6700;-17.6800;-3.9900
1307.3230;-21.8400;-17.6900;-4.1500
1307.5220;-22.0500;-17.7100;-4.3400
1307.7210;-22.2700;-17.7400;-4.5300
1307.9200;-22.5400;-17.7500;-4.7900
1308.1200;-22.8300;-17.7900;-5.0400
1308.3190;-23.1500;-17.8000;-5.3500
1308.5180;-23.5100;-17.8400;-5.6700
1308.7170;-23.9000;-17.8800;-6.0200
1308.9160;-24.3200;-17.8900;-6.4300
1309.1150;-24.7800;-17.9400;-6.8400
1309.3140;-25.2700;-17.9600;-7.3100
1309.5130;-25.8200;-18.0100;-7.8100
1309.7120;-26.3800;-18.0500;-8.3300
1309.9120;-26.9900;-18.0700;-8.9200
1310.1110;-27.6400;-18.1300;-9.5100
1310.3100;-28.4600;-18.1600;-10.3000
1310.5090;-29.0200;-18.2100;-10.8100
1310.7080;-29.7300;-18.2500;-11.4800
1310.9070;-30.4100;-18.2900;-12.1200
1311.1060;-31.0500;-18.3500;-12.7000
1311.3050;-31.5800;-18.3800;-13.2000
1311.5040;-31.9500;-18.4500;-13.5000
1311.7040;-32.1200;-18.4800;-13.6400
1311.9030;-32.0700;-18.5300;-13.5400
1312.1020;-31.8200;-18.5800;-13.2400
1312.3010;-31.4500;-18.6300;-12.8200
1312.5000;-30.9600;-18.7000;-12.2600
1312.6990;-30.4300;-18.7400;-11.6900
1312.8980;-29.8700;-18.8000;-11.0700
1313.0970;-29.3300;-18.8500;-10.4800
1313.2970;-28.8100;-18.9000;-9.9100
1313.4960;-28.3300;-18.9800;-9.3500
1313.6950;-27.8900;-19.0300;-8.8600
1313.8940;-27.4700;-19.0900;-8.3800
1314.0930;-27.1200;-19.1400;-7.9800
1314.2920;-26.7900;-19.2000;-7.5900
1314.4910;-26.5000;-19.2700;-7.2300
1314.6900;-26.2100;-19.3200;-6.8900
1314.8890;-26.0200;-19.3800;-6.6400
1315.0890;-25.8500;-19.4300;-6.4200
1315.2880;-25.6800;-19.5000;-6.1800
1315.4870;-25.5800;-19.5500;-6.0300
1315.6860;-25.4700;-19.6100;-5.8600
1315.8850;-25.4000;-19.6700;-5.7300
1316.0840;-25.3700;-19.7300;-5.6400
1316.2830;-25.3400;-19.8000;-5.5400
1316.4820;-25.3700;-19.8500;-5.5200
1316.6810;-25.3900;-19.9200;-5.4700
1316.8810;-25.4500;-19.9800;-5.4700
1317.0800;-25.5400;-20.0500;-5.4900
1317.2790;-25.6300;-20.1200;-5.5100
1317.4780;-25.7600;-20.1900;-5.5700
1317.6770;-25.8900;-20.2600;-5.6300
1317.8760;-26.0400;-20.3200;-5.7200
1318.0750;-26.2000;-20.3900;-5.8100
1318.2740;-26.3800;-20.4600;-5.9200
1318.4740;-26.6000;-20.5300;-6.0700
1318.6730;-26.8100;-20.6200;-6.1900
1318.8720;-27.0400;-20.6800;-6.3600
1319.0710;-27.2700;-20.7800;-6.4900
1319.2700;-27.5200;-20.8500;-6.6700
1319.4690;-27.7700;-20.9300;-6.8400
1319.6680;-28.0200;-21.0200;-7.0000
1319.8670;-28.2900;-21.1000;-7.1900
1320.0660;-28.5900;-21.2000;-7.3900
1320.2660;-28.8000;-21.2800;-7.5200
1320.4650;-29.0300;-21.3700;-7.6600
1320.6640;-29.2800;-21.4700;-7.8100
1320.8630;-29.4800;-21.5600;-7.9200
1321.0620;-29.6800;-21.6600;-8.0200
1321.2610;-29.8600;-21.7500;-8.1100
1321.4600;-30.0000;-21.8600;-8.1400
1321.6590;-30.1400;-21.9500;-8.1900
1321.8580;-30.2300;-22.0500;-8.1800
1322.0580;-30.3000;-22.1600;-8.1400
1322.2570;-30.3400;-22.2600;-8.0800
1322.4560;-30.3600;-22.3700;-7.9900
1322.6550;-30.3600;-22.4700;-7.8900
1322.8540;-30.3300;-22.5900;-7.7400
1323.0530;-30.2900;-22.6900;-7.6000
1323.2520;-30.2400;-22.8100;-7.4300
1323.4510;-30.1700;-22.9200;-7.2500
1323.6500;-30.1000;-23.0300;-7.0700
1323.8500;-30.0200;-23.1600;-6.8600
1324.0490;-29.9500;-23.2700;-6.6800
1324.2480;-29.8600;-23.4000;-6.4600
1324.4470;-29.7800;-23.5100;-6.2700
1324.6460;-29.7100;-23.6300;-6.0800
1324.8450;-29.6400;-23.7600;-5.8800
1325.0440;-29.5900;-23.8700;-5.7200
1325.2430;-29.5300;-24.0100;-5.5200
1325.4430;-29.4900;-24.1200;-5.3700
1325.6420;-29.4600;-24.2600;-5.2000
1325.8410;-29.4400;-24.3900;-5.0500
1326.0400;-29.4400;-24.5200;-4.9200
1326.2390;-29.4300;-24.6500;-4.7800
1326.4380;-29.4400;-24.7800;-4.6600
1326.6370;-29.4600;-24.9100;-4.5500
1326.8360;-29.4900;-25.0400;-4.4500
1327.0350;-29.5500;-25.1800;-4.3700
1327.2350;-29.6000;-25.3200;-4.2800
1327.4340;-29.6800;-25.4500;-4.2300
1327.6330;-29.7600;-25.6000;-4.1600
1327.8320;-29.8500;-25.7200;-4.1300
1328.0310;-29.9700;-25.8700;-4.1000
1328.2300;-30.1000;-26.0100;-4.0900
1328.4290;-30.2500;-26.1500;-4.1000
1328.6280;-30.3900;-26.3000;-4.0900
1328.8270;-30.5600;-26.4400;-4.1200
1329.0270;-30.7500;-26.6000;-4.1500
1329.2260;-30.9400;-26.7300;-4.2100
1329.4250;-31.1600;-26.8900;-4.2700
1329.6240;-31.3800;-27.0300;-4.3500
1329.8230;-31.6400;-27.1700;-4.4700
1330.0220;-31.8900;-27.3300;-4.5600
1330.2210;-32.1800;-27.4700;-4.7100
1330.4200;-32.4900;-27.6300;-4.8600
1330.6200;-32.8100;-27.7700;-5.0400
1330.8190;-33.1700;-27.9200;-5.2500
1331.0180;-33.5300;-28.0700;-5.4600
1331.2170;-33.9400;-28.2300;-5.7100
1331.4160;-34.3800;-28.3900;-5.9900
1331.6150;-34.8300;-28.5700;-6.2600
1331.8140;-35.3300;-28.7100;-6.6200
1332.0130;-35.8500;-28.8500;-7.0000
1332.2120;-36.4100;-29.0200;-7.3900
1332.4120;-37.0100;-29.1700;-7.8400
1332.6110;-37.6700;-29.3400;-8.3300
1332.8100;-38.3600;-29.5000;-8.8600
1333.0090;-39.2500;-29.6600;-9.5900
1333.2080;-39.9200;-29.8300;-10.0900
1333.4070;-40.7600;-29.9800;-10.7800
1333.6060;-41.6900;-30.1500;-11.5400
1333.8050;-42.6700;-30.3100;-12.3600
1334.0040;-43.7000;-30.4700;-13.2300
1334.2040;-44.7700;-30.6500;-14.1200
1334.4030;-45.8300;-30.8100;-15.0200
1334.6020;-46.8200;-30.9800;-15.8400
1334.8010;-47.6100;-31.1500;-16.4600
1335.0000;-48.1200;-31.3200;-16.8000
1335.1990;-48.2500;-31.4900;-16.7600
1335.3980;-48.0400;-31.6600;-16.3800
1335.5970;-47.5800;-31.8500;-15.7300
1335.7970;-46.9700;-32.0200;-14.9500
1335.9960;-46.3300;-32.2100;-14.1200
1336.1950;-45.6700;-32.3800;-13.2900
1336.3940;-45.0600;-32.5600;-12.5000
1336.5930;-44.5000;-32.7400;-11.7600
1336.7920;-44.0000;-32.9100;-11.0900
1336.9910;-43.5800;-33.1000;-10.4800
1337.1900;-43.2000;-33.2800;-9.9200
1337.3890;-42.8900;-33.4700;-9.4200
1337.5890;-42.6300;-33.6500;-8.9800
1337.7880;-42.4200;-33.8300;-8.5900
1337.9870;-42.2700;-34.0300;-8.2400
1338.1860;-42.1400;-34.2000;-7.9400
1338.3850;-42.0800;-34.3900;-7.6900
1338.5840;-42.0300;-34.5700;-7.4600
1338.7830;-42.0300;-34.7500;-7.2800
1338.9820;-42.0700;-34.9500;-7.1200
1339.1810;-42.1400;-35.1300;-7.0100
1339.3810;-42.2400;-35.3200;-6.9200
1339.5800;-42.3500;-35.4900;-6.8600
1339.7790;-42.5000;-35.6800;-6.8200
1339.9780;-42.6600;-35.8700;-6.7900
1340.1770;-42.8400;-36.0500;-6.7900
1340.3760;-43.0400;-36.2600;-6.7800
1340.5750;-43.2400;-36.4400;-6.8000
1340.7740;-43.4500;-36.6300;-6.8200
1340.9740;-43.6400;-36.8100;-6.8300
1341.1730;-43.8400;-36.9900;-6.8500
1341.3720;-44.0300;-37.1800;-6.8500
1341.5710;-44.2100;-37.3700;-6.8400
1341.7700;-44.3700;-37.5600;-6.8100
1341.9690;-44.5100;-37.7300;-6.7800
1342.1680;-44.6300;-37.9300;-6.7000
1342.3670;-44.7100;-38.1100;-6.6000
1342.5660;-44.7800;-38.2900;-6.4900
1342.7660;-44.8400;-38.5300;-6.3100
1342.9650;-44.8600;-38.6900;-6.1700
1343.1640;-44.8800;-38.8900;-5.9900
1343.3630;-44.8700;-39.0700;-5.8000
1343.5620;-44.8500;-39.2600;-5.5900
1343.7610;-44.8400;-39.4500;-5.3900
1343.9600;-44.8200;-39.6500;-5.1700
1344.1590;-44.8100;-39.8600;-4.9500
1344.3580;-44.7900;-40.0500;-4.7400
1344.5580;-44.7700;-40.2500;-4.5200
1344.7570;-44.7600;-40.4400;-4.3200
1344.9560;-44.7400;-40.6300;-4.1100
1345.1550;-44.7500;-40.8200;-3.9300
1345.3540;-44.7500;-41.0000;-3.7500
1345.5530;-44.7700;-41.2000;-3.5700
1345.7520;-44.7900;-41.3800;-3.4100
1345.9510;-44.8200;-41.5800;-3.2400
1346.1500;-44.8700;-41.7800;-3.0900
1346.3500;-44.9200;-41.9700;-2.9500
1346.5490;-45.0100;-42.1900;-2.8200
1346.7480;-45.0700;-42.3700;-2.7000
1346.9470;-45.1400;-42.5600;-2.5800
1347.1460;-45.2200;-42.7500;-2.4700
1347.3450;-45.2900;-42.9200;-2.3700
1347.5440;-45.4300;-43.1600;-2.2700
1347.7430;-45.5700;-43.3900;-2.1800
1347.9430;-45.7200;-43.6200;-2.1000
1348.1420;-45.8200;-43.8000;-2.0200
1348.3410;-45.9500;-44.0000;-1.9500
1348.5400;-46.0500;-44.1600;-1.8900
1348.7390;-46.1700;-44.3400;-1.8300
1348.9380;-46.2900;-44.5200;-1.7700
1349.1370;-46.4200;-44.6800;-1.7400
1349.3360;-46.5400;-44.8500;-1.6900
1349.5350;-46.6900;-45.0200;-1.6700
1349.7350;-46.8300;-45.1900;-1.6400
1349.9340;-47.0200;-45.3800;-1.6400
1350.1330;-47.2100;-45.5800;-1.6300
1350.3320;-47.4700;-45.8400;-1.6300
1350.5310;-47.7000;-46.0500;-1.6500
1350.7300;-47.8900;-46.2300;-1.6600
1350.9290;-48.0800;-46.4000;-1.6800
1351.1280;-48.2500;-46.5200;-1.7300
1351.3270;-48.5100;-46.7000;-1.8100
1351.5270;-48.7000;-46.8700;-1.8300
1351.7260;-49.0100;-47.1200;-1.8900
1351.9250;-49.2600;-47.3100;-1.9500
1352.1240;-49.5200;-47.4900;-2.0300
1352.3230;-49.7900;-47.6800;-2.1100
1352.5220;-50.0800;-47.8800;-2.2000
1352.7210;-50.3400;-48.0500;-2.2900
1352.9200;-50.6000;-48.2000;-2.4000
1353.1200;-50.9800;-48.5500;-2.4300
1353.3190;-51.1900;-48.5900;-2.6000
1353.5180;-51.4800;-48.7700;-2.7100
1353.7170;-51.8000;-48.9500;-2.8500
1353.9160;-52.0100;-49.0600;-2.9500
1354.1150;-52.3100;-49.2200;-3.0900
1354.3140;-52.6600;-49.4500;-3.2100
1354.5130;-52.9900;-49.6500;-3.3400
1354.7120;-53.4400;-49.9600;-3.4800
1354.9120;-53.8700;-50.2500;-3.6200
1355.1110;-54.2100;-50.4400;-3.7700
1355.3100;-54.5100;-50.5700;-3.9400
1355.5090;-54.6600;-50.5900;-4.0700
1355.7080;-55.0600;-50.8500;-4.2100
1355.9070;-55.4900;-51.1300;-4.3600
1356.1060;-55.8300;-51.3000;-4.5300
1356.3050;-56.0900;-51.3900;-4.7000
1356.5040;-56.4000;-51.5200;-4.8800
1356.7040;-56.4600;-51.4300;-5.0300
1356.9030;-56.7800;-51.6000;-5.1800
1357.1020;-57.3000;-51.9700;-5.3300
1357.3010;-57.6900;-52.2100;-5.4800
1357.5000;-58.0600;-52.4000;-5.6600
1357.6990;-58.4700;-52.5900;-5.8800
1357.8980;-58.5900;-52.6600;-5.9300
1358.0970;-58.7600;-52.7300;-6.0300
1358.2970;-59.0500;-52.9200;-6.1300
1358.4960;-59.3700;-53.1500;-6.2200
1358.6950;-59.5800;-53.3000;-6.2800
1358.8940;-59.7600;-53.4700;-6.2900
1359.0930;-59.9100;-53.6300;-6.2800
1359.2920;-59.9400;-53.6900;-6.2500
1359.4910;-60.2600;-54.0700;-6.1900
1359.6900;-60.5100;-54.3800;-6.1300
1359.8890;-60.5900;-54.5800;-6.0100
1360.0890;-60.5500;-54.6600;-5.8900
1360.2880;-60.4400;-54.7100;-5.7300
1360.4870;-60.2800;-54.7000;-5.5800
1360.6860;-60.3000;-54.8900;-5.4100
1360.8850;-60.4700;-55.2300;-5.2400
1361.0840;-60.5800;-55.5400;-5.0400
1361.2830;-60.5500;-55.7200;-4.8300
1361.4820;-60.5400;-55.9000;-4.6400
1361.6810;-60.6000;-56.1400;-4.4600
1361.8810;-60.5500;-56.2800;-4.2700
1362.0800;-60.5800;-56.5200;-4.0600
1362.2790;-60.8700;-56.9500;-3.9200
1362.4780;-60.9400;-57.1900;-3.7500
1362.6770;-60.9000;-57.3600;-3.5400
1362.8760;-60.6300;-57.2600;-3.3700
1363.0750;-60.4700;-57.2300;-3.2400
1363.2740;-60.1000;-57.0100;-3.0900
1363.4740;-60.0700;-57.1000;-2.9700
1363.6730;-60.0600;-57.2000;-2.8600
1363.8720;-60.1200;-57.3700;-2.7500
1364.0710;-60.2400;-57.6000;-2.6400
1364.2700;-60.3500;-57.8100;-2.5400
1364.4690;-60.5900;-58.1500;-2.4400
1364.6680;-61.0500;-58.7300;-2.3200
1364.8670;-61.2300;-58.9500;-2.2800
1365.0660;-61.1500;-58.9300;-2.2200
1365.2660;-61.2700;-59.1400;-2.1300
1365.4650;-61.1600;-59.0900;-2.0700
1365.6640;-61.2000;-59.1700;-2.0300
1365.8630;-61.2100;-59.2500;-1.9600
1366.0620;-61.1800;-59.2700;-1.9100
1366.2610;-61.1500;-59.3000;-1.8500
1366.4600;-61.2100;-59.3800;-1.8300
1366.6590;-61.3600;-59.5700;-1.7900
1366.8580;-61.5700;-59.8400;-1.7300
1367.0580;-61.7000;-59.9800;-1.7200
1367.2570;-61.8000;-60.1200;-1.6800
1367.4560;-62.0400;-60.4100;-1.6300
1367.6550;-62.2300;-60.6300;-1.6000
1367.8540;-62.4900;-60.9300;-1.5600
1368.0530;-62.6200;-61.0900;-1.5300
1368.2520;-62.5900;-61.0900;-1.5000
1368.4510;-62.9400;-61.4300;-1.5100
1368.6500;-63.0300;-61.5800;-1.4500
1368.8500;-63.1500;-61.7000;-1.4500
1369.0490;-63.1800;-61.7400;-1.4400
1369.2480;-63.1900;-61.7400;-1.4500
1369.4470;-63.1400;-61.6700;-1.4700
1369.6460;-63.2900;-61.8400;-1.4500
1369.8450;-63.6900;-62.2100;-1.4800
1370.0440;-63.9600;-62.4200;-1.5400
1370.2430;-64.1700;-62.6000;-1.5700
1370.4430;-64.3000;-62.6800;-1.6200
1370.6420;-64.4200;-62.7500;-1.6700
1370.8410;-64.8600;-63.1200;-1.7400
1371.0400;-65.2900;-63.4200;-1.8700
1371.2390;-65.5900;-63.6400;-1.9500
1371.4380;-65.7900;-63.7700;-2.0200
1371.6370;-66.0200;-63.7600;-2.2600
1371.8360;-66.1700;-63.7400;-2.4300
1372.0350;-66.6000;-63.9900;-2.6100
1372.2350;-67.0300;-64.2600;-2.7700
1372.4340;-67.4300;-64.4200;-3.0100
1372.6330;-67.8900;-64.5300;-3.3600
1372.8320;-68.2400;-64.6600;-3.5800
1373.0310;-68.6700;-64.7000;-3.9700
1373.2300;-69.2100;-64.9000;-4.3100
1373.4290;-69.7400;-65.1500;-4.5900
1373.6280;-70.4300;-65.3400;-5.0900
1373.8270;-70.8000;-65.5100;-5.2900
1374.0270;-71.3500;-65.6200;-5.7300
1374.2260;-72.2000;-65.8200;-6.3800
1374.4250;-73.3800;-66.0600;-7.3200
1374.6240;-74.1400;-66.2300;-7.9100
1374.8230;-75.1200;-66.5400;-8.5800
1375.0220;-75.5600;-66.6900;-8.8700
1375.2210;-76.2300;-66.8700;-9.3600
1375.4200;-77.9400;-67.0300;-10.9100
1375.6200;-78.3400;-67.2300;-11.1100
1375.8190;-78.2600;-67.3400;-10.9200
1376.0180;-78.9000;-67.5500;-11.3500
1376.2170;-79.3000;-67.7200;-11.5800
1376.4160;-79.4700;-68.0100;-11.4600
1376.6150;-80.9100;-68.2900;-12.6200
1376.8140;-78.9100;-68.4400;-10.4700
1377.0130;-79.4800;-68.7600;-10.7200
1377.2120;-78.4800;-69.0800;-9.4000
1377.4120;-77.7800;-69.1500;-8.6300
1377.6110;-77.0100;-69.2500;-7.7600
1377.8100;-77.0300;-69.2800;-7.7500
1378.0090;-75.8200;-69.4300;-6.3900
1378.2080;-76.0800;-69.6300;-6.4500
1378.4070;-75.2600;-69.8500;-5.4100
1378.6060;-75.7500;-70.2800;-5.4700
1378.8050;-75.3800;-70.5400;-4.8400
1379.0040;-74.8200;-70.5900;-4.2300
1379.2040;-74.4600;-70.8700;-3.5900
1379.4030;-74.8400;-71.0200;-3.8200
1379.6020;-74.5000;-70.7300;-3.7700
1379.8010;-74.4500;-71.0400;-3.4100
1380.0000;-74.4200;-71.3100;-3.1100
1380.1990;-74.0800;-71.4500;-2.6300
1380.3980;-74.4400;-71.7300;-2.7100
1380.5970;-74.8000;-72.3200;-2.4800
1380.7970;-75.2500;-72.8500;-2.4000
1380.9960;-75.7200;-72.8900;-2.8300
1381.1950;-75.7200;-72.9500;-2.7700
1381.3940;-75.4700;-72.7500;-2.7200
1381.5930;-75.4400;-72.4600;-2.9800
1381.7920;-75.5800;-72.6100;-2.9700
1381.9910;-76.1400;-72.7200;-3.4200
1382.1900;-75.7600;-72.7500;-3.0100
1382.3890;-76.8200;-73.4100;-3.4100
1382.5890;-77.0900;-73.4600;-3.6300
1382.7880;-78.3700;-74.4200;-3.9500
1382.9870;-78.9400;-74.7300;-4.2100
1383.1860;-78.1700;-74.9500;-3.2200
1383.3850;-78.5100;-74.2800;-4.2300
1383.5840;-78.9700;-74.1500;-4.8200
1383.7830;-78.9100;-73.7600;-5.1500
1383.9820;-78.5900;-74.1100;-4.4800
1384.1810;-79.4400;-74.2600;-5.1800
1384.3810;-80.5500;-74.3000;-6.2500
1384.5800;-80.7800;-74.0300;-6.7500
1384.7790;-81.8100;-74.1000;-7.7100
1384.9780;-82.5000;-74.8900;-7.6100
1385.1770;-81.3200;-74.7000;-6.6200
1385.3760;-81.4700;-75.1300;-6.3400
1385.5750;-81.1100;-75.0800;-6.0300
1385.7740;-81.2100;-75.3000;-5.9100
1385.9740;-82.9300;-75.3000;-7.6300
1386.1730;-82.0500;-75.3000;-6.7500
1386.3720;-85.0000;-74.9700;-10.0300
1386.5710;-82.5000;-75.3200;-7.1800
1386.7700;-81.4700;-75.0900;-6.3800
1386.9690;-82.3000;-75.1400;-7.1600
1387.1680;-80.8700;-75.7600;-5.1100
1387.3670;-80.6900;-75.5900;-5.1000
1387.5660;-83.4000;-76.0100;-7.3900
1387.7660;-81.2700;-75.9100;-5.3600
1387.9650;-80.6900;-76.4800;-4.2100
1388.1640;-79.9900;-76.9800;-3.0100
1388.3630;-81.4200;-76.8100;-4.6100
1388.5620;-82.2300;-76.5500;-5.6800
1388.7610;-81.9900;-77.0200;-4.9700
1388.9600;-82.3600;-76.8100;-5.5500
1389.1590;-81.6900;-76.3100;-5.3800
1389.3580;-79.9100;-76.5800;-3.3300
1389.5580;-81.8700;-76.6900;-5.1800
1389.7570;-81.0200;-77.7000;-3.3200
1389.9560;-83.4000;-77.7000;-5.7000
1390.1550;-79.5900;-76.6900;-2.9000
1390.3540;-81.4200;-76.5600;-4.8600
1390.5530;-81.5300;-76.6500;-4.8800
1390.7520;-81.4200;-76.8900;-4.5300
1390.9510;-81.1100;-76.6500;-4.4600
1391.1500;-82.5000;-78.2300;-4.2700
1391.3500;-81.9300;-76.9400;-4.9900
1391.5490;-83.5800;-77.5600;-6.0200
1391.7480;-84.4400;-77.1100;-7.3300
1391.9470;-84.5500;-77.0300;-7.5200
1392.1460;-83.9400;-77.1800;-6.7600
1392.3450;-80.7500;-77.4700;-3.2800
1392.5440;-82.0000;-78.4200;-3.5800
1392.7430;-82.7900;-79.2700;-3.5200
1392.9430;-83.8500;-78.4700;-5.3800
1393.1420;-85.2500;-77.7100;-7.5400
1393.3410;-82.1800;-77.8300;-4.3500
1393.5400;-80.8800;-77.7400;-3.1400
1393.7390;-80.2800;-77.4900;-2.7900
1393.9380;-81.9400;-78.6400;-3.3000
1394.1370;-84.6600;-78.6700;-5.9900
1394.3360;-82.7900;-78.6900;-4.1000
1394.5350;-84.0400;-78.3200;-5.7200
1394.7350;-84.5500;-77.3900;-7.1600
1394.9340;-82.9400;-78.1600;-4.7800
1395.1330;-85.9500;-78.2600;-7.6900
1395.3320;-84.5500;-78.8400;-5.7100
1395.5310;-89.4300;-79.2300;-10.2000
1395.7300;-83.0900;-78.9900;-4.1000
1395.9290;-83.7600;-78.3200;-5.4400
1396.1280;-81.7600;-77.9700;-3.7900
1396.3270;-83.5800;-77.6200;-5.9600
1396.5270;-88.5300;-78.4200;-10.1100
1396.7260;-84.3400;-79.5000;-4.8400
1396.9250;-82.1800;-79.7100;-2.4700
1397.1240;-82.0600;-79.3600;-2.7000
1397.3230;-81.1200;-79.4300;-1.6900
1397.5220;-80.6600;-79.1700;-1.4900
1397.7210;-81.3300;-78.9900;-2.3400
1397.9200;-81.4800;-78.3900;-3.0900
1398.1200;-82.3700;-77.4300;-4.9400
1398.3190;-83.0900;-77.8700;-5.2200
1398.5180;-82.5200;-79.0000;-3.5200
1398.7170;-81.3400;-78.3800;-2.9600
1398.9160;-81.1300;-78.3500;-2.7800
1399.1150;-82.3800;-78.6500;-3.7300
1399.3140;-80.8900;-79.2100;-1.6800
1399.5130;-83.1000;-78.3800;-4.7200
1399.7120;-82.0100;-79.8600;-2.1500
1399.9120;-82.2500;-80.3300;-1.9200
1400.1110;-83.5900;-80.0100;-3.5800
1400.3100;-81.4900;-78.5400;-2.9500
1400.5090;-82.0100;-79.0000;-3.0100
1400.7080;-83.4200;-78.7000;-4.7200
1400.9070;-81.6600;-79.6100;-2.0500
1401.1060;-82.3800;-78.0300;-4.3500
1401.3050;-83.5900;-79.8600;-3.7300
1401.5040;-81.5500;-79.0600;-2.4900
1401.7040;-83.8600;-79.6800;-4.1800
1401.9030;-80.0100;-80.4100;0.4000
1402.1020;-81.1300;-80.0900;-1.0400
1402.3010;-80.4900;-80.4900;0.0000
1402.5000;-84.5600;-78.1500;-6.4100
1402.6990;-81.5500;-79.9000;-1.6500
1402.8980;-81.6600;-78.7600;-2.9000
1403.0970;-85.2600;-78.4800;-6.7800
1403.2970;-83.0200;-79.0300;-3.9900
1403.4960;-83.1000;-79.9300;-3.1700
1403.6950;-85.9600;-79.0000;-6.9600
1403.8940;-82.8700;-79.7200;-3.1500
1404.0930;-83.0200;-79.5100;-3.5100
1404.2920;-81.2300;-80.7100;-0.5200
1404.4910;-83.0200;-78.5400;-4.4800
1404.6900;-84.3500;-79.6500;-4.7000
1404.8890;-83.6800;-78.4800;-5.2000
1405.0890;-81.6000;-81.1800;-0.4200
1405.2880;-83.5900;-79.9000;-3.6900
1405.4870;-82.2500;-80.0500;-2.2000
1405.6860;-82.0100;-79.7200;-2.2900
1405.8850;-83.5900;-78.6500;-4.9400
1406.0840;-82.9500;-78.9700;-3.9800
1406.2830;-82.5200;-79.0600;-3.4600
1406.4820;-83.7700;-79.2100;-4.5600
1406.6810;-83.7800;-79.3500;-4.4300
1406.8810;-82.5300;-78.9200;-3.6100
1407.0800;-84.5700;-78.3600;-6.2100
1407.2790;-81.2400;-80.1000;-1.1400
1407.4780;-81.8400;-80.9500;-0.8900
1407.6770;-82.5300;-79.2500;-3.2800
1407.8760;-82.2600;-79.5200;-2.7400
1408.0750;-82.7400;-78.9500;-3.7900
1408.2740;-84.5700;-79.2500;-5.3200
1408.4740;-80.0200;-78.1300;-1.8900
1408.6730;-80.9500;-78.8300;-2.1200
1408.8720;-82.1400;-78.4400;-3.7000
1409.0710;-83.7800;-78.9200;-4.8600
1409.2700;-82.5300;-78.4400;-4.0900
1409.4690;-85.9700;-80.3800;-5.5900
1409.6680;-81.9600;-80.0200;-1.9400
1409.8670;-86.2800;-79.5200;-6.7600
1410.0660;-83.3500;-79.2200;-4.1300
1410.2660;-83.4300;-78.2600;-5.1700
1410.4650;-84.1500;-79.5200;-4.6300
1410.6640;-81.9600;-79.0100;-2.9500
1410.8630;-81.5600;-78.6900;-2.8700
1411.0620;-84.0600;-78.8000;-5.2600
1411.2610;-88.0400;-79.6600;-8.3800
1411.4600;-79.6900;-78.8000;-0.8900
1411.6590;-80.7700;-78.2600;-2.5100
1411.8580;-81.9600;-78.1300;-3.8300
1412.0580;-80.7700;-77.9600;-2.8100
1412.2570;-83.6900;-78.0900;-5.6000
1412.4560;-80.9500;-78.8600;-2.0900
1412.6550;-82.3900;-78.0400;-4.3500
1412.8540;-86.4400;-79.4800;-6.9600
1413.0530;-87.1700;-78.7100;-8.4600
1413.2520;-80.9500;-78.5500;-2.4000
1413.4510;-84.3600;-77.6700;-6.6900
1413.6500;-84.0700;-78.5000;-5.5700
1413.8500;-81.4100;-78.1700;-3.2400
1414.0490;-82.4000;-78.6700;-3.7300
1414.2480;-81.7300;-79.2600;-2.4700
1414.4470;-83.2800;-78.9900;-4.2900
1414.6460;-81.0100;-79.7400;-1.2700
1414.8450;-84.5800;-79.4600;-5.1200
1415.0440;-85.1600;-78.4500;-6.7100
1415.2430;-84.5800;-78.6700;-5.9100
1415.4430;-83.2800;-79.2300;-4.0500
1415.6420;-84.3700;-78.9000;-5.4700
1415.8410;-83.4400;-78.7200;-4.7200
1416.0400;-81.5100;-78.1400;-3.3700
1416.2390;-84.4700;-78.7200;-5.7500
1416.4380;-80.4300;-78.1900;-2.2400
1416.6370;-82.4000;-78.9000;-3.5000
1416.8360;-81.1500;-79.7000;-1.4500
1417.0350;-82.2700;-78.8400;-3.4300
1417.2350;-81.9100;-77.8800;-4.0300
1417.4340;-82.5400;-77.4600;-5.0800
1417.6330;-82.5400;-78.1200;-4.4200
1417.8320;-83.3600;-78.0000;-5.3600
1418.0310;-84.1600;-77.4200;-6.7400
1418.2300;-80.7800;-77.8100;-2.9700
1418.4290;-82.8200;-78.2400;-4.5800
1418.6280;-82.2100;-77.6800;-4.5300
1418.8270;-81.2500;-78.6100;-2.6400
1419.0270;-83.1200;-79.1400;-3.9800
1419.2260;-80.9600;-78.0500;-2.9100
1419.4250;-80.3500;-78.6700;-1.6800
1419.6240;-80.9100;-78.6100;-2.3000
1419.8230;-82.5400;-78.0500;-4.4900
1420.0220;-80.9600;-78.4500;-2.5100
1420.2210;-81.8500;-78.1000;-3.7500
1420.4200;-81.1500;-78.2400;-2.9100
1420.6200;-81.5700;-77.5500;-4.0200
1420.8190;-81.5700;-78.4800;-3.0900
1421.0180;-81.7300;-78.0200;-3.7100
1421.2170;-82.5400;-78.1000;-4.4400
1421.4160;-83.0400;-78.2200;-4.8200
1421.6150;-80.2000;-78.5700;-1.6300
1421.8140;-80.8800;-77.9400;-2.9400
1422.0130;-81.9200;-77.7800;-4.1400
1422.2120;-80.6100;-78.4600;-2.1500
1422.4120;-79.5400;-77.6900;-1.8500
1422.6110;-80.1200;-78.1500;-1.9700
1422.8100;-80.7000;-77.7100;-2.9900
1423.0090;-82.2800;-78.6200;-3.6600
1423.2080;-82.1600;-78.1100;-4.0500
1423.4070;-85.5600;-77.8700;-7.6900
1423.6060;-81.1600;-78.4600;-2.7000
1423.8050;-82.4100;-78.1100;-4.3000
1424.0040;-81.1200;-78.2000;-2.9200
1424.2040;-83.3700;-78.8200;-4.5500
1424.4030;-81.4200;-78.7900;-2.6300
1424.6020;-81.8000;-77.9600;-3.8400
1424.8010;-81.7400;-77.0900;-4.6500
1425.0000;-81.8000;-77.1900;-4.6100
