Wavelength;Intensity_Meas;Intensity_Ref;Difference_dB
1200.0000;-61.5000;-57.3300;-4.1700
1200.1990;-61.4000;-57.3100;-4.0900
1200.3980;-61.3600;-57.2900;-4.0700
1200.5970;-61.3100;-57.2600;-4.0500
1200.7970;-61.2500;-57.2100;-4.0400
1200.9960;-61.2000;-57.2000;-4.0000
1201.1950;-61.1400;-57.1800;-3.9600
1201.3940;-61.1000;-57.1100;-3.9900
1201.5930;-61.0600;-57.0700;-3.9900
1201.7920;-61.0000;-57.0200;-3.9800
1201.9910;-60.9600;-56.9800;-3.9800
1202.1900;-60.9300;-56.9500;-3.9800
1202.3890;-60.9400;-56.8700;-4.0700
1202.5890;-60.9100;-56.8000;-4.1100
1202.7880;-60.8300;-56.7800;-4.0500
1202.9870;-60.8200;-56.7300;-4.0900
1203.1860;-60.8300;-56.6800;-4.1500
1203.3850;-60.7700;-56.6000;-4.1700
1203.5840;-60.7400;-56.5700;-4.1700
1203.7830;-60.7500;-56.5400;-4.2100
1203.9820;-60.7900;-56.4900;-4.3000
1204.1810;-60.7600;-56.4500;-4.3100
1204.3810;-60.7600;-56.3900;-4.3700
1204.5800;-60.7700;-56.3900;-4.3800
1204.7790;-60.7600;-56.3700;-4.3900
1204.9780;-60.8000;-56.3100;-4.4900
1205.1770;-60.8000;-56.2800;-4.5200
1205.3760;-60.8000;-56.2700;-4.5300
1205.5750;-60.8300;-56.2500;-4.5800
1205.7740;-60.8800;-56.2300;-4.6500
1205.9740;-60.8700;-56.2100;-4.6600
1206.1730;-60.8100;-56.2000;-4.6100
1206.3720;-60.8200;-56.1800;-4.6400
1206.5710;-60.8200;-56.1600;-4.6600
1206.7700;-60.7800;-56.1400;-4.6400
1206.9690;-60.7200;-56.1000;-4.6200
1207.1680;-60.6400;-56.1000;-4.5400
1207.3670;-60.5900;-56.0800;-4.5100
1207.5660;-60.5300;-56.0200;-4.5100
1207.7660;-60.4300;-56.0100;-4.4200
1207.9650;-60.3400;-55.9800;-4.3600
1208.1640;-60.2500;-55.9400;-4.3100
1208.3630;-60.1900;-55.8900;-4.3000
1208.5620;-60.1400;-55.8600;-4.2800
1208.7610;-60.0300;-55.8300;-4.2000
1208.9600;-59.9700;-55.7800;-4.1900
1209.1590;-59.9100;-55.7300;-4.1800
1209.3580;-59.8500;-55.6600;-4.1900
1209.5580;-59.7600;-55.6200;-4.1400
1209.7570;-59.7100;-55.6000;-4.1100
1209.9560;-59.6800;-55.5300;-4.1500
1210.1550;-59.6100;-55.4600;-4.1500
1210.3540;-59.5300;-55.4200;-4.1100
1210.5530;-59.4700;-55.3900;-4.0800
1210.7520;-59.4400;-55.3400;-4.1000
1210.9510;-59.4300;-55.2800;-4.1500
1211.1500;-59.3500;-55.2400;-4.1100
1211.3500;-59.2800;-55.2000;-4.0800
1211.5490;-59.2800;-55.1800;-4.1000
1211.7480;-59.2600;-55.1500;-4.1100
1211.9470;-59.2200;-55.0800;-4.1400
1212.1460;-59.1600;-55.0700;-4.0900
1212.3450;-59.1700;-55.0500;-4.1200
1212.5440;-59.2100;-55.0100;-4.2000
1212.7430;-59.1800;-54.9800;-4.2000
1212.9430;-59.1300;-54.9500;-4.1800
1213.1420;-59.1200;-54.9200;-4.2000
1213.3410;-59.1400;-54.8900;-4.2500
1213.5400;-59.1500;-54.8700;-4.2800
1213.7390;-59.1100;-54.8500;-4.2600
1213.9380;-59.1200;-54.8000;-4.3200
1214.1370;-59.1400;-54.7900;-4.3500
1214.3360;-59.1600;-54.7300;-4.4300
1214.5350;-59.1200;-54.7000;-4.4200
1214.7350;-59.0900;-54.6800;-4.4100
1214.9340;-59.1300;-54.6300;-4.5000
1215.1330;-59.1200;-54.5800;-4.5400
1215.3320;-59.0600;-54.5300;-4.5300
1215.5310;-59.0300;-54.4900;-4.5400
1215.7300;-59.0400;-54.4500;-4.5900
1215.9290;-59.0400;-54.3900;-4.6500
1216.1280;-58.9700;-54.3300;-4.6400
1216.3270;-58.9200;-54.2600;-4.6600
1216.5270;-58.9200;-54.2300;-4.6900
1216.7260;-58.9000;-54.1800;-4.7200
1216.9250;-58.8700;-54.1000;-4.7700
1217.1240;-58.7800;-54.0500;-4.7300
1217.3230;-58.7600;-53.9900;-4.7700
1217.5220;-58.7800;-53.9400;-4.8400
1217.7210;-58.7200;-53.9000;-4.8200
1217.9200;-58.6700;-53.8400;-4.8300
1218.1200;-58.6400;-53.8000;-4.8400
1218.3190;-58.6400;-53.7500;-4.8900
1218.5180;-58.6200;-53.7100;-4.9100
1218.7170;-58.5600;-53.6600;-4.9000
1218.9160;-58.5500;-53.6300;-4.9200
1219.1150;-58.5500;-53.6100;-4.9400
1219.3140;-58.5200;-53.5500;-4.9700
1219.5130;-58.4800;-53.5300;-4.9500
1219.7120;-58.4400;-53.5100;-4.9300
1219.9120;-58.4600;-53.4600;-5.0000
1220.1110;-58.4300;-53.4300;-5.0000
1220.3100;-58.3500;-53.3900;-4.9600
1220.5090;-58.2900;-53.3500;-4.9400
1220.7080;-58.2800;-53.3300;-4.9500
1220.9070;-58.2500;-53.2800;-4.9700
1221.1060;-58.1400;-53.2200;-4.9200
1221.3050;-58.0800;-53.1900;-4.8900
1221.5040;-58.0300;-53.1400;-4.8900
1221.7040;-57.9600;-53.0800;-4.8800
1221.9030;-57.8800;-53.0300;-4.8500
1222.1020;-57.7700;-52.9700;-4.8000
1222.3010;-57.7200;-52.9100;-4.8100
1222.5000;-57.6400;-52.8400;-4.8000
1222.6990;-57.5400;-52.7900;-4.7500
1222.8980;-57.4500;-52.7100;-4.7400
1223.0970;-57.3700;-52.6500;-4.7200
1223.2970;-57.3200;-52.5800;-4.7400
1223.4960;-57.2100;-52.5000;-4.7100
1223.6950;-57.1100;-52.4500;-4.6600
1223.8940;-57.0800;-52.3800;-4.7000
1224.0930;-57.0000;-52.3100;-4.6900
1224.2920;-56.9100;-52.2400;-4.6700
1224.4910;-56.8200;-52.1800;-4.6400
1224.6900;-56.7700;-52.1300;-4.6400
1224.8890;-56.7000;-52.0500;-4.6500
1225.0890;-56.5900;-52.0100;-4.5800
1225.2880;-56.4600;-51.9300;-4.5300
1225.4870;-56.3800;-51.8700;-4.5100
1225.6860;-56.2900;-51.8400;-4.4500
1225.8850;-56.1700;-51.7800;-4.3900
1226.0840;-56.0100;-51.7300;-4.2800
1226.2830;-55.9100;-51.6800;-4.2300
1226.4820;-55.7500;-51.6200;-4.1300
1226.6810;-55.6500;-51.5900;-4.0600
1226.8810;-55.5200;-51.5400;-3.9800
1227.0800;-55.4100;-51.4800;-3.9300
1227.2790;-55.3300;-51.4400;-3.8900
1227.4780;-55.2000;-51.3800;-3.8200
1227.6770;-55.1000;-51.3400;-3.7600
1227.8760;-55.0500;-51.2700;-3.7800
1228.0750;-54.9900;-51.2200;-3.7700
1228.2740;-54.9400;-51.1500;-3.7900
1228.4740;-54.8900;-51.0800;-3.8100
1228.6730;-54.8700;-51.0300;-3.8400
1228.8720;-54.8800;-50.9500;-3.9300
1229.0710;-54.8600;-50.8900;-3.9700
1229.2700;-54.8800;-50.8100;-4.0700
1229.4690;-54.8900;-50.7200;-4.1700
1229.6680;-54.9100;-50.6700;-4.2400
1229.8670;-54.9300;-50.5700;-4.3600
1230.0660;-54.9500;-50.4900;-4.4600
1230.2660;-54.9900;-50.4100;-4.5800
1230.4650;-55.0300;-50.3300;-4.7000
1230.6640;-55.0500;-50.2600;-4.7900
1230.8630;-55.1200;-50.1800;-4.9400
1231.0620;-55.1600;-50.1100;-5.0500
1231.2610;-55.1900;-50.0500;-5.1400
1231.4600;-55.1900;-49.9800;-5.2100
1231.6590;-55.1800;-49.9300;-5.2500
1231.8580;-55.1600;-49.8500;-5.3100
1232.0580;-55.1000;-49.8100;-5.2900
1232.2570;-54.9900;-49.7400;-5.2500
1232.4560;-54.8700;-49.6800;-5.1900
1232.6550;-54.7100;-49.6400;-5.0700
1232.8540;-54.5300;-49.5700;-4.9600
1233.0530;-54.3100;-49.5300;-4.7800
1233.2520;-54.0900;-49.4600;-4.6300
1233.4510;-53.8600;-49.4100;-4.4500
1233.6500;-53.6500;-49.3700;-4.2800
1233.8500;-53.4300;-49.3000;-4.1300
1234.0490;-53.2300;-49.2500;-3.9800
1234.2480;-53.0600;-49.1800;-3.8800
1234.4470;-52.8800;-49.1200;-3.7600
1234.6460;-52.7300;-49.0600;-3.6700
1234.8450;-52.6300;-48.9900;-3.6400
1235.0440;-52.5300;-48.9300;-3.6000
1235.2430;-52.4700;-48.8400;-3.6300
1235.4430;-52.3900;-48.7600;-3.6300
1235.6420;-52.3600;-48.6900;-3.6700
1235.8410;-52.3600;-48.6000;-3.7600
1236.0400;-52.3400;-48.5300;-3.8100
1236.2390;-52.3400;-48.4200;-3.9200
1236.4380;-52.3400;-48.3300;-4.0100
1236.6370;-52.3800;-48.2500;-4.1300
1236.8360;-52.3800;-48.1500;-4.2300
1237.0350;-52.3900;-48.0800;-4.3100
1237.2350;-52.4200;-47.9900;-4.4300
1237.4340;-52.4200;-47.9000;-4.5200
1237.6330;-52.4000;-47.8100;-4.5900
1237.8320;-52.4000;-47.7400;-4.6600
1238.0310;-52.3700;-47.6600;-4.7100
1238.2300;-52.3400;-47.5700;-4.7700
1238.4290;-52.2600;-47.5000;-4.7600
1238.6280;-52.2000;-47.4200;-4.7800
1238.8270;-52.1100;-47.3400;-4.7700
1239.0270;-52.0100;-47.2700;-4.7400
1239.2260;-51.9000;-47.1800;-4.7200
1239.4250;-51.7600;-47.1100;-4.6500
1239.6240;-51.6600;-47.0300;-4.6300
1239.8230;-51.5200;-46.9400;-4.5800
1240.0220;-51.3900;-46.8700;-4.5200
1240.2210;-51.2800;-46.7700;-4.5100
1240.4200;-51.1600;-46.6900;-4.4700
1240.6200;-51.0600;-46.5900;-4.4700
1240.8190;-50.9500;-46.4900;-4.4600
1241.0180;-50.8500;-46.3800;-4.4700
1241.2170;-50.7900;-46.2700;-4.5200
1241.4160;-50.7000;-46.1700;-4.5300
1241.6150;-50.6300;-46.0300;-4.6000
1241.8140;-50.5800;-45.9100;-4.6700
1242.0130;-50.5200;-45.8000;-4.7200
1242.2120;-50.4800;-45.6900;-4.7900
1242.4120;-50.4200;-45.5600;-4.8600
1242.6110;-50.3700;-45.4200;-4.9500
1242.8100;-50.2900;-45.3100;-4.9800
1243.0090;-50.2000;-45.1700;-5.0300
1243.2080;-50.1500;-45.0500;-5.1000
1243.4070;-50.0600;-44.9200;-5.1400
1243.6060;-49.9600;-44.7900;-5.1700
1243.8050;-49.8600;-44.6800;-5.1800
1244.0040;-49.7700;-44.5400;-5.2300
1244.2040;-49.6900;-44.4100;-5.2800
1244.4030;-49.5800;-44.2900;-5.2900
1244.6020;-49.5000;-44.1600;-5.3400
1244.8010;-49.4400;-44.0500;-5.3900
1245.0000;-49.3700;-43.9100;-5.4600
1245.1990;-49.3300;-43.7900;-5.5400
1245.3980;-49.2900;-43.6700;-5.6200
1245.5970;-49.2600;-43.5300;-5.7300
1245.7970;-49.2200;-43.4100;-5.8100
1245.9960;-49.1800;-43.2600;-5.9200
1246.1950;-49.1600;-43.1400;-6.0200
1246.3940;-49.0900;-43.0000;-6.0900
1246.5930;-49.0000;-42.8500;-6.1500
1246.7920;-48.8800;-42.7300;-6.1500
1246.9910;-48.7100;-42.5600;-6.1500
1247.1900;-48.5100;-42.4200;-6.0900
1247.3890;-48.2400;-42.2700;-5.9700
1247.5890;-47.9300;-42.1100;-5.8200
1247.7880;-47.5800;-41.9700;-5.6100
1247.9870;-47.1700;-41.8000;-5.3700
1248.1860;-46.7700;-41.6500;-5.1200
1248.3850;-46.3400;-41.5000;-4.8400
1248.5840;-45.8900;-41.3300;-4.5600
1248.7830;-45.3600;-41.1800;-4.1800
1248.9820;-45.0300;-41.0200;-4.0100
1249.1810;-44.6100;-40.8700;-3.7400
1249.3810;-44.2100;-40.7200;-3.4900
1249.5800;-43.8300;-40.5600;-3.2700
1249.7790;-43.4700;-40.4200;-3.0500
1249.9780;-43.1400;-40.2500;-2.8900
1250.1770;-42.8300;-40.1100;-2.7200
1250.3760;-42.5500;-39.9700;-2.5800
1250.5750;-42.3000;-39.8100;-2.4900
1250.7740;-42.0500;-39.6700;-2.3800
1250.9740;-41.8500;-39.5200;-2.3300
1251.1730;-41.6500;-39.3800;-2.2700
1251.3720;-41.4700;-39.2300;-2.2400
1251.5710;-41.3200;-39.0900;-2.2300
1251.7700;-41.1600;-38.9500;-2.2100
1251.9690;-41.0300;-38.7900;-2.2400
1252.1680;-40.8800;-38.6400;-2.2400
1252.3670;-40.7400;-38.4700;-2.2700
1252.5660;-40.6300;-38.3200;-2.3100
1252.7660;-40.4900;-38.1700;-2.3200
1252.9650;-40.3700;-38.0100;-2.3600
1253.1640;-40.2200;-37.8500;-2.3700
1253.3630;-40.0800;-37.6800;-2.4000
1253.5620;-39.9400;-37.5200;-2.4200
1253.7610;-39.7800;-37.3500;-2.4300
1253.9600;-39.6400;-37.1900;-2.4500
1254.1590;-39.4600;-37.0300;-2.4300
1254.3580;-39.2800;-36.8500;-2.4300
1254.5580;-39.1200;-36.7000;-2.4200
1254.7570;-38.9400;-36.5400;-2.4000
1254.9560;-38.7600;-36.3700;-2.3900
1255.1550;-38.5800;-36.2300;-2.3500
1255.3540;-38.4000;-36.0600;-2.3400
1255.5530;-38.2300;-35.9200;-2.3100
1255.7520;-38.0500;-35.7400;-2.3100
1255.9510;-37.8800;-35.6300;-2.2500
1256.1500;-37.7000;-35.4900;-2.2100
1256.3500;-37.5300;-35.3400;-2.1900
1256.5490;-37.3500;-35.2200;-2.1300
1256.7480;-37.1800;-35.0700;-2.1100
1256.9470;-37.0200;-34.9400;-2.0800
1257.1460;-36.8200;-34.8000;-2.0200
1257.3450;-36.6500;-34.6600;-1.9900
1257.5440;-36.4700;-34.5400;-1.9300
1257.7430;-36.2900;-34.3900;-1.9000
1257.9430;-36.1100;-34.2500;-1.8600
1258.1420;-35.8900;-34.1200;-1.7700
1258.3410;-35.7400;-33.9700;-1.7700
1258.5400;-35.5400;-33.8400;-1.7000
1258.7390;-35.3600;-33.6800;-1.6800
1258.9380;-35.1500;-33.5400;-1.6100
1259.1370;-34.9600;-33.3900;-1.5700
1259.3360;-34.7800;-33.2400;-1.5400
1259.5350;-34.5800;-33.1000;-1.4800
1259.7350;-34.3900;-32.9400;-1.4500
1259.9340;-34.1900;-32.8000;-1.3900
1260.1330;-34.0100;-32.6500;-1.3600
1260.3320;-33.8300;-32.4900;-1.3400
1260.5310;-33.6500;-32.3600;-1.2900
1260.7300;-33.4800;-32.2000;-1.2800
1260.9290;-33.3100;-32.0700;-1.2400
1261.1280;-33.1400;-31.9200;-1.2200
1261.3270;-32.9800;-31.7700;-1.2100
1261.5270;-32.8300;-31.6500;-1.1800
1261.7260;-32.6800;-31.5100;-1.1700
1261.9250;-32.5200;-31.3800;-1.1400
1262.1240;-32.3700;-31.2400;-1.1300
1262.3230;-32.2300;-31.1100;-1.1200
1262.5220;-32.0900;-31.0000;-1.0900
1262.7210;-31.9500;-30.8600;-1.0900
1262.9200;-31.8000;-30.7400;-1.0600
1263.1200;-31.6600;-30.6000;-1.0600
1263.3190;-31.5300;-30.4700;-1.0600
1263.5180;-31.3900;-30.3600;-1.0300
1263.7170;-31.2600;-30.2100;-1.0500
1263.9160;-31.1100;-30.0900;-1.0200
1264.1150;-30.9700;-29.9500;-1.0200
1264.3140;-30.8400;-29.8100;-1.0300
1264.5130;-30.7000;-29.6900;-1.0100
1264.7120;-30.5800;-29.5500;-1.0300
1264.9120;-30.4300;-29.4200;-1.0100
1265.1110;-30.2900;-29.2700;-1.0200
1265.3100;-30.1700;-29.1400;-1.0300
1265.5090;-30.0400;-29.0100;-1.0300
1265.7080;-29.9300;-28.8700;-1.0600
1265.9070;-29.8000;-28.7500;-1.0500
1266.1060;-29.6800;-28.6100;-1.0700
1266.3050;-29.5700;-28.4800;-1.0900
1266.5040;-29.4700;-28.3700;-1.1000
1266.7040;-29.3800;-28.2400;-1.1400
1266.9030;-29.2800;-28.1200;-1.1600
1267.1020;-29.1900;-27.9900;-1.2000
1267.3010;-29.1100;-27.8700;-1.2400
1267.5000;-29.0400;-27.7700;-1.2700
1267.6990;-28.9800;-27.6500;-1.3300
1267.8980;-28.9100;-27.5500;-1.3600
1268.0970;-28.8700;-27.4300;-1.4400
1268.2970;-28.8300;-27.3200;-1.5100
1268.4960;-28.8100;-27.2200;-1.5900
1268.6950;-28.8000;-27.1000;-1.7000
1268.8940;-28.7800;-27.0000;-1.7800
1269.0930;-28.7900;-26.8800;-1.9100
1269.2920;-28.8100;-26.7700;-2.0400
1269.4910;-28.8600;-26.6600;-2.2000
1269.6900;-28.9300;-26.5400;-2.3900
1269.8890;-29.0000;-26.4400;-2.5600
1270.0890;-29.1100;-26.3100;-2.8000
1270.2880;-29.2500;-26.2000;-3.0500
1270.4870;-29.4300;-26.0700;-3.3600
1270.6860;-29.6600;-25.9700;-3.6900
1270.8850;-29.9000;-25.8500;-4.0500
1271.0840;-30.2100;-25.7300;-4.4800
1271.2830;-30.5700;-25.6300;-4.9400
1271.4820;-30.9900;-25.5000;-5.4900
1271.6810;-31.4800;-25.3900;-6.0900
1271.8810;-32.0500;-25.2800;-6.7700
1272.0800;-32.7200;-25.1700;-7.5500
1272.2790;-33.4800;-25.0600;-8.4200
1272.4780;-34.3600;-24.9500;-9.4100
1272.6770;-35.3800;-24.8500;-10.5300
1272.8760;-36.5200;-24.7400;-11.7800
1273.0750;-37.7600;-24.6500;-13.1100
1273.2740;-39.2400;-24.5600;-14.6800
1273.4740;-40.0000;-24.4500;-15.5500
1273.6730;-40.3000;-24.3700;-15.9300
1273.8720;-39.7600;-24.2700;-15.4900
1274.0710;-38.5700;-24.1800;-14.3900
1274.2700;-37.1300;-24.0900;-13.0400
1274.4690;-35.4600;-23.9900;-11.4700
1274.6680;-34.3300;-23.9100;-10.4200
1274.8670;-33.1300;-23.8100;-9.3200
1275.0660;-32.0400;-23.7200;-8.3200
1275.2660;-31.0800;-23.6400;-7.4400
1275.4650;-30.2100;-23.5400;-6.6700
1275.6640;-29.4500;-23.4600;-5.9900
1275.8630;-28.7700;-23.3600;-5.4100
1276.0620;-28.1600;-23.2700;-4.8900
1276.2610;-27.6400;-23.1800;-4.4600
1276.4600;-27.1500;-23.0900;-4.0600
1276.6590;-26.7200;-23.0000;-3.7200
1276.8580;-26.3700;-22.9000;-3.4700
1277.0580;-26.0000;-22.8200;-3.1800
1277.2570;-25.8000;-22.7300;-3.0700
1277.4560;-25.5700;-22.6400;-2.9300
1277.6550;-25.4000;-22.5700;-2.8300
1277.8540;-25.2500;-22.4700;-2.7800
1278.0530;-25.1400;-22.4000;-2.7400
1278.2520;-25.0700;-22.3100;-2.7600
1278.4510;-25.0200;-22.2300;-2.7900
1278.6500;-25.0200;-22.1600;-2.8600
1278.8500;-25.0100;-22.0700;-2.9400
1279.0490;-25.0400;-22.0000;-3.0400
1279.2480;-25.0900;-21.9200;-3.1700
1279.4470;-25.1500;-21.8400;-3.3100
1279.6460;-25.2500;-21.7700;-3.4800
1279.8450;-25.3200;-21.6800;-3.6400
1280.0440;-25.4200;-21.6200;-3.8000
1280.2430;-25.5300;-21.5400;-3.9900
1280.4430;-25.6200;-21.4600;-4.1600
1280.6420;-25.7400;-21.3900;-4.3500
1280.8410;-25.8300;-21.3100;-4.5200
1281.0400;-25.9300;-21.2400;-4.6900
1281.2390;-26.0200;-21.1600;-4.8600
1281.4380;-26.1100;-21.0800;-5.0300
1281.6370;-26.2100;-21.0100;-5.2000
1281.8360;-26.2900;-20.9300;-5.3600
1282.0350;-26.3800;-20.8700;-5.5100
1282.2350;-26.4600;-20.7800;-5.6800
1282.4340;-26.5600;-20.7100;-5.8500
1282.6330;-26.6900;-20.6500;-6.0400
1282.8320;-26.8200;-20.5800;-6.2400
1283.0310;-26.9700;-20.5200;-6.4500
1283.2300;-27.1200;-20.4500;-6.6700
1283.4290;-27.3100;-20.3900;-6.9200
1283.6280;-27.5300;-20.3200;-7.2100
1283.8270;-27.7600;-20.2600;-7.5000
1284.0270;-28.0400;-20.2100;-7.8300
1284.2260;-28.4100;-20.1400;-8.2700
1284.4250;-28.7000;-20.0900;-8.6100
1284.6240;-29.0600;-20.0300;-9.0300
1284.8230;-29.4600;-19.9700;-9.4900
1285.0220;-29.8900;-19.9300;-9.9600
1285.2210;-30.3400;-19.8600;-10.4800
1285.4200;-30.8000;-19.8100;-10.9900
1285.6200;-31.2300;-19.7500;-11.4800
1285.8190;-31.6300;-19.6900;-11.9400
1286.0180;-31.9400;-19.6500;-12.2900
1286.2170;-32.1400;-19.5800;-12.5600
1286.4160;-32.2100;-19.5400;-12.6700
1286.6150;-32.1100;-19.4900;-12.6200
1286.8140;-31.8300;-19.4300;-12.4000
1287.0130;-31.3800;-19.3900;-11.9900
1287.2120;-30.8300;-19.3300;-11.5000
1287.4120;-30.2000;-19.2900;-10.9100
1287.6110;-29.5200;-19.2300;-10.2900
1287.8100;-28.8400;-19.1800;-9.6600
1288.0090;-28.1500;-19.1400;-9.0100
1288.2080;-27.4800;-19.0800;-8.4000
1288.4070;-26.8400;-19.0500;-7.7900
1288.6060;-26.2200;-19.0000;-7.2200
1288.8050;-25.5400;-18.9600;-6.5800
1289.0040;-25.0700;-18.9200;-6.1500
1289.2040;-24.5500;-18.8700;-5.6800
1289.4030;-24.0400;-18.8500;-5.1900
1289.6020;-23.5700;-18.8000;-4.7700
1289.8010;-23.1300;-18.7600;-4.3700
1290.0000;-22.7100;-18.7200;-3.9900
1290.1990;-22.3300;-18.6800;-3.6500
1290.3980;-21.9500;-18.6600;-3.2900
1290.5970;-21.6000;-18.6200;-2.9800
1290.7970;-21.2800;-18.5900;-2.6900
1290.9960;-20.9700;-18.5300;-2.4400
1291.1950;-20.7000;-18.5000;-2.2000
1291.3940;-20.4300;-18.4700;-1.9600
1291.5930;-20.1900;-18.4100;-1.7800
1291.7920;-19.9800;-18.3900;-1.5900
1291.9910;-19.7900;-18.3400;-1.4500
1292.1900;-19.6300;-18.3100;-1.3200
1292.3890;-19.4700;-18.2700;-1.2000
1292.5890;-19.3500;-18.2200;-1.1300
1292.7880;-19.2400;-18.2000;-1.0400
1292.9870;-19.1500;-18.1500;-1.0000
1293.1860;-19.1000;-18.1300;-0.9700
1293.3850;-19.0600;-18.0900;-0.9700
1293.5840;-19.0400;-18.0500;-0.9900
1293.7830;-19.0300;-18.0200;-1.0100
1293.9820;-19.0600;-17.9900;-1.0700
1294.1810;-19.1100;-17.9700;-1.1400
1294.3810;-19.1800;-17.9300;-1.2500
1294.5800;-19.2800;-17.8900;-1.3900
1294.7790;-19.3900;-17.8700;-1.5200
1294.9780;-19.5400;-17.8400;-1.7000
1295.1770;-19.7100;-17.8200;-1.8900
1295.3760;-19.9100;-17.7900;-2.1200
1295.5750;-20.1300;-17.7600;-2.3700
1295.7740;-20.3800;-17.7300;-2.6500
1295.9740;-20.6600;-17.6900;-2.9700
1296.1730;-20.9700;-17.6800;-3.2900
1296.3720;-21.3200;-17.6500;-3.6700
1296.5710;-21.7100;-17.6300;-4.0800
1296.7700;-22.1300;-17.6000;-4.5300
1296.9690;-22.6000;-17.5800;-5.0200
1297.1680;-23.1100;-17.5700;-5.5400
1297.3670;-23.6700;-17.5500;-6.1200
1297.5660;-24.3000;-17.5300;-6.7700
1297.7660;-24.9700;-17.5100;-7.4600
1297.9650;-25.7300;-17.4900;-8.2400
1298.1640;-26.5600;-17.4800;-9.0800
1298.3630;-27.4900;-17.4700;-10.0200
1298.5620;-28.7300;-17.4600;-11.2700
1298.7610;-29.6500;-17.4400;-12.2100
1298.9600;-30.8600;-17.4400;-13.4200
1299.1590;-32.1000;-17.4300;-14.6700
1299.3580;-33.2800;-17.4200;-15.8600
1299.5580;-34.1000;-17.4200;-16.6800
1299.7570;-34.3300;-17.4100;-16.9200
1299.9560;-33.8600;-17.4100;-16.4500
1300.1550;-32.8900;-17.4000;-15.4900
1300.3540;-31.7100;-17.4000;-14.3100
1300.5530;-30.4600;-17.4000;-13.0600
1300.7520;-29.3100;-17.3900;-11.9200
1300.9510;-28.2400;-17.4000;-10.8400
1301.1500;-27.2900;-17.4000;-9.8900
1301.3500;-26.4300;-17.4000;-9.0300
1301.5490;-25.5100;-17.4100;-8.1000
1301.7480;-24.9500;-17.4100;-7.5400
1301.9470;-24.3000;-17.4200;-6.8800
1302.1460;-23.7400;-17.4200;-6.3200
1302.3450;-23.2100;-17.4300;-5.7800
1302.5440;-22.7400;-17.4300;-5.3100
1302.7430;-22.3300;-17.4300;-4.9000
1302.9430;-21.9300;-17.4400;-4.4900
1303.1420;-21.5900;-17.4400;-4.1500
1303.3410;-21.2700;-17.4600;-3.8100
1303.5400;-20.9900;-17.4600;-3.5300
1303.7390;-20.7500;-17.4600;-3.2900
1303.9380;-20.5200;-17.4700;-3.0500
1304.1370;-20.3400;-17.4800;-2.8600
1304.3360;-20.1600;-17.5000;-2.6600
1304.5350;-20.0300;-17.5000;-2.5300
1304.7350;-19.9200;-17.5100;-2.4100
1304.9340;-19.8200;-17.5200;-2.3000
1305.1330;-19.7700;-17.5300;-2.2400
1305.3320;-19.7100;-17.5500;-2.1600
1305.5310;-19.7000;-17.5600;-2.1400
1305.7300;-19.7100;-17.5800;-2.1300
1305.9290;-19.7300;-17.5800;-2.1500
1306.1280;-19.8000;-17.6000;-2.2000
1306.3270;-19.8600;-17.6100;-2.2500
1306.5270;-19.9700;-17.6300;-2.3400
1306.7260;-20.0900;-17.6500;-2.4400
1306.9250;-20.2300;-17.6500;-2.5800
1307.1240;-20.4200;-17.6800;-2.7400
1307.3230;-20.6000;-17.6900;-2.9100
1307.5220;-20.8400;-17.7100;-3.1300
1307.7210;-21.0900;-17.7400;-3.3500
1307.9200;-21.3700;-17.7500;-3.6200
1308.1200;-21.7100;-17.7900;-3.9200
1308.3190;-22.0600;-17.8000;-4.2600
1308.5180;-22.4600;-17.8400;-4.6200
1308.7170;-22.8900;-17.8800;-5.0100
1308.9160;-23.3500;-17.8900;-5.4600
1309.1150;-23.8900;-17.9400;-5.9500
1309.3140;-24.4500;-17.9600;-6.4900
1309.5130;-25.1000;-18.0100;-7.0900
1309.7120;-25.7700;-18.0500;-7.7200
1309.9120;-26.5200;-18.0700;-8.4500
1310.1110;-27.3600;-18.1300;-9.2300
1310.3100;-28.2600;-18.1600;-10.1000
1310.5090;-29.5000;-18.2100;-11.2900
1310.7080;-30.4300;-18.2500;-12.1800
1310.9070;-31.6400;-18.2900;-13.3500
1311.1060;-32.9500;-18.3500;-14.6000
1311.3050;-34.2500;-18.3800;-15.8700
1311.5040;-35.3900;-18.4500;-16.9400
1311.7040;-36.0500;-18.4800;-17.5700
1311.9030;-36.0500;-18.5300;-17.5200
1312.1020;-35.3700;-18.5800;-16.7900
1312.3010;-34.3400;-18.6300;-15.7100
1312.5000;-33.1800;-18.7000;-14.4800
1312.6990;-32.0500;-18.7400;-13.3100
1312.8980;-31.0100;-18.8000;-12.2100
1313.0970;-30.0600;-18.8500;-11.2100
1313.2970;-29.2300;-18.9000;-10.3300
1313.4960;-28.4900;-18.9800;-9.5100
1313.6950;-27.8200;-19.0300;-8.7900
1313.8940;-27.2400;-19.0900;-8.1500
1314.0930;-26.7300;-19.1400;-7.5900
1314.2920;-26.2100;-19.2000;-7.0100
1314.4910;-25.8800;-19.2700;-6.6100
1314.6900;-25.5400;-19.3200;-6.2200
1314.8890;-25.2300;-19.3800;-5.8500
1315.0890;-24.9600;-19.4300;-5.5300
1315.2880;-24.7400;-19.5000;-5.2400
1315.4870;-24.5500;-19.5500;-5.0000
1315.6860;-24.4000;-19.6100;-4.7900
1315.8850;-24.2600;-19.6700;-4.5900
1316.0840;-24.1700;-19.7300;-4.4400
1316.2830;-24.1000;-19.8000;-4.3000
1316.4820;-24.0600;-19.8500;-4.2100
1316.6810;-24.0500;-19.9200;-4.1300
1316.8810;-24.0500;-19.9800;-4.0700
1317.0800;-24.0900;-20.0500;-4.0400
1317.2790;-24.1300;-20.1200;-4.0100
1317.4780;-24.2100;-20.1900;-4.0200
1317.6770;-24.3100;-20.2600;-4.0500
1317.8760;-24.4100;-20.3200;-4.0900
1318.0750;-24.5300;-20.3900;-4.1400
1318.2740;-24.6700;-20.4600;-4.2100
1318.4740;-24.8200;-20.5300;-4.2900
1318.6730;-25.0100;-20.6200;-4.3900
1318.8720;-25.1800;-20.6800;-4.5000
1319.0710;-25.4000;-20.7800;-4.6200
1319.2700;-25.5900;-20.8500;-4.7400
1319.4690;-25.7900;-20.9300;-4.8600
1319.6680;-26.0200;-21.0200;-5.0000
1319.8670;-26.2300;-21.1000;-5.1300
1320.0660;-26.4600;-21.2000;-5.2600
1320.2660;-26.6600;-21.2800;-5.3800
1320.4650;-26.8700;-21.3700;-5.5000
1320.6640;-27.0700;-21.4700;-5.6000
1320.8630;-27.2400;-21.5600;-5.6800
1321.0620;-27.4200;-21.6600;-5.7600
1321.2610;-27.5700;-21.7500;-5.8200
1321.4600;-27.7000;-21.8600;-5.8400
1321.6590;-27.7900;-21.9500;-5.8400
1321.8580;-27.8700;-22.0500;-5.8200
1322.0580;-27.9400;-22.1600;-5.7800
1322.2570;-27.9600;-22.2600;-5.7000
1322.4560;-27.9900;-22.3700;-5.6200
1322.6550;-27.9700;-22.4700;-5.5000
1322.8540;-27.9500;-22.5900;-5.3600
1323.0530;-27.9200;-22.6900;-5.2300
1323.2520;-27.8700;-22.8100;-5.0600
1323.4510;-27.8300;-22.9200;-4.9100
1323.6500;-27.7600;-23.0300;-4.7300
1323.8500;-27.7000;-23.1600;-4.5400
1324.0490;-27.6400;-23.2700;-4.3700
1324.2480;-27.5700;-23.4000;-4.1700
1324.4470;-27.5400;-23.5100;-4.0300
1324.6460;-27.4800;-23.6300;-3.8500
1324.8450;-27.4400;-23.7600;-3.6800
1325.0440;-27.3900;-23.8700;-3.5200
1325.2430;-27.3700;-24.0100;-3.3600
1325.4430;-27.3600;-24.1200;-3.2400
1325.6420;-27.3600;-24.2600;-3.1000
1325.8410;-27.3700;-24.3900;-2.9800
1326.0400;-27.3600;-24.5200;-2.8400
1326.2390;-27.3800;-24.6500;-2.7300
1326.4380;-27.4200;-24.7800;-2.6400
1326.6370;-27.4600;-24.9100;-2.5500
1326.8360;-27.5200;-25.0400;-2.4800
1327.0350;-27.5700;-25.1800;-2.3900
1327.2350;-27.6500;-25.3200;-2.3300
1327.4340;-27.7200;-25.4500;-2.2700
1327.6330;-27.8000;-25.6000;-2.2000
1327.8320;-27.9100;-25.7200;-2.1900
1328.0310;-28.0100;-25.8700;-2.1400
1328.2300;-28.1400;-26.0100;-2.1300
1328.4290;-28.2500;-26.1500;-2.1000
1328.6280;-28.3900;-26.3000;-2.0900
1328.8270;-28.5700;-26.4400;-2.1300
1329.0270;-28.7100;-26.6000;-2.1100
1329.2260;-28.8700;-26.7300;-2.1400
1329.4250;-29.0500;-26.8900;-2.1600
1329.6240;-29.2500;-27.0300;-2.2200
1329.8230;-29.4400;-27.1700;-2.2700
1330.0220;-29.6700;-27.3300;-2.3400
1330.2210;-29.8900;-27.4700;-2.4200
1330.4200;-30.1400;-27.6300;-2.5100
1330.6200;-30.4200;-27.7700;-2.6500
1330.8190;-30.7000;-27.9200;-2.7800
1331.0180;-31.0200;-28.0700;-2.9500
1331.2170;-31.3500;-28.2300;-3.1200
1331.4160;-31.7100;-28.3900;-3.3200
1331.6150;-32.0900;-28.5700;-3.5200
1331.8140;-32.5000;-28.7100;-3.7900
1332.0130;-32.9500;-28.8500;-4.1000
1332.2120;-33.4200;-29.0200;-4.4000
1332.4120;-33.9400;-29.1700;-4.7700
1332.6110;-34.5100;-29.3400;-5.1700
1332.8100;-35.1100;-29.5000;-5.6100
1333.0090;-35.7800;-29.6600;-6.1200
1333.2080;-36.4900;-29.8300;-6.6600
1333.4070;-37.2700;-29.9800;-7.2900
1333.6060;-38.1200;-30.1500;-7.9700
1333.8050;-39.2800;-30.3100;-8.9700
1334.0040;-40.1400;-30.4700;-9.6700
1334.2040;-41.2900;-30.6500;-10.6400
1334.4030;-42.5900;-30.8100;-11.7800
1334.6020;-44.0100;-30.9800;-13.0300
1334.8010;-45.5600;-31.1500;-14.4100
1335.0000;-47.1500;-31.3200;-15.8300
1335.1990;-48.8500;-31.4900;-17.3600
1335.3980;-49.4100;-31.6600;-17.7500
1335.5970;-49.3200;-31.8500;-17.4700
1335.7970;-48.4700;-32.0200;-16.4500
1335.9960;-47.2800;-32.2100;-15.0700
1336.1950;-45.8200;-32.3800;-13.4400
1336.3940;-44.8800;-32.5600;-12.3200
1336.5930;-43.8800;-32.7400;-11.1400
1336.7920;-43.0000;-32.9100;-10.0900
1336.9910;-42.2700;-33.1000;-9.1700
1337.1900;-41.6200;-33.2800;-8.3400
1337.3890;-41.0900;-33.4700;-7.6200
1337.5890;-40.6400;-33.6500;-6.9900
1337.7880;-40.2700;-33.8300;-6.4400
1337.9870;-39.9800;-34.0300;-5.9500
1338.1860;-39.7300;-34.2000;-5.5300
1338.3850;-39.5500;-34.3900;-5.1600
1338.5840;-39.4200;-34.5700;-4.8500
1338.7830;-39.3400;-34.7500;-4.5900
1338.9820;-39.3100;-34.9500;-4.3600
1339.1810;-39.3200;-35.1300;-4.1900
1339.3810;-39.3900;-35.3200;-4.0700
1339.5800;-39.4600;-35.4900;-3.9700
1339.7790;-39.6000;-35.6800;-3.9200
1339.9780;-39.7600;-35.8700;-3.8900
1340.1770;-39.9500;-36.0500;-3.9000
1340.3760;-40.1800;-36.2600;-3.9200
1340.5750;-40.4300;-36.4400;-3.9900
1340.7740;-40.7000;-36.6300;-4.0700
1340.9740;-40.9800;-36.8100;-4.1700
1341.1730;-41.2800;-36.9900;-4.2900
1341.3720;-41.6100;-37.1800;-4.4300
1341.5710;-41.9300;-37.3700;-4.5600
1341.7700;-42.2700;-37.5600;-4.7100
1341.9690;-42.5900;-37.7300;-4.8600
1342.1680;-42.9200;-37.9300;-4.9900
1342.3670;-43.2300;-38.1100;-5.1200
1342.5660;-43.5300;-38.2900;-5.2400
1342.7660;-43.8200;-38.5300;-5.2900
1342.9650;-44.0700;-38.6900;-5.3800
1343.1640;-44.3100;-38.8900;-5.4200
1343.3630;-44.5100;-39.0700;-5.4400
1343.5620;-44.6800;-39.2600;-5.4200
1343.7610;-44.8500;-39.4500;-5.4000
1343.9600;-44.9800;-39.6500;-5.3300
1344.1590;-45.1000;-39.8600;-5.2400
1344.3580;-45.1800;-40.0500;-5.1300
1344.5580;-45.2700;-40.2500;-5.0200
1344.7570;-45.3300;-40.4400;-4.8900
1344.9560;-45.3700;-40.6300;-4.7400
1345.1550;-45.4200;-40.8200;-4.6000
1345.3540;-45.4500;-41.0000;-4.4500
1345.5530;-45.5000;-41.2000;-4.3000
1345.7520;-45.5400;-41.3800;-4.1600
1345.9510;-45.5900;-41.5800;-4.0100
1346.1500;-45.6400;-41.7800;-3.8600
1346.3500;-45.7000;-41.9700;-3.7300
1346.5490;-45.7900;-42.1900;-3.6000
1346.7480;-45.8400;-42.3700;-3.4700
1346.9470;-45.9000;-42.5600;-3.3400
1347.1460;-45.9800;-42.7500;-3.2300
1347.3450;-46.0500;-42.9200;-3.1300
1347.5440;-46.1900;-43.1600;-3.0300
1347.7430;-46.3300;-43.3900;-2.9400
1347.9430;-46.4600;-43.6200;-2.8400
1348.1420;-46.5700;-43.8000;-2.7700
1348.3410;-46.7000;-44.0000;-2.7000
1348.5400;-46.7900;-44.1600;-2.6300
1348.7390;-46.9000;-44.3400;-2.5600
1348.9380;-47.0300;-44.5200;-2.5100
1349.1370;-47.1500;-44.6800;-2.4700
1349.3360;-47.2600;-44.8500;-2.4100
1349.5350;-47.4100;-45.0200;-2.3900
1349.7350;-47.5300;-45.1900;-2.3400
1349.9340;-47.7000;-45.3800;-2.3200
1350.1330;-47.8700;-45.5800;-2.2900
1350.3320;-48.0900;-45.8400;-2.2500
1350.5310;-48.2900;-46.0500;-2.2400
1350.7300;-48.4900;-46.2300;-2.2600
1350.9290;-48.6000;-46.4000;-2.2000
1351.1280;-48.7100;-46.5200;-2.1900
1351.3270;-48.8700;-46.7000;-2.1700
1351.5270;-49.0400;-46.8700;-2.1700
1351.7260;-49.2700;-47.1200;-2.1500
1351.9250;-49.4400;-47.3100;-2.1300
1352.1240;-49.6100;-47.4900;-2.1200
1352.3230;-49.7900;-47.6800;-2.1100
1352.5220;-49.9900;-47.8800;-2.1100
1352.7210;-50.1500;-48.0500;-2.1000
1352.9200;-50.3100;-48.2000;-2.1100
1353.1200;-50.5800;-48.5500;-2.0300
1353.3190;-50.7000;-48.5900;-2.1100
1353.5180;-50.8800;-48.7700;-2.1100
1353.7170;-51.1000;-48.9500;-2.1500
1353.9160;-51.2200;-49.0600;-2.1600
1354.1150;-51.4200;-49.2200;-2.2000
1354.3140;-51.6800;-49.4500;-2.2300
1354.5130;-51.9200;-49.6500;-2.2700
1354.7120;-52.2800;-49.9600;-2.3200
1354.9120;-52.6300;-50.2500;-2.3800
1355.1110;-52.8900;-50.4400;-2.4500
1355.3100;-53.1000;-50.5700;-2.5300
1355.5090;-53.1900;-50.5900;-2.6000
1355.7080;-53.5200;-50.8500;-2.6700
1355.9070;-53.8900;-51.1300;-2.7600
1356.1060;-54.1600;-51.3000;-2.8600
1356.3050;-54.3500;-51.3900;-2.9600
1356.5040;-54.5800;-51.5200;-3.0600
1356.7040;-54.5900;-51.4300;-3.1600
1356.9030;-54.8400;-51.6000;-3.2400
1357.1020;-55.2900;-51.9700;-3.3200
1357.3010;-55.6200;-52.2100;-3.4100
1357.5000;-55.9200;-52.4000;-3.5200
1357.6990;-56.1900;-52.5900;-3.6000
1357.8980;-56.3200;-52.6600;-3.6600
1358.0970;-56.4400;-52.7300;-3.7100
1358.2970;-56.6800;-52.9200;-3.7600
1358.4960;-56.9600;-53.1500;-3.8100
1358.6950;-57.1200;-53.3000;-3.8200
1358.8940;-57.3000;-53.4700;-3.8300
1359.0930;-57.4700;-53.6300;-3.8400
1359.2920;-57.5100;-53.6900;-3.8200
1359.4910;-57.8600;-54.0700;-3.7900
1359.6900;-58.1300;-54.3800;-3.7500
1359.8890;-58.3100;-54.5800;-3.7300
1360.0890;-58.3200;-54.6600;-3.6600
1360.2880;-58.3200;-54.7100;-3.6100
1360.4870;-58.2400;-54.7000;-3.5400
1360.6860;-58.3500;-54.8900;-3.4600
1360.8850;-58.7000;-55.2300;-3.4700
1361.0840;-58.8800;-55.5400;-3.3400
1361.2830;-58.9700;-55.7200;-3.2500
1361.4820;-59.0600;-55.9000;-3.1600
1361.6810;-59.2200;-56.1400;-3.0800
1361.8810;-59.2800;-56.2800;-3.0000
1362.0800;-59.4600;-56.5200;-2.9400
1362.2790;-59.8300;-56.9500;-2.8800
1362.4780;-60.0100;-57.1900;-2.8200
1362.6770;-60.0800;-57.3600;-2.7200
1362.8760;-59.9200;-57.2600;-2.6600
1363.0750;-59.8400;-57.2300;-2.6100
1363.2740;-59.5400;-57.0100;-2.5300
1363.4740;-59.5900;-57.1000;-2.4900
1363.6730;-59.6300;-57.2000;-2.4300
1363.8720;-59.7300;-57.3700;-2.3600
1364.0710;-59.9400;-57.6000;-2.3400
1364.2700;-60.1000;-57.8100;-2.2900
1364.4690;-60.4000;-58.1500;-2.2500
1364.6680;-60.8900;-58.7300;-2.1600
1364.8670;-61.1100;-58.9500;-2.1600
1365.0660;-61.0500;-58.9300;-2.1200
1365.2660;-61.2300;-59.1400;-2.0900
1365.4650;-61.1700;-59.0900;-2.0800
1365.6640;-61.2200;-59.1700;-2.0500
1365.8630;-61.2500;-59.2500;-2.0000
1366.0620;-61.2600;-59.2700;-1.9900
1366.2610;-61.2700;-59.3000;-1.9700
1366.4600;-61.3400;-59.3800;-1.9600
1366.6590;-61.5100;-59.5700;-1.9400
1366.8580;-61.7300;-59.8400;-1.8900
1367.0580;-61.8900;-59.9800;-1.9100
1367.2570;-62.0100;-60.1200;-1.8900
1367.4560;-62.2900;-60.4100;-1.8800
1367.6550;-62.4600;-60.6300;-1.8300
1367.8540;-62.7600;-60.9300;-1.8300
1368.0530;-62.9100;-61.0900;-1.8200
1368.2520;-62.9000;-61.0900;-1.8100
1368.4510;-63.2500;-61.4300;-1.8200
1368.6500;-63.3500;-61.5800;-1.7700
1368.8500;-63.5100;-61.7000;-1.8100
1369.0490;-63.5100;-61.7400;-1.7700
1369.2480;-63.5200;-61.7400;-1.7800
1369.4470;-63.4900;-61.6700;-1.8200
1369.6460;-63.6300;-61.8400;-1.7900
1369.8450;-63.9800;-62.2100;-1.7700
1370.0440;-64.2400;-62.4200;-1.8200
1370.2430;-64.4400;-62.6000;-1.8400
1370.4430;-64.5600;-62.6800;-1.8800
1370.6420;-64.7000;-62.7500;-1.9500
1370.8410;-65.1000;-63.1200;-1.9800
1371.0400;-65.4800;-63.4200;-2.0600
1371.2390;-65.7300;-63.6400;-2.0900
1371.4380;-65.9400;-63.7700;-2.1700
1371.6370;-66.0700;-63.7600;-2.3100
1371.8360;-66.2300;-63.7400;-2.4900
1372.0350;-66.5900;-63.9900;-2.6000
1372.2350;-66.9500;-64.2600;-2.6900
1372.4340;-67.2800;-64.4200;-2.8600
1372.6330;-67.6100;-64.5300;-3.0800
1372.8320;-68.0200;-64.6600;-3.3600
1373.0310;-68.2100;-64.7000;-3.5100
1373.2300;-68.5700;-64.9000;-3.6700
1373.4290;-69.0500;-65.1500;-3.9000
1373.6280;-69.5900;-65.3400;-4.2500
1373.8270;-70.1200;-65.5100;-4.6100
1374.0270;-70.5500;-65.6200;-4.9300
1374.2260;-70.9600;-65.8200;-5.1400
1374.4250;-71.8700;-66.0600;-5.8100
1374.6240;-72.4200;-66.2300;-6.1900
1374.8230;-73.1100;-66.5400;-6.5700
1375.0220;-73.7300;-66.6900;-7.0400
1375.2210;-74.8700;-66.8700;-8.0000
1375.4200;-75.6800;-67.0300;-8.6500
1375.6200;-76.2100;-67.2300;-8.9800
1375.8190;-77.0400;-67.3400;-9.7000
1376.0180;-76.7000;-67.5500;-9.1500
1376.2170;-78.2100;-67.7200;-10.4900
1376.4160;-79.9300;-68.0100;-11.9200
1376.6150;-78.3500;-68.2900;-10.0600
1376.8140;-78.7300;-68.4400;-10.2900
1377.0130;-78.3500;-68.7600;-9.5900
1377.2120;-78.6700;-69.0800;-9.5900
1377.4120;-78.6700;-69.1500;-9.5200
1377.6110;-78.6700;-69.2500;-9.4200
1377.8100;-77.7800;-69.2800;-8.5000
1378.0090;-76.6800;-69.4300;-7.2500
1378.2080;-77.3300;-69.6300;-7.7000
1378.4070;-76.3700;-69.8500;-6.5200
1378.6060;-76.1900;-70.2800;-5.9100
1378.8050;-76.3000;-70.5400;-5.7600
1379.0040;-75.3900;-70.5900;-4.8000
1379.2040;-75.5000;-70.8700;-4.6300
1379.4030;-75.1100;-71.0200;-4.0900
1379.6020;-74.6900;-70.7300;-3.9600
1379.8010;-74.0800;-71.0400;-3.0400
1380.0000;-74.5500;-71.3100;-3.2400
1380.1990;-74.2100;-71.4500;-2.7600
1380.3980;-74.5300;-71.7300;-2.8000
1380.5970;-74.8900;-72.3200;-2.5700
1380.7970;-75.0700;-72.8500;-2.2200
1380.9960;-75.6900;-72.8900;-2.8000
1381.1950;-75.6500;-72.9500;-2.7000
1381.3940;-74.9300;-72.7500;-2.1800
1381.5930;-74.9500;-72.4600;-2.4900
1381.7920;-74.8600;-72.6100;-2.2500
1381.9910;-74.7600;-72.7200;-2.0400
1382.1900;-75.0800;-72.7500;-2.3300
1382.3890;-75.6600;-73.4100;-2.2500
1382.5890;-76.5500;-73.4600;-3.0900
1382.7880;-77.7800;-74.4200;-3.3600
1382.9870;-77.6300;-74.7300;-2.9000
1383.1860;-78.7300;-74.9500;-3.7800
1383.3850;-78.0900;-74.2800;-3.8100
1383.5840;-77.7200;-74.1500;-3.5700
1383.7830;-78.7900;-73.7600;-5.0300
1383.9820;-78.6500;-74.1100;-4.5400
1384.1810;-78.3700;-74.2600;-4.1100
1384.3810;-80.1800;-74.3000;-5.8800
1384.5800;-80.0700;-74.0300;-6.0400
1384.7790;-80.1100;-74.1000;-6.0100
1384.9780;-81.4700;-74.8900;-6.5800
1385.1770;-82.5000;-74.7000;-7.8000
1385.3760;-82.3600;-75.1300;-7.2300
1385.5750;-81.9300;-75.0800;-6.8500
1385.7740;-82.1700;-75.3000;-6.8700
1385.9740;-81.5800;-75.3000;-6.2800
1386.1730;-82.7100;-75.3000;-7.4100
1386.3720;-81.5300;-74.9700;-6.5600
1386.5710;-82.4300;-75.3200;-7.1100
1386.7700;-81.9300;-75.0900;-6.8400
1386.9690;-84.2200;-75.1400;-9.0800
1387.1680;-80.2300;-75.7600;-4.4700
1387.3670;-79.5900;-75.5900;-4.0000
1387.5660;-80.7400;-76.0100;-4.7300
1387.7660;-82.1100;-75.9100;-6.2000
1387.9650;-82.5000;-76.4800;-6.0200
1388.1640;-84.4300;-76.9800;-7.4500
1388.3630;-82.5000;-76.8100;-5.6900
1388.5620;-81.1100;-76.5500;-4.5600
1388.7610;-82.1100;-77.0200;-5.0900
1388.9600;-80.5600;-76.8100;-3.7500
1389.1590;-81.6900;-76.3100;-5.3800
1389.3580;-81.7500;-76.5800;-5.1700
1389.5580;-81.3700;-76.6900;-4.6800
1389.7570;-82.1700;-77.7000;-4.4700
1389.9560;-81.0200;-77.7000;-3.3200
1390.1550;-82.7800;-76.6900;-6.0900
1390.3540;-83.9300;-76.5600;-7.3700
1390.5530;-80.2700;-76.6500;-3.6200
1390.7520;-82.3600;-76.8900;-5.4700
1390.9510;-80.6000;-76.6500;-3.9500
1391.1500;-81.9900;-78.2300;-3.7600
1391.3500;-81.9900;-76.9400;-5.0500
1391.5490;-81.8200;-77.5600;-4.2600
1391.7480;-84.8900;-77.1100;-7.7800
1391.9470;-81.7000;-77.0300;-4.6700
1392.1460;-84.2300;-77.1800;-7.0500
1392.3450;-87.1500;-77.4700;-9.6800
1392.5440;-82.5100;-78.4200;-4.0900
1392.7430;-88.2600;-79.2700;-8.9900
1392.9430;-84.5500;-78.4700;-6.0800
1393.1420;-86.4200;-77.7100;-8.7100
1393.3410;-83.3300;-77.8300;-5.5000
1393.5400;-91.0300;-77.7400;-13.2900
1393.7390;-84.0400;-77.4900;-6.5500
1393.9380;-81.7000;-78.6400;-3.0600
1394.1370;-80.9800;-78.6700;-2.3100
1394.3360;-82.7900;-78.6900;-4.1000
1394.5350;-82.1200;-78.3200;-3.8000
1394.7350;-82.4400;-77.3900;-5.0500
1394.9340;-81.6500;-78.1600;-3.4900
1395.1330;-81.0800;-78.2600;-2.8200
1395.3320;-81.6500;-78.8400;-2.8100
1395.5310;-89.1100;-79.2300;-9.8800
1395.7300;-81.8200;-78.9900;-2.8300
1395.9290;-82.0600;-78.3200;-3.7400
1396.1280;-81.4300;-77.9700;-3.4600
1396.3270;-79.9200;-77.6200;-2.3000
1396.5270;-81.8800;-78.4200;-3.4600
1396.7260;-210.0000;-79.5000;-130.5000
1396.9250;-84.2300;-79.7100;-4.5200
1397.1240;-80.7500;-79.3600;-1.3900
1397.3230;-82.1200;-79.4300;-2.6900
1397.5220;-79.7400;-79.1700;-0.5700
1397.7210;-83.0900;-78.9900;-4.1000
1397.9200;-81.1700;-78.3900;-2.7800
1398.1200;-84.0400;-77.4300;-6.6100
1398.3190;-82.3700;-77.8700;-4.5000
1398.5180;-81.7700;-79.0000;-2.7700
1398.7170;-81.9500;-78.3800;-3.5700
1398.9160;-80.9900;-78.3500;-2.6400
1399.1150;-82.0100;-78.6500;-3.3600
1399.3140;-80.6200;-79.2100;-1.4100
1399.5130;-81.4400;-78.3800;-3.0600
1399.7120;-84.9000;-79.8600;-5.0400
1399.9120;-84.5600;-80.3300;-4.2300
1400.1110;-82.5200;-80.0100;-2.5100
1400.3100;-82.8000;-78.5400;-4.2600
1400.5090;-81.8900;-79.0000;-2.8900
1400.7080;-83.4200;-78.7000;-4.7200
1400.9070;-82.5200;-79.6100;-2.9100
1401.1060;-83.3400;-78.0300;-5.3100
1401.3050;-83.3400;-79.8600;-3.4800
1401.5040;-82.0700;-79.0600;-3.0100
1401.7040;-82.5200;-79.6800;-2.8400
1401.9030;-93.5900;-80.4100;-13.1800
1402.1020;-82.5200;-80.0900;-2.4300
1402.3010;-81.2300;-80.4900;-0.7400
1402.5000;-81.7700;-78.1500;-3.6200
1402.6990;-89.4400;-79.9000;-9.5400
1402.8980;-81.3400;-78.7600;-2.5800
1403.0970;-87.3600;-78.4800;-8.8800
1403.2970;-82.8000;-79.0300;-3.7700
1403.4960;-84.5600;-79.9300;-4.6300
1403.6950;-83.5900;-79.0000;-4.5900
1403.8940;-81.8300;-79.7200;-2.1100
1404.0930;-83.5900;-79.5100;-4.0800
1404.2920;-81.7100;-80.7100;-1.0000
1404.4910;-88.0300;-78.5400;-9.4900
1404.6900;-82.0100;-79.6500;-2.3600
1404.8890;-81.6600;-78.4800;-3.1800
1405.0890;-81.9500;-81.1800;-0.7700
1405.2880;-83.2600;-79.9000;-3.3600
1405.4870;-83.9500;-80.0500;-3.9000
1405.6860;-82.2500;-79.7200;-2.5300
1405.8850;-86.7800;-78.6500;-8.1300
1406.0840;-85.0200;-78.9700;-6.0500
1406.2830;-86.9600;-79.0600;-7.9000
1406.4820;-81.6600;-79.2100;-2.4500
1406.6810;-85.2700;-79.3500;-5.9200
1406.8810;-86.9700;-78.9200;-8.0500
1407.0800;-84.5700;-78.3600;-6.2100
1407.2790;-81.2400;-80.1000;-1.1400
1407.4780;-81.9000;-80.9500;-0.9500
1407.6770;-80.0600;-79.2500;-0.8100
1407.8760;-84.5700;-79.5200;-5.0500
1408.0750;-83.0300;-78.9500;-4.0800
1408.2740;-82.5300;-79.2500;-3.2800
1408.4740;-80.9500;-78.1300;-2.8200
1408.6730;-83.1100;-78.8300;-4.2800
1408.8720;-81.8400;-78.4400;-3.4000
1409.0710;-81.2400;-78.9200;-2.3200
1409.2700;-84.2500;-78.4400;-5.8100
1409.4690;-86.1200;-80.3800;-5.7400
1409.6680;-86.9700;-80.0200;-6.9500
1409.8670;-83.7800;-79.5200;-4.2600
1410.0660;-81.5000;-79.2200;-2.2800
1410.2660;-83.9600;-78.2600;-5.7000
1410.4650;-81.9000;-79.5200;-2.3800
1410.6640;-80.9500;-79.0100;-1.9400
1410.8630;-80.3000;-78.6900;-1.6100
1411.0620;-81.8400;-78.8000;-3.0400
1411.2610;-88.5500;-79.6600;-8.8900
1411.4600;-86.6100;-78.8000;-7.8100
1411.6590;-82.3900;-78.2600;-4.1300
1411.8580;-83.1900;-78.1300;-5.0600
1412.0580;-82.3900;-77.9600;-4.4300
1412.2570;-85.0300;-78.0900;-6.9400
1412.4560;-83.1100;-78.8600;-4.2500
1412.6550;-83.4300;-78.0400;-5.3900
1412.8540;-82.2600;-79.4800;-2.7800
1413.0530;-81.2400;-78.7100;-2.5300
1413.2520;-83.8700;-78.5500;-5.3200
1413.4510;-81.5000;-77.6700;-3.8300
1413.6500;-80.9100;-78.5000;-2.4100
1413.8500;-81.4600;-78.1700;-3.2900
1414.0490;-81.9100;-78.6700;-3.2400
1414.2480;-82.8200;-79.2600;-3.5600
1414.4470;-82.5400;-78.9900;-3.5500
1414.6460;-83.0400;-79.7400;-3.3000
1414.8450;-82.0900;-79.4600;-2.6300
1415.0440;-87.5900;-78.4500;-9.1400
1415.2430;-82.5400;-78.6700;-3.8700
1415.4430;-81.7900;-79.2300;-2.5600
1415.6420;-83.7000;-78.9000;-4.8000
1415.8410;-82.4000;-78.7200;-3.6800
1416.0400;-82.5400;-78.1400;-4.4000
1416.2390;-83.2000;-78.7200;-4.4800
1416.4380;-81.9100;-78.1900;-3.7200
1416.6370;-83.4400;-78.9000;-4.5400
1416.8360;-81.9700;-79.7000;-2.2700
1417.0350;-81.4600;-78.8400;-2.6200
1417.2350;-82.9700;-77.8800;-5.0900
1417.4340;-83.3600;-77.4600;-5.9000
1417.6330;-83.1200;-78.1200;-5.0000
1417.8320;-83.6100;-78.0000;-5.6100
1418.0310;-83.5200;-77.4200;-6.1000
1418.2300;-82.5400;-77.8100;-4.7300
1418.4290;-80.6900;-78.2400;-2.4500
1418.6280;-81.9700;-77.6800;-4.2900
1418.8270;-81.7900;-78.6100;-3.1800
1419.0270;-83.1200;-79.1400;-3.9800
1419.2260;-80.4700;-78.0500;-2.4200
1419.4250;-81.9700;-78.6700;-3.3000
1419.6240;-81.2500;-78.6100;-2.6400
1419.8230;-81.0600;-78.0500;-3.0100
1420.0220;-80.4300;-78.4500;-1.9800
1420.2210;-81.7900;-78.1000;-3.6900
1420.4200;-82.4000;-78.2400;-4.1600
1420.6200;-81.7900;-77.5500;-4.2400
1420.8190;-82.2100;-78.4800;-3.7300
1421.0180;-81.5700;-78.0200;-3.5500
1421.2170;-81.8500;-78.1000;-3.7500
1421.4160;-81.8500;-78.2200;-3.6300
1421.6150;-80.8800;-78.5700;-2.3100
1421.8140;-80.8800;-77.9400;-2.9400
1422.0130;-81.3700;-77.7800;-3.5900
1422.2120;-85.4200;-78.4600;-6.9600
1422.4120;-80.1600;-77.6900;-2.4700
1422.6110;-80.1200;-78.1500;-1.9700
1422.8100;-80.9700;-77.7100;-3.2600
1423.0090;-82.5500;-78.6200;-3.9300
1423.2080;-80.3200;-78.1100;-2.2100
1423.4070;-81.3200;-77.8700;-3.4500
1423.6060;-80.6500;-78.4600;-2.1900
1423.8050;-81.4700;-78.1100;-3.3600
1424.0040;-80.7900;-78.2000;-2.5900
1424.2040;-81.8000;-78.8200;-2.9800
1424.4030;-80.3600;-78.7900;-1.5700
1424.6020;-80.7000;-77.9600;-2.7400
1424.8010;-83.8000;-77.0900;-6.7100
1425.0000;-81.4700;-77.1900;-4.2800
