Wavelength;Intensity_Meas;Intensity_Ref;Difference_dB
1200.0000;-61.4100;-57.3300;-4.0800
1200.1990;-61.3700;-57.3100;-4.0600
1200.3980;-61.3500;-57.2900;-4.0600
1200.5970;-61.3600;-57.2600;-4.1000
1200.7970;-61.3400;-57.2100;-4.1300
1200.9960;-61.3700;-57.2000;-4.1700
1201.1950;-61.3300;-57.1800;-4.1500
1201.3940;-61.3300;-57.1100;-4.2200
1201.5930;-61.3500;-57.0700;-4.2800
1201.7920;-61.3500;-57.0200;-4.3300
1201.9910;-61.3200;-56.9800;-4.3400
1202.1900;-61.3100;-56.9500;-4.3600
1202.3890;-61.3100;-56.8700;-4.4400
1202.5890;-61.3200;-56.8000;-4.5200
1202.7880;-61.2800;-56.7800;-4.5000
1202.9870;-61.2700;-56.7300;-4.5400
1203.1860;-61.2400;-56.6800;-4.5600
1203.3850;-61.2100;-56.6000;-4.6100
1203.5840;-61.1400;-56.5700;-4.5700
1203.7830;-61.0800;-56.5400;-4.5400
1203.9820;-61.0400;-56.4900;-4.5500
1204.1810;-60.9600;-56.4500;-4.5100
1204.3810;-60.9000;-56.3900;-4.5100
1204.5800;-60.8400;-56.3900;-4.4500
1204.7790;-60.7700;-56.3700;-4.4000
1204.9780;-60.7300;-56.3100;-4.4200
1205.1770;-60.6800;-56.2800;-4.4000
1205.3760;-60.5800;-56.2700;-4.3100
1205.5750;-60.5500;-56.2500;-4.3000
1205.7740;-60.5300;-56.2300;-4.3000
1205.9740;-60.4900;-56.2100;-4.2800
1206.1730;-60.4000;-56.2000;-4.2000
1206.3720;-60.3300;-56.1800;-4.1500
1206.5710;-60.3600;-56.1600;-4.2000
1206.7700;-60.3100;-56.1400;-4.1700
1206.9690;-60.2200;-56.1000;-4.1200
1207.1680;-60.1700;-56.1000;-4.0700
1207.3670;-60.1300;-56.0800;-4.0500
1207.5660;-60.1000;-56.0200;-4.0800
1207.7660;-60.0200;-56.0100;-4.0100
1207.9650;-59.9700;-55.9800;-3.9900
1208.1640;-59.9300;-55.9400;-3.9900
1208.3630;-59.9000;-55.8900;-4.0100
1208.5620;-59.8500;-55.8600;-3.9900
1208.7610;-59.7800;-55.8300;-3.9500
1208.9600;-59.7500;-55.7800;-3.9700
1209.1590;-59.7300;-55.7300;-4.0000
1209.3580;-59.6900;-55.6600;-4.0300
1209.5580;-59.6400;-55.6200;-4.0200
1209.7570;-59.6000;-55.6000;-4.0000
1209.9560;-59.6000;-55.5300;-4.0700
1210.1550;-59.5800;-55.4600;-4.1200
1210.3540;-59.5100;-55.4200;-4.0900
1210.5530;-59.4700;-55.3900;-4.0800
1210.7520;-59.4700;-55.3400;-4.1300
1210.9510;-59.4600;-55.2800;-4.1800
1211.1500;-59.4200;-55.2400;-4.1800
1211.3500;-59.3400;-55.2000;-4.1400
1211.5490;-59.3800;-55.1800;-4.2000
1211.7480;-59.3500;-55.1500;-4.2000
1211.9470;-59.2900;-55.0800;-4.2100
1212.1460;-59.2400;-55.0700;-4.1700
1212.3450;-59.2300;-55.0500;-4.1800
1212.5440;-59.2400;-55.0100;-4.2300
1212.7430;-59.2000;-54.9800;-4.2200
1212.9430;-59.1200;-54.9500;-4.1700
1213.1420;-59.1000;-54.9200;-4.1800
1213.3410;-59.0900;-54.8900;-4.2000
1213.5400;-59.0800;-54.8700;-4.2100
1213.7390;-59.0000;-54.8500;-4.1500
1213.9380;-58.9700;-54.8000;-4.1700
1214.1370;-58.9500;-54.7900;-4.1600
1214.3360;-58.9000;-54.7300;-4.1700
1214.5350;-58.8600;-54.7000;-4.1600
1214.7350;-58.7900;-54.6800;-4.1100
1214.9340;-58.7600;-54.6300;-4.1300
1215.1330;-58.7300;-54.5800;-4.1500
1215.3320;-58.6500;-54.5300;-4.1200
1215.5310;-58.5900;-54.4900;-4.1000
1215.7300;-58.5500;-54.4500;-4.1000
1215.9290;-58.5200;-54.3900;-4.1300
1216.1280;-58.4300;-54.3300;-4.1000
1216.3270;-58.3400;-54.2600;-4.0800
1216.5270;-58.3300;-54.2300;-4.1000
1216.7260;-58.2800;-54.1800;-4.1000
1216.9250;-58.2200;-54.1000;-4.1200
1217.1240;-58.1300;-54.0500;-4.0800
1217.3230;-58.0900;-53.9900;-4.1000
1217.5220;-58.0800;-53.9400;-4.1400
1217.7210;-58.0100;-53.9000;-4.1100
1217.9200;-57.9200;-53.8400;-4.0800
1218.1200;-57.8800;-53.8000;-4.0800
1218.3190;-57.8700;-53.7500;-4.1200
1218.5180;-57.8400;-53.7100;-4.1300
1218.7170;-57.7500;-53.6600;-4.0900
1218.9160;-57.7100;-53.6300;-4.0800
1219.1150;-57.6900;-53.6100;-4.0800
1219.3140;-57.6400;-53.5500;-4.0900
1219.5130;-57.6100;-53.5300;-4.0800
1219.7120;-57.5400;-53.5100;-4.0300
1219.9120;-57.5300;-53.4600;-4.0700
1220.1110;-57.4700;-53.4300;-4.0400
1220.3100;-57.4000;-53.3900;-4.0100
1220.5090;-57.3400;-53.3500;-3.9900
1220.7080;-57.2900;-53.3300;-3.9600
1220.9070;-57.2500;-53.2800;-3.9700
1221.1060;-57.1300;-53.2200;-3.9100
1221.3050;-57.0500;-53.1900;-3.8600
1221.5040;-57.0000;-53.1400;-3.8600
1221.7040;-56.9200;-53.0800;-3.8400
1221.9030;-56.8100;-53.0300;-3.7800
1222.1020;-56.7000;-52.9700;-3.7300
1222.3010;-56.6200;-52.9100;-3.7100
1222.5000;-56.5500;-52.8400;-3.7100
1222.6990;-56.4400;-52.7900;-3.6500
1222.8980;-56.3300;-52.7100;-3.6200
1223.0970;-56.2400;-52.6500;-3.5900
1223.2970;-56.1800;-52.5800;-3.6000
1223.4960;-56.0800;-52.5000;-3.5800
1223.6950;-55.9800;-52.4500;-3.5300
1223.8940;-55.9400;-52.3800;-3.5600
1224.0930;-55.8800;-52.3100;-3.5700
1224.2920;-55.7900;-52.2400;-3.5500
1224.4910;-55.7400;-52.1800;-3.5600
1224.6900;-55.7100;-52.1300;-3.5800
1224.8890;-55.7000;-52.0500;-3.6500
1225.0890;-55.6500;-52.0100;-3.6400
1225.2880;-55.6100;-51.9300;-3.6800
1225.4870;-55.6100;-51.8700;-3.7400
1225.6860;-55.6100;-51.8400;-3.7700
1225.8850;-55.6100;-51.7800;-3.8300
1226.0840;-55.5900;-51.7300;-3.8600
1226.2830;-55.6200;-51.6800;-3.9400
1226.4820;-55.6500;-51.6200;-4.0300
1226.6810;-55.6600;-51.5900;-4.0700
1226.8810;-55.6900;-51.5400;-4.1500
1227.0800;-55.7200;-51.4800;-4.2400
1227.2790;-55.7700;-51.4400;-4.3300
1227.4780;-55.8100;-51.3800;-4.4300
1227.6770;-55.8500;-51.3400;-4.5100
1227.8760;-55.9300;-51.2700;-4.6600
1228.0750;-55.9800;-51.2200;-4.7600
1228.2740;-56.0100;-51.1500;-4.8600
1228.4740;-56.0500;-51.0800;-4.9700
1228.6730;-56.0800;-51.0300;-5.0500
1228.8720;-56.1100;-50.9500;-5.1600
1229.0710;-56.0900;-50.8900;-5.2000
1229.2700;-56.0500;-50.8100;-5.2400
1229.4690;-56.0100;-50.7200;-5.2900
1229.6680;-55.9400;-50.6700;-5.2700
1229.8670;-55.8300;-50.5700;-5.2600
1230.0660;-55.6900;-50.4900;-5.2000
1230.2660;-55.5500;-50.4100;-5.1400
1230.4650;-55.4000;-50.3300;-5.0700
1230.6640;-55.2000;-50.2600;-4.9400
1230.8630;-55.0400;-50.1800;-4.8600
1231.0620;-54.8700;-50.1100;-4.7600
1231.2610;-54.7000;-50.0500;-4.6500
1231.4600;-54.5300;-49.9800;-4.5500
1231.6590;-54.3400;-49.9300;-4.4100
1231.8580;-54.1900;-49.8500;-4.3400
1232.0580;-54.0400;-49.8100;-4.2300
1232.2570;-53.8800;-49.7400;-4.1400
1232.4560;-53.7600;-49.6800;-4.0800
1232.6550;-53.6400;-49.6400;-4.0000
1232.8540;-53.5300;-49.5700;-3.9600
1233.0530;-53.4300;-49.5300;-3.9000
1233.2520;-53.3400;-49.4600;-3.8800
1233.4510;-53.2900;-49.4100;-3.8800
1233.6500;-53.2400;-49.3700;-3.8700
1233.8500;-53.2000;-49.3000;-3.9000
1234.0490;-53.1800;-49.2500;-3.9300
1234.2480;-53.1900;-49.1800;-4.0100
1234.4470;-53.2000;-49.1200;-4.0800
1234.6460;-53.2100;-49.0600;-4.1500
1234.8450;-53.2600;-48.9900;-4.2700
1235.0440;-53.2900;-48.9300;-4.3600
1235.2430;-53.3300;-48.8400;-4.4900
1235.4430;-53.3500;-48.7600;-4.5900
1235.6420;-53.3900;-48.6900;-4.7000
1235.8410;-53.4100;-48.6000;-4.8100
1236.0400;-53.3900;-48.5300;-4.8600
1236.2390;-53.3500;-48.4200;-4.9300
1236.4380;-53.3100;-48.3300;-4.9800
1236.6370;-53.2500;-48.2500;-5.0000
1236.8360;-53.1500;-48.1500;-5.0000
1237.0350;-53.0300;-48.0800;-4.9500
1237.2350;-52.9100;-47.9900;-4.9200
1237.4340;-52.7800;-47.9000;-4.8800
1237.6330;-52.6200;-47.8100;-4.8100
1237.8320;-52.4800;-47.7400;-4.7400
1238.0310;-52.3400;-47.6600;-4.6800
1238.2300;-52.2000;-47.5700;-4.6300
1238.4290;-52.0500;-47.5000;-4.5500
1238.6280;-51.9200;-47.4200;-4.5000
1238.8270;-51.8200;-47.3400;-4.4800
1239.0270;-51.7000;-47.2700;-4.4300
1239.2260;-51.5900;-47.1800;-4.4100
1239.4250;-51.5000;-47.1100;-4.3900
1239.6240;-51.4400;-47.0300;-4.4100
1239.8230;-51.3700;-46.9400;-4.4300
1240.0220;-51.2900;-46.8700;-4.4200
1240.2210;-51.2400;-46.7700;-4.4700
1240.4200;-51.1900;-46.6900;-4.5000
1240.6200;-51.1300;-46.5900;-4.5400
1240.8190;-51.0900;-46.4900;-4.6000
1241.0180;-51.0200;-46.3800;-4.6400
1241.2170;-50.9600;-46.2700;-4.6900
1241.4160;-50.8700;-46.1700;-4.7000
1241.6150;-50.7700;-46.0300;-4.7400
1241.8140;-50.6900;-45.9100;-4.7800
1242.0130;-50.5500;-45.8000;-4.7500
1242.2120;-50.4100;-45.6900;-4.7200
1242.4120;-50.2500;-45.5600;-4.6900
1242.6110;-50.0800;-45.4200;-4.6600
1242.8100;-49.8900;-45.3100;-4.5800
1243.0090;-49.6700;-45.1700;-4.5000
1243.2080;-49.4700;-45.0500;-4.4200
1243.4070;-49.2500;-44.9200;-4.3300
1243.6060;-49.0100;-44.7900;-4.2200
1243.8050;-48.8000;-44.6800;-4.1200
1244.0040;-48.5800;-44.5400;-4.0400
1244.2040;-48.3800;-44.4100;-3.9700
1244.4030;-48.1600;-44.2900;-3.8700
1244.6020;-47.9700;-44.1600;-3.8100
1244.8010;-47.8100;-44.0500;-3.7600
1245.0000;-47.6300;-43.9100;-3.7200
1245.1990;-47.4800;-43.7900;-3.6900
1245.3980;-47.3400;-43.6700;-3.6700
1245.5970;-47.1900;-43.5300;-3.6600
1245.7970;-47.0700;-43.4100;-3.6600
1245.9960;-46.9200;-43.2600;-3.6600
1246.1950;-46.8200;-43.1400;-3.6800
1246.3940;-46.6800;-43.0000;-3.6800
1246.5930;-46.5300;-42.8500;-3.6800
1246.7920;-46.4100;-42.7300;-3.6800
1246.9910;-46.2600;-42.5600;-3.7000
1247.1900;-46.1100;-42.4200;-3.6900
1247.3890;-45.9500;-42.2700;-3.6800
1247.5890;-45.7700;-42.1100;-3.6600
1247.7880;-45.6100;-41.9700;-3.6400
1247.9870;-45.4100;-41.8000;-3.6100
1248.1860;-45.2300;-41.6500;-3.5800
1248.3850;-45.0400;-41.5000;-3.5400
1248.5840;-44.8500;-41.3300;-3.5200
1248.7830;-44.6400;-41.1800;-3.4600
1248.9820;-44.4500;-41.0200;-3.4300
1249.1810;-44.2700;-40.8700;-3.4000
1249.3810;-44.0800;-40.7200;-3.3600
1249.5800;-43.9000;-40.5600;-3.3400
1249.7790;-43.7300;-40.4200;-3.3100
1249.9780;-43.5600;-40.2500;-3.3100
1250.1770;-43.4100;-40.1100;-3.3000
1250.3760;-43.2700;-39.9700;-3.3000
1250.5750;-43.1300;-39.8100;-3.3200
1250.7740;-42.9900;-39.6700;-3.3200
1250.9740;-42.8700;-39.5200;-3.3500
1251.1730;-42.7700;-39.3800;-3.3900
1251.3720;-42.6400;-39.2300;-3.4100
1251.5710;-42.5500;-39.0900;-3.4600
1251.7700;-42.4300;-38.9500;-3.4800
1251.9690;-42.3200;-38.7900;-3.5300
1252.1680;-42.2200;-38.6400;-3.5800
1252.3670;-42.1000;-38.4700;-3.6300
1252.5660;-42.0200;-38.3200;-3.7000
1252.7660;-41.9000;-38.1700;-3.7300
1252.9650;-41.8000;-38.0100;-3.7900
1253.1640;-41.7100;-37.8500;-3.8600
1253.3630;-41.6100;-37.6800;-3.9300
1253.5620;-41.5300;-37.5200;-4.0100
1253.7610;-41.4300;-37.3500;-4.0800
1253.9600;-41.3700;-37.1900;-4.1800
1254.1590;-41.3000;-37.0300;-4.2700
1254.3580;-41.2300;-36.8500;-4.3800
1254.5580;-41.2000;-36.7000;-4.5000
1254.7570;-41.1400;-36.5400;-4.6000
1254.9560;-41.1100;-36.3700;-4.7400
1255.1550;-41.1000;-36.2300;-4.8700
1255.3540;-41.0800;-36.0600;-5.0200
1255.5530;-41.1000;-35.9200;-5.1800
1255.7520;-41.1000;-35.7400;-5.3600
1255.9510;-41.1100;-35.6300;-5.4800
1256.1500;-41.1300;-35.4900;-5.6400
1256.3500;-41.1400;-35.3400;-5.8000
1256.5490;-41.1600;-35.2200;-5.9400
1256.7480;-41.1600;-35.0700;-6.0900
1256.9470;-41.1500;-34.9400;-6.2100
1257.1460;-41.1200;-34.8000;-6.3200
1257.3450;-41.0800;-34.6600;-6.4200
1257.5440;-41.0300;-34.5400;-6.4900
1257.7430;-40.9400;-34.3900;-6.5500
1257.9430;-40.8200;-34.2500;-6.5700
1258.1420;-40.6900;-34.1200;-6.5700
1258.3410;-40.5200;-33.9700;-6.5500
1258.5400;-40.3500;-33.8400;-6.5100
1258.7390;-40.1300;-33.6800;-6.4500
1258.9380;-39.9000;-33.5400;-6.3600
1259.1370;-39.6500;-33.3900;-6.2600
1259.3360;-39.3900;-33.2400;-6.1500
1259.5350;-39.1400;-33.1000;-6.0400
1259.7350;-38.8500;-32.9400;-5.9100
1259.9340;-38.5800;-32.8000;-5.7800
1260.1330;-38.3000;-32.6500;-5.6500
1260.3320;-38.0300;-32.4900;-5.5400
1260.5310;-37.7800;-32.3600;-5.4200
1260.7300;-37.5200;-32.2000;-5.3200
1260.9290;-37.2800;-32.0700;-5.2100
1261.1280;-37.0400;-31.9200;-5.1200
1261.3270;-36.8100;-31.7700;-5.0400
1261.5270;-36.6300;-31.6500;-4.9800
1261.7260;-36.4300;-31.5100;-4.9200
1261.9250;-36.2600;-31.3800;-4.8800
1262.1240;-36.1000;-31.2400;-4.8600
1262.3230;-35.9400;-31.1100;-4.8300
1262.5220;-35.8400;-31.0000;-4.8400
1262.7210;-35.7300;-30.8600;-4.8700
1262.9200;-35.6400;-30.7400;-4.9000
1263.1200;-35.5600;-30.6000;-4.9600
1263.3190;-35.5100;-30.4700;-5.0400
1263.5180;-35.4600;-30.3600;-5.1000
1263.7170;-35.4200;-30.2100;-5.2100
1263.9160;-35.3900;-30.0900;-5.3000
1264.1150;-35.3700;-29.9500;-5.4200
1264.3140;-35.3800;-29.8100;-5.5700
1264.5130;-35.3800;-29.6900;-5.6900
1264.7120;-35.3900;-29.5500;-5.8400
1264.9120;-35.4000;-29.4200;-5.9800
1265.1110;-35.4200;-29.2700;-6.1500
1265.3100;-35.4500;-29.1400;-6.3100
1265.5090;-35.4800;-29.0100;-6.4700
1265.7080;-35.5200;-28.8700;-6.6500
1265.9070;-35.5600;-28.7500;-6.8100
1266.1060;-35.6000;-28.6100;-6.9900
1266.3050;-35.6600;-28.4800;-7.1800
1266.5040;-35.7200;-28.3700;-7.3500
1266.7040;-35.7900;-28.2400;-7.5500
1266.9030;-35.8600;-28.1200;-7.7400
1267.1020;-35.9500;-27.9900;-7.9600
1267.3010;-36.0600;-27.8700;-8.1900
1267.5000;-36.1800;-27.7700;-8.4100
1267.6990;-36.3200;-27.6500;-8.6700
1267.8980;-36.4800;-27.5500;-8.9300
1268.0970;-36.6800;-27.4300;-9.2500
1268.2970;-36.9100;-27.3200;-9.5900
1268.4960;-37.1800;-27.2200;-9.9600
1268.6950;-37.4900;-27.1000;-10.3900
1268.8940;-37.8200;-27.0000;-10.8200
1269.0930;-38.3000;-26.8800;-11.4200
1269.2920;-38.6600;-26.7700;-11.8900
1269.4910;-39.1400;-26.6600;-12.4800
1269.6900;-39.6500;-26.5400;-13.1100
1269.8890;-40.1600;-26.4400;-13.7200
1270.0890;-40.6500;-26.3100;-14.3400
1270.2880;-41.0300;-26.2000;-14.8300
1270.4870;-41.2500;-26.0700;-15.1800
1270.6860;-41.2100;-25.9700;-15.2400
1270.8850;-40.8300;-25.8500;-14.9800
1271.0840;-40.1700;-25.7300;-14.4400
1271.2830;-39.2700;-25.6300;-13.6400
1271.4820;-38.2700;-25.5000;-12.7700
1271.6810;-37.2100;-25.3900;-11.8200
1271.8810;-36.1400;-25.2800;-10.8600
1272.0800;-34.9500;-25.1700;-9.7800
1272.2790;-34.1300;-25.0600;-9.0700
1272.4780;-33.2300;-24.9500;-8.2800
1272.6770;-32.3600;-24.8500;-7.5100
1272.8760;-31.5600;-24.7400;-6.8200
1273.0750;-30.8000;-24.6500;-6.1500
1273.2740;-30.0900;-24.5600;-5.5300
1273.4740;-29.4500;-24.4500;-5.0000
1273.6730;-28.8500;-24.3700;-4.4800
1273.8720;-28.3000;-24.2700;-4.0300
1274.0710;-27.7800;-24.1800;-3.6000
1274.2700;-27.3100;-24.0900;-3.2200
1274.4690;-26.8800;-23.9900;-2.8900
1274.6680;-26.4800;-23.9100;-2.5700
1274.8670;-26.0600;-23.8100;-2.2500
1275.0660;-25.7900;-23.7200;-2.0700
1275.2660;-25.5000;-23.6400;-1.8600
1275.4650;-25.2200;-23.5400;-1.6800
1275.6640;-24.9900;-23.4600;-1.5300
1275.8630;-24.7800;-23.3600;-1.4200
1276.0620;-24.5900;-23.2700;-1.3200
1276.2610;-24.4300;-23.1800;-1.2500
1276.4600;-24.2800;-23.0900;-1.1900
1276.6590;-24.1400;-23.0000;-1.1400
1276.8580;-24.0400;-22.9000;-1.1400
1277.0580;-23.9400;-22.8200;-1.1200
1277.2570;-23.8700;-22.7300;-1.1400
1277.4560;-23.7900;-22.6400;-1.1500
1277.6550;-23.7300;-22.5700;-1.1600
1277.8540;-23.6800;-22.4700;-1.2100
1278.0530;-23.6200;-22.4000;-1.2200
1278.2520;-23.5800;-22.3100;-1.2700
1278.4510;-23.5200;-22.2300;-1.2900
1278.6500;-23.4600;-22.1600;-1.3000
1278.8500;-23.4000;-22.0700;-1.3300
1279.0490;-23.3300;-22.0000;-1.3300
1279.2480;-23.2700;-21.9200;-1.3500
1279.4470;-23.1800;-21.8400;-1.3400
1279.6460;-23.1000;-21.7700;-1.3300
1279.8450;-23.0100;-21.6800;-1.3300
1280.0440;-22.9100;-21.6200;-1.2900
1280.2430;-22.8300;-21.5400;-1.2900
1280.4430;-22.7200;-21.4600;-1.2600
1280.6420;-22.6300;-21.3900;-1.2400
1280.8410;-22.5200;-21.3100;-1.2100
1281.0400;-22.4300;-21.2400;-1.1900
1281.2390;-22.3400;-21.1600;-1.1800
1281.4380;-22.2500;-21.0800;-1.1700
1281.6370;-22.1900;-21.0100;-1.1800
1281.8360;-22.1100;-20.9300;-1.1800
1282.0350;-22.0600;-20.8700;-1.1900
1282.2350;-22.0200;-20.7800;-1.2400
1282.4340;-21.9800;-20.7100;-1.2700
1282.6330;-21.9800;-20.6500;-1.3300
1282.8320;-21.9700;-20.5800;-1.3900
1283.0310;-21.9800;-20.5200;-1.4600
1283.2300;-22.0000;-20.4500;-1.5500
1283.4290;-22.0400;-20.3900;-1.6500
1283.6280;-22.1000;-20.3200;-1.7800
1283.8270;-22.1500;-20.2600;-1.8900
1284.0270;-22.2300;-20.2100;-2.0200
1284.2260;-22.3100;-20.1400;-2.1700
1284.4250;-22.4000;-20.0900;-2.3100
1284.6240;-22.5300;-20.0300;-2.5000
1284.8230;-22.6400;-19.9700;-2.6700
1285.0220;-22.7700;-19.9300;-2.8400
1285.2210;-22.9100;-19.8600;-3.0500
1285.4200;-23.0500;-19.8100;-3.2400
1285.6200;-23.2300;-19.7500;-3.4800
1285.8190;-23.3900;-19.6900;-3.7000
1286.0180;-23.5800;-19.6500;-3.9300
1286.2170;-23.7800;-19.5800;-4.2000
1286.4160;-23.9900;-19.5400;-4.4500
1286.6150;-24.2500;-19.4900;-4.7600
1286.8140;-24.4900;-19.4300;-5.0600
1287.0130;-24.7600;-19.3900;-5.3700
1287.2120;-25.0300;-19.3300;-5.7000
1287.4120;-25.3200;-19.2900;-6.0300
1287.6110;-25.6300;-19.2300;-6.4000
1287.8100;-25.9200;-19.1800;-6.7400
1288.0090;-26.2200;-19.1400;-7.0800
1288.2080;-26.4800;-19.0800;-7.4000
1288.4070;-26.7100;-19.0500;-7.6600
1288.6060;-26.9000;-19.0000;-7.9000
1288.8050;-27.0100;-18.9600;-8.0500
1289.0040;-27.0600;-18.9200;-8.1400
1289.2040;-26.9800;-18.8700;-8.1100
1289.4030;-26.8300;-18.8500;-7.9800
1289.6020;-26.5900;-18.8000;-7.7900
1289.8010;-26.2700;-18.7600;-7.5100
1290.0000;-25.9000;-18.7200;-7.1800
1290.1990;-25.4700;-18.6800;-6.7900
1290.3980;-25.0200;-18.6600;-6.3600
1290.5970;-24.5700;-18.6200;-5.9500
1290.7970;-24.0900;-18.5900;-5.5000
1290.9960;-23.6500;-18.5300;-5.1200
1291.1950;-23.2000;-18.5000;-4.7000
1291.3940;-22.7900;-18.4700;-4.3200
1291.5930;-22.3900;-18.4100;-3.9800
1291.7920;-22.0200;-18.3900;-3.6300
1291.9910;-21.6900;-18.3400;-3.3500
1292.1900;-21.3800;-18.3100;-3.0700
1292.3890;-21.1100;-18.2700;-2.8400
1292.5890;-20.8400;-18.2200;-2.6200
1292.7880;-20.6200;-18.2000;-2.4200
1292.9870;-20.4300;-18.1500;-2.2800
1293.1860;-20.2600;-18.1300;-2.1300
1293.3850;-20.1300;-18.0900;-2.0400
1293.5840;-20.0000;-18.0500;-1.9500
1293.7830;-19.9100;-18.0200;-1.8900
1293.9820;-19.8400;-17.9900;-1.8500
1294.1810;-19.7900;-17.9700;-1.8200
1294.3810;-19.7800;-17.9300;-1.8500
1294.5800;-19.7600;-17.8900;-1.8700
1294.7790;-19.7900;-17.8700;-1.9200
1294.9780;-19.8200;-17.8400;-1.9800
1295.1770;-19.8700;-17.8200;-2.0500
1295.3760;-19.9400;-17.7900;-2.1500
1295.5750;-20.0000;-17.7600;-2.2400
1295.7740;-20.1000;-17.7300;-2.3700
1295.9740;-20.1800;-17.6900;-2.4900
1296.1730;-20.3000;-17.6800;-2.6200
1296.3720;-20.4100;-17.6500;-2.7600
1296.5710;-20.5100;-17.6300;-2.8800
1296.7700;-20.6400;-17.6000;-3.0400
1296.9690;-20.7400;-17.5800;-3.1600
1297.1680;-20.8600;-17.5700;-3.2900
1297.3670;-20.9500;-17.5500;-3.4000
1297.5660;-21.0300;-17.5300;-3.5000
1297.7660;-21.1200;-17.5100;-3.6100
1297.9650;-21.1700;-17.4900;-3.6800
1298.1640;-21.2300;-17.4800;-3.7500
1298.3630;-21.2600;-17.4700;-3.7900
1298.5620;-21.2600;-17.4600;-3.8000
1298.7610;-21.2600;-17.4400;-3.8200
1298.9600;-21.2300;-17.4400;-3.7900
1299.1590;-21.2000;-17.4300;-3.7700
1299.3580;-21.1400;-17.4200;-3.7200
1299.5580;-21.0700;-17.4200;-3.6500
1299.7570;-20.9800;-17.4100;-3.5700
1299.9560;-20.8800;-17.4100;-3.4700
1300.1550;-20.7900;-17.4000;-3.3900
1300.3540;-20.6700;-17.4000;-3.2700
1300.5530;-20.5700;-17.4000;-3.1700
1300.7520;-20.4400;-17.3900;-3.0500
1300.9510;-20.3300;-17.4000;-2.9300
1301.1500;-20.2200;-17.4000;-2.8200
1301.3500;-20.1100;-17.4000;-2.7100
1301.5490;-20.0200;-17.4100;-2.6100
1301.7480;-19.8900;-17.4100;-2.4800
1301.9470;-19.7900;-17.4200;-2.3700
1302.1460;-19.7000;-17.4200;-2.2800
1302.3450;-19.6000;-17.4300;-2.1700
1302.5440;-19.5300;-17.4300;-2.1000
1302.7430;-19.4300;-17.4300;-2.0000
1302.9430;-19.3600;-17.4400;-1.9200
1303.1420;-19.2900;-17.4400;-1.8500
1303.3410;-19.2100;-17.4600;-1.7500
1303.5400;-19.1700;-17.4600;-1.7100
1303.7390;-19.1000;-17.4600;-1.6400
1303.9380;-19.0600;-17.4700;-1.5900
1304.1370;-19.0100;-17.4800;-1.5300
1304.3360;-18.9700;-17.5000;-1.4700
1304.5350;-18.9500;-17.5000;-1.4500
1304.7350;-18.9100;-17.5100;-1.4000
1304.9340;-18.9000;-17.5200;-1.3800
1305.1330;-18.8800;-17.5300;-1.3500
1305.3320;-18.8700;-17.5500;-1.3200
1305.5310;-18.8700;-17.5600;-1.3100
1305.7300;-18.8600;-17.5800;-1.2800
1305.9290;-18.8800;-17.5800;-1.3000
1306.1280;-18.8900;-17.6000;-1.2900
1306.3270;-18.9100;-17.6100;-1.3000
1306.5270;-18.9400;-17.6300;-1.3100
1306.7260;-18.9700;-17.6500;-1.3200
1306.9250;-19.0200;-17.6500;-1.3700
1307.1240;-19.0600;-17.6800;-1.3800
1307.3230;-19.1300;-17.6900;-1.4400
1307.5220;-19.1900;-17.7100;-1.4800
1307.7210;-19.2600;-17.7400;-1.5200
1307.9200;-19.3400;-17.7500;-1.5900
1308.1200;-19.4400;-17.7900;-1.6500
1308.3190;-19.5500;-17.8000;-1.7500
1308.5180;-19.6600;-17.8400;-1.8200
1308.7170;-19.7800;-17.8800;-1.9000
1308.9160;-19.9000;-17.8900;-2.0100
1309.1150;-20.0400;-17.9400;-2.1000
1309.3140;-20.2000;-17.9600;-2.2400
1309.5130;-20.3600;-18.0100;-2.3500
1309.7120;-20.5300;-18.0500;-2.4800
1309.9120;-20.6800;-18.0700;-2.6100
1310.1110;-20.8700;-18.1300;-2.7400
1310.3100;-21.0500;-18.1600;-2.8900
1310.5090;-21.2300;-18.2100;-3.0200
1310.7080;-21.4200;-18.2500;-3.1700
1310.9070;-21.6000;-18.2900;-3.3100
1311.1060;-21.7900;-18.3500;-3.4400
1311.3050;-21.9500;-18.3800;-3.5700
1311.5040;-22.1100;-18.4500;-3.6600
1311.7040;-22.2700;-18.4800;-3.7900
1311.9030;-22.3900;-18.5300;-3.8600
1312.1020;-22.5200;-18.5800;-3.9400
1312.3010;-22.6000;-18.6300;-3.9700
1312.5000;-22.6900;-18.7000;-3.9900
1312.6990;-22.7400;-18.7400;-4.0000
1312.8980;-22.7600;-18.8000;-3.9600
1313.0970;-22.7800;-18.8500;-3.9300
1313.2970;-22.7500;-18.9000;-3.8500
1313.4960;-22.7400;-18.9800;-3.7600
1313.6950;-22.6800;-19.0300;-3.6500
1313.8940;-22.6100;-19.0900;-3.5200
1314.0930;-22.5500;-19.1400;-3.4100
1314.2920;-22.4600;-19.2000;-3.2600
1314.4910;-22.3900;-19.2700;-3.1200
1314.6900;-22.2800;-19.3200;-2.9600
1314.8890;-22.1900;-19.3800;-2.8100
1315.0890;-22.0900;-19.4300;-2.6600
1315.2880;-21.9900;-19.5000;-2.4900
1315.4870;-21.9200;-19.5500;-2.3700
1315.6860;-21.8300;-19.6100;-2.2200
1315.8850;-21.7600;-19.6700;-2.0900
1316.0840;-21.6900;-19.7300;-1.9600
1316.2830;-21.6300;-19.8000;-1.8300
1316.4820;-21.5900;-19.8500;-1.7400
1316.6810;-21.5500;-19.9200;-1.6300
1316.8810;-21.5300;-19.9800;-1.5500
1317.0800;-21.5200;-20.0500;-1.4700
1317.2790;-21.5200;-20.1200;-1.4000
1317.4780;-21.5200;-20.1900;-1.3300
1317.6770;-21.5300;-20.2600;-1.2700
1317.8760;-21.5600;-20.3200;-1.2400
1318.0750;-21.5800;-20.3900;-1.1900
1318.2740;-21.6300;-20.4600;-1.1700
1318.4740;-21.6700;-20.5300;-1.1400
1318.6730;-21.7500;-20.6200;-1.1300
1318.8720;-21.8000;-20.6800;-1.1200
1319.0710;-21.8800;-20.7800;-1.1000
1319.2700;-21.9700;-20.8500;-1.1200
1319.4690;-22.0400;-20.9300;-1.1100
1319.6680;-22.1600;-21.0200;-1.1400
1319.8670;-22.2400;-21.1000;-1.1400
1320.0660;-22.3500;-21.2000;-1.1500
1320.2660;-22.4600;-21.2800;-1.1800
1320.4650;-22.5700;-21.3700;-1.2000
1320.6640;-22.7100;-21.4700;-1.2400
1320.8630;-22.8100;-21.5600;-1.2500
1321.0620;-22.9400;-21.6600;-1.2800
1321.2610;-23.0600;-21.7500;-1.3100
1321.4600;-23.1900;-21.8600;-1.3300
1321.6590;-23.3200;-21.9500;-1.3700
1321.8580;-23.4500;-22.0500;-1.4000
1322.0580;-23.5900;-22.1600;-1.4300
1322.2570;-23.7100;-22.2600;-1.4500
1322.4560;-23.8400;-22.3700;-1.4700
1322.6550;-23.9700;-22.4700;-1.5000
1322.8540;-24.1000;-22.5900;-1.5100
1323.0530;-24.2400;-22.6900;-1.5500
1323.2520;-24.3700;-22.8100;-1.5600
1323.4510;-24.5100;-22.9200;-1.5900
1323.6500;-24.6400;-23.0300;-1.6100
1323.8500;-24.7700;-23.1600;-1.6100
1324.0490;-24.9000;-23.2700;-1.6300
1324.2480;-25.0300;-23.4000;-1.6300
1324.4470;-25.1600;-23.5100;-1.6500
1324.6460;-25.2900;-23.6300;-1.6600
1324.8450;-25.4200;-23.7600;-1.6600
1325.0440;-25.5400;-23.8700;-1.6700
1325.2430;-25.6700;-24.0100;-1.6600
1325.4430;-25.8000;-24.1200;-1.6800
1325.6420;-25.9200;-24.2600;-1.6600
1325.8410;-26.0600;-24.3900;-1.6700
1326.0400;-26.1800;-24.5200;-1.6600
1326.2390;-26.3000;-24.6500;-1.6500
1326.4380;-26.4200;-24.7800;-1.6400
1326.6370;-26.5300;-24.9100;-1.6200
1326.8360;-26.6600;-25.0400;-1.6200
1327.0350;-26.7700;-25.1800;-1.5900
1327.2350;-26.8900;-25.3200;-1.5700
1327.4340;-26.9900;-25.4500;-1.5400
1327.6330;-27.1100;-25.6000;-1.5100
1327.8320;-27.2100;-25.7200;-1.4900
1328.0310;-27.3200;-25.8700;-1.4500
1328.2300;-27.4400;-26.0100;-1.4300
1328.4290;-27.5300;-26.1500;-1.3800
1328.6280;-27.6500;-26.3000;-1.3500
1328.8270;-27.7500;-26.4400;-1.3100
1329.0270;-27.8500;-26.6000;-1.2500
1329.2260;-27.9600;-26.7300;-1.2300
1329.4250;-28.0600;-26.8900;-1.1700
1329.6240;-28.1800;-27.0300;-1.1500
1329.8230;-28.2800;-27.1700;-1.1100
1330.0220;-28.4100;-27.3300;-1.0800
1330.2210;-28.5500;-27.4700;-1.0800
1330.4200;-28.6700;-27.6300;-1.0400
1330.6200;-28.7900;-27.7700;-1.0200
1330.8190;-28.9300;-27.9200;-1.0100
1331.0180;-29.0900;-28.0700;-1.0200
1331.2170;-29.2400;-28.2300;-1.0100
1331.4160;-29.4300;-28.3900;-1.0400
1331.6150;-29.5900;-28.5700;-1.0200
1331.8140;-29.7900;-28.7100;-1.0800
1332.0130;-29.9900;-28.8500;-1.1400
1332.2120;-30.2100;-29.0200;-1.1900
1332.4120;-30.4400;-29.1700;-1.2700
1332.6110;-30.6900;-29.3400;-1.3500
1332.8100;-30.9600;-29.5000;-1.4600
1333.0090;-31.2200;-29.6600;-1.5600
1333.2080;-31.5000;-29.8300;-1.6700
1333.4070;-31.8000;-29.9800;-1.8200
1333.6060;-32.1100;-30.1500;-1.9600
1333.8050;-32.4500;-30.3100;-2.1400
1334.0040;-32.7700;-30.4700;-2.3000
1334.2040;-33.1100;-30.6500;-2.4600
1334.4030;-33.4500;-30.8100;-2.6400
1334.6020;-33.7800;-30.9800;-2.8000
1334.8010;-34.1200;-31.1500;-2.9700
1335.0000;-34.4400;-31.3200;-3.1200
1335.1990;-34.7600;-31.4900;-3.2700
1335.3980;-35.0400;-31.6600;-3.3800
1335.5970;-35.3000;-31.8500;-3.4500
1335.7970;-35.5400;-32.0200;-3.5200
1335.9960;-35.7400;-32.2100;-3.5300
1336.1950;-35.9100;-32.3800;-3.5300
1336.3940;-36.0200;-32.5600;-3.4600
1336.5930;-36.1100;-32.7400;-3.3700
1336.7920;-36.1600;-32.9100;-3.2500
1336.9910;-36.1800;-33.1000;-3.0800
1337.1900;-36.2000;-33.2800;-2.9200
1337.3890;-36.1900;-33.4700;-2.7200
1337.5890;-36.1800;-33.6500;-2.5300
1337.7880;-36.1500;-33.8300;-2.3200
1337.9870;-36.1400;-34.0300;-2.1100
1338.1860;-36.1300;-34.2000;-1.9300
1338.3850;-36.1200;-34.3900;-1.7300
1338.5840;-36.1400;-34.5700;-1.5700
1338.7830;-36.1600;-34.7500;-1.4100
1338.9820;-36.2100;-34.9500;-1.2600
1339.1810;-36.2700;-35.1300;-1.1400
1339.3810;-36.3600;-35.3200;-1.0400
1339.5800;-36.4800;-35.4900;-0.9900
1339.7790;-36.6100;-35.6800;-0.9300
1339.9780;-36.7800;-35.8700;-0.9100
1340.1770;-36.9600;-36.0500;-0.9100
1340.3760;-37.1800;-36.2600;-0.9200
1340.5750;-37.4300;-36.4400;-0.9900
1340.7740;-37.6900;-36.6300;-1.0600
1340.9740;-37.9800;-36.8100;-1.1700
1341.1730;-38.2800;-36.9900;-1.2900
1341.3720;-38.7000;-37.1800;-1.5200
1341.5710;-38.9900;-37.3700;-1.6200
1341.7700;-39.3800;-37.5600;-1.8200
1341.9690;-39.7900;-37.7300;-2.0600
1342.1680;-40.2200;-37.9300;-2.2900
1342.3670;-40.6900;-38.1100;-2.5800
1342.5660;-41.1600;-38.2900;-2.8700
1342.7660;-41.6700;-38.5300;-3.1400
1342.9650;-42.1900;-38.6900;-3.5000
1343.1640;-42.7400;-38.8900;-3.8500
1343.3630;-43.3000;-39.0700;-4.2300
1343.5620;-43.8600;-39.2600;-4.6000
1343.7610;-44.4600;-39.4500;-5.0100
1343.9600;-45.0600;-39.6500;-5.4100
1344.1590;-45.6800;-39.8600;-5.8200
1344.3580;-46.2900;-40.0500;-6.2400
1344.5580;-46.9000;-40.2500;-6.6500
1344.7570;-47.5300;-40.4400;-7.0900
1344.9560;-48.1100;-40.6300;-7.4800
1345.1550;-48.8300;-40.8200;-8.0100
1345.3540;-49.2600;-41.0000;-8.2600
1345.5530;-49.8000;-41.2000;-8.6000
1345.7520;-50.3100;-41.3800;-8.9300
1345.9510;-50.8000;-41.5800;-9.2200
1346.1500;-51.2600;-41.7800;-9.4800
1346.3500;-51.6900;-41.9700;-9.7200
1346.5490;-52.1000;-42.1900;-9.9100
1346.7480;-52.4500;-42.3700;-10.0800
1346.9470;-52.7800;-42.5600;-10.2200
1347.1460;-53.1000;-42.7500;-10.3500
1347.3450;-53.3600;-42.9200;-10.4400
1347.5440;-53.6800;-43.1600;-10.5200
1347.7430;-53.9800;-43.3900;-10.5900
1347.9430;-54.2500;-43.6200;-10.6300
1348.1420;-54.4600;-43.8000;-10.6600
1348.3410;-54.6700;-44.0000;-10.6700
1348.5400;-54.8300;-44.1600;-10.6700
1348.7390;-54.9700;-44.3400;-10.6300
1348.9380;-55.1000;-44.5200;-10.5800
1349.1370;-55.1800;-44.6800;-10.5000
1349.3360;-55.2100;-44.8500;-10.3600
1349.5350;-55.2200;-45.0200;-10.2000
1349.7350;-55.1900;-45.1900;-10.0000
1349.9340;-55.1400;-45.3800;-9.7600
1350.1330;-55.0600;-45.5800;-9.4800
1350.3320;-54.9900;-45.8400;-9.1500
1350.5310;-54.8400;-46.0500;-8.7900
1350.7300;-54.6100;-46.2300;-8.3800
1350.9290;-54.3600;-46.4000;-7.9600
1351.1280;-54.0500;-46.5200;-7.5300
1351.3270;-53.8000;-46.7000;-7.1000
1351.5270;-53.5500;-46.8700;-6.6800
1351.7260;-53.3700;-47.1200;-6.2500
1351.9250;-53.1300;-47.3100;-5.8200
1352.1240;-52.8800;-47.4900;-5.3900
1352.3230;-52.7000;-47.6800;-5.0200
1352.5220;-52.5200;-47.8800;-4.6400
1352.7210;-52.3200;-48.0500;-4.2700
1352.9200;-52.1400;-48.2000;-3.9400
1353.1200;-52.0900;-48.5500;-3.5400
1353.3190;-51.9200;-48.5900;-3.3300
1353.5180;-51.8100;-48.7700;-3.0400
1353.7170;-51.7600;-48.9500;-2.8100
1353.9160;-51.6300;-49.0600;-2.5700
1354.1150;-51.5800;-49.2200;-2.3600
1354.3140;-51.6300;-49.4500;-2.1800
1354.5130;-51.6500;-49.6500;-2.0000
1354.7120;-51.8400;-49.9600;-1.8800
1354.9120;-51.9900;-50.2500;-1.7400
1355.1110;-52.0600;-50.4400;-1.6200
1355.3100;-52.1000;-50.5700;-1.5300
1355.5090;-52.0100;-50.5900;-1.4200
1355.7080;-52.2300;-50.8500;-1.3800
1355.9070;-52.4500;-51.1300;-1.3200
1356.1060;-52.5700;-51.3000;-1.2700
1356.3050;-52.6200;-51.3900;-1.2300
1356.5040;-52.7100;-51.5200;-1.1900
1356.7040;-52.6200;-51.4300;-1.1900
1356.9030;-52.7700;-51.6000;-1.1700
1357.1020;-53.1500;-51.9700;-1.1800
1357.3010;-53.3800;-52.2100;-1.1700
1357.5000;-53.5700;-52.4000;-1.1700
1357.6990;-53.7700;-52.5900;-1.1800
1357.8980;-53.8200;-52.6600;-1.1600
1358.0970;-53.9000;-52.7300;-1.1700
1358.2970;-54.0900;-52.9200;-1.1700
1358.4960;-54.3400;-53.1500;-1.1900
1358.6950;-54.4900;-53.3000;-1.1900
1358.8940;-54.6500;-53.4700;-1.1800
1359.0930;-54.8200;-53.6300;-1.1900
1359.2920;-54.8700;-53.6900;-1.1800
1359.4910;-55.2600;-54.0700;-1.1900
1359.6900;-55.5600;-54.3800;-1.1800
1359.8890;-55.7700;-54.5800;-1.1900
1360.0890;-55.8500;-54.6600;-1.1900
1360.2880;-55.8900;-54.7100;-1.1800
1360.4870;-55.8900;-54.7000;-1.1900
1360.6860;-56.0800;-54.8900;-1.1900
1360.8850;-56.4500;-55.2300;-1.2200
1361.0840;-56.7700;-55.5400;-1.2300
1361.2830;-56.9800;-55.7200;-1.2600
1361.4820;-57.1900;-55.9000;-1.2900
1361.6810;-57.4500;-56.1400;-1.3100
1361.8810;-57.6300;-56.2800;-1.3500
1362.0800;-57.9200;-56.5200;-1.4000
1362.2790;-58.6500;-56.9500;-1.7000
1362.4780;-58.7400;-57.1900;-1.5500
1362.6770;-58.9900;-57.3600;-1.6300
1362.8760;-58.9700;-57.2600;-1.7100
1363.0750;-59.0400;-57.2300;-1.8100
1363.2740;-58.9000;-57.0100;-1.8900
1363.4740;-59.1000;-57.1000;-2.0000
1363.6730;-59.3200;-57.2000;-2.1200
1363.8720;-59.6000;-57.3700;-2.2300
1364.0710;-59.9800;-57.6000;-2.3800
1364.2700;-60.3600;-57.8100;-2.5500
1364.4690;-60.8400;-58.1500;-2.6900
1364.6680;-61.5000;-58.7300;-2.7700
1364.8670;-61.9400;-58.9500;-2.9900
1365.0660;-62.1300;-58.9300;-3.2000
1365.2660;-62.5300;-59.1400;-3.3900
1365.4650;-62.6400;-59.0900;-3.5500
1365.6640;-62.9400;-59.1700;-3.7700
1365.8630;-63.2500;-59.2500;-4.0000
1366.0620;-63.5000;-59.2700;-4.2300
1366.2610;-63.6500;-59.3000;-4.3500
1366.4600;-63.9700;-59.3800;-4.5900
1366.6590;-64.3800;-59.5700;-4.8100
1366.8580;-64.8700;-59.8400;-5.0300
1367.0580;-65.2000;-59.9800;-5.2200
1367.2570;-65.5900;-60.1200;-5.4700
1367.4560;-66.0200;-60.4100;-5.6100
1367.6550;-66.4200;-60.6300;-5.7900
1367.8540;-66.9500;-60.9300;-6.0200
1368.0530;-67.2500;-61.0900;-6.1600
1368.2520;-67.3100;-61.0900;-6.2200
1368.4510;-67.7000;-61.4300;-6.2700
1368.6500;-67.9100;-61.5800;-6.3300
1368.8500;-68.0800;-61.7000;-6.3800
1369.0490;-67.9800;-61.7400;-6.2400
1369.2480;-67.9600;-61.7400;-6.2200
1369.4470;-67.8100;-61.6700;-6.1400
1369.6460;-67.8500;-61.8400;-6.0100
1369.8450;-68.0400;-62.2100;-5.8300
1370.0440;-68.2000;-62.4200;-5.7800
1370.2430;-68.1100;-62.6000;-5.5100
1370.4430;-67.9100;-62.6800;-5.2300
1370.6420;-67.6900;-62.7500;-4.9400
1370.8410;-67.9700;-63.1200;-4.8500
1371.0400;-68.0000;-63.4200;-4.5800
1371.2390;-67.9800;-63.6400;-4.3400
1371.4380;-67.8500;-63.7700;-4.0800
1371.6370;-67.6200;-63.7600;-3.8600
1371.8360;-67.4200;-63.7400;-3.6800
1372.0350;-67.6100;-63.9900;-3.6200
1372.2350;-67.6100;-64.2600;-3.3500
1372.4340;-67.4900;-64.4200;-3.0700
1372.6330;-67.5200;-64.5300;-2.9900
1372.8320;-67.4500;-64.6600;-2.7900
1373.0310;-67.5400;-64.7000;-2.8400
1373.2300;-67.5000;-64.9000;-2.6000
1373.4290;-67.6300;-65.1500;-2.4800
1373.6280;-67.7100;-65.3400;-2.3700
1373.8270;-67.9300;-65.5100;-2.4200
1374.0270;-68.0100;-65.6200;-2.3900
1374.2260;-68.1800;-65.8200;-2.3600
1374.4250;-68.3500;-66.0600;-2.2900
1374.6240;-68.5700;-66.2300;-2.3400
1374.8230;-68.8600;-66.5400;-2.3200
1375.0220;-69.2700;-66.6900;-2.5800
1375.2210;-69.4000;-66.8700;-2.5300
1375.4200;-69.7000;-67.0300;-2.6700
1375.6200;-69.8000;-67.2300;-2.5700
1375.8190;-70.2100;-67.3400;-2.8700
1376.0180;-70.7400;-67.5500;-3.1900
1376.2170;-71.0800;-67.7200;-3.3600
1376.4160;-71.4800;-68.0100;-3.4700
1376.6150;-71.7400;-68.2900;-3.4500
1376.8140;-72.1600;-68.4400;-3.7200
1377.0130;-72.5600;-68.7600;-3.8000
1377.2120;-73.0500;-69.0800;-3.9700
1377.4120;-73.6900;-69.1500;-4.5400
1377.6110;-74.1400;-69.2500;-4.8900
1377.8100;-74.1100;-69.2800;-4.8300
1378.0090;-74.0400;-69.4300;-4.6100
1378.2080;-74.7600;-69.6300;-5.1300
1378.4070;-75.1700;-69.8500;-5.3200
1378.6060;-75.8100;-70.2800;-5.5300
1378.8050;-75.9100;-70.5400;-5.3700
1379.0040;-75.3100;-70.5900;-4.7200
1379.2040;-75.7500;-70.8700;-4.8800
1379.4030;-76.1700;-71.0200;-5.1500
1379.6020;-76.0600;-70.7300;-5.3300
1379.8010;-75.7800;-71.0400;-4.7400
1380.0000;-75.6900;-71.3100;-4.3800
1380.1990;-75.5800;-71.4500;-4.1300
1380.3980;-75.2600;-71.7300;-3.5300
1380.5970;-75.7400;-72.3200;-3.4200
1380.7970;-75.7400;-72.8500;-2.8900
1380.9960;-76.1400;-72.8900;-3.2500
1381.1950;-75.8400;-72.9500;-2.8900
1381.3940;-75.6900;-72.7500;-2.9400
1381.5930;-75.3100;-72.4600;-2.8500
1381.7920;-74.9600;-72.6100;-2.3500
1381.9910;-75.0100;-72.7200;-2.2900
1382.1900;-75.2500;-72.7500;-2.5000
1382.3890;-75.0500;-73.4100;-1.6400
1382.5890;-75.6100;-73.4600;-2.1500
1382.7880;-76.0000;-74.4200;-1.5800
1382.9870;-76.6900;-74.7300;-1.9600
1383.1860;-76.5500;-74.9500;-1.6000
1383.3850;-76.0200;-74.2800;-1.7400
1383.5840;-76.1100;-74.1500;-1.9600
1383.7830;-76.1400;-73.7600;-2.3800
1383.9820;-76.3000;-74.1100;-2.1900
1384.1810;-76.3200;-74.2600;-2.0600
1384.3810;-76.7300;-74.3000;-2.4300
1384.5800;-76.3800;-74.0300;-2.3500
1384.7790;-77.1700;-74.1000;-3.0700
1384.9780;-77.7300;-74.8900;-2.8400
1385.1770;-78.2300;-74.7000;-3.5300
1385.3760;-78.1800;-75.1300;-3.0500
1385.5750;-78.2500;-75.0800;-3.1700
1385.7740;-78.6800;-75.3000;-3.3800
1385.9740;-81.6900;-75.3000;-6.3900
1386.1730;-80.1500;-75.3000;-4.8500
1386.3720;-81.1100;-74.9700;-6.1400
1386.5710;-80.3100;-75.3200;-4.9900
1386.7700;-82.4300;-75.0900;-7.3400
1386.9690;-80.6900;-75.1400;-5.5500
1387.1680;-83.0800;-75.7600;-7.3200
1387.3670;-81.8700;-75.5900;-6.2800
1387.5660;-82.5000;-76.0100;-6.4900
1387.7660;-80.7400;-75.9100;-4.8300
1387.9650;-82.9300;-76.4800;-6.4500
1388.1640;-83.0000;-76.9800;-6.0200
1388.3630;-80.9200;-76.8100;-4.1100
1388.5620;-84.2200;-76.5500;-7.6700
1388.7610;-81.8700;-77.0200;-4.8500
1388.9600;-84.2200;-76.8100;-7.4100
1389.1590;-81.5300;-76.3100;-5.2200
1389.3580;-85.2400;-76.5800;-8.6600
1389.5580;-80.5600;-76.6900;-3.8700
1389.7570;-82.5000;-77.7000;-4.8000
1389.9560;-82.7100;-77.7000;-5.0100
1390.1550;-80.4700;-76.6900;-3.7800
1390.3540;-80.1900;-76.5600;-3.6300
1390.5530;-81.8700;-76.6500;-5.2200
1390.7520;-80.6900;-76.8900;-3.8000
1390.9510;-84.5400;-76.6500;-7.8900
1391.1500;-81.8100;-78.2300;-3.5800
1391.3500;-80.6000;-76.9400;-3.6600
1391.5490;-82.0000;-77.5600;-4.4400
1391.7480;-80.7900;-77.1100;-3.6800
1391.9470;-80.4800;-77.0300;-3.4500
1392.1460;-81.9400;-77.1800;-4.7600
1392.3450;-83.5800;-77.4700;-6.1100
1392.5440;-81.0800;-78.4200;-2.6600
1392.7430;-81.0300;-79.2700;-1.7600
1392.9430;-81.4800;-78.4700;-3.0100
1393.1420;-80.7500;-77.7100;-3.0400
1393.3410;-83.4100;-77.8300;-5.5800
1393.5400;-88.2600;-77.7400;-10.5200
1393.7390;-80.5700;-77.4900;-3.0800
1393.9380;-82.6500;-78.6400;-4.0100
1394.1370;-82.5100;-78.6700;-3.8400
1394.3360;-82.2400;-78.6900;-3.5500
1394.5350;-79.7400;-78.3200;-1.4200
1394.7350;-81.7600;-77.3900;-4.3700
1394.9340;-80.3600;-78.1600;-2.2000
1395.1330;-81.1200;-78.2600;-2.8600
1395.3320;-83.7600;-78.8400;-4.9200
1395.5310;-82.1800;-79.2300;-2.9500
1395.7300;-81.7600;-78.9900;-2.7700
1395.9290;-80.3200;-78.3200;-2.0000
1396.1280;-82.0000;-77.9700;-4.0300
1396.3270;-82.1200;-77.6200;-4.5000
1396.5270;-82.2400;-78.4200;-3.8200
1396.7260;-82.0000;-79.5000;-2.5000
1396.9250;-83.0100;-79.7100;-3.3000
1397.1240;-82.3700;-79.3600;-3.0100
1397.3230;-82.5100;-79.4300;-3.0800
1397.5220;-83.5800;-79.1700;-4.4100
1397.7210;-81.2200;-78.9900;-2.2300
1397.9200;-82.7200;-78.3900;-4.3300
1398.1200;-81.5400;-77.4300;-4.1100
1398.3190;-80.9300;-77.8700;-3.0600
1398.5180;-83.0200;-79.0000;-4.0200
1398.7170;-83.3400;-78.3800;-4.9600
1398.9160;-81.6600;-78.3500;-3.3100
1399.1150;-81.4400;-78.6500;-2.7900
1399.3140;-81.7100;-79.2100;-2.5000
1399.5130;-83.1000;-78.3800;-4.7200
1399.7120;-85.0200;-79.8600;-5.1600
1399.9120;-84.0500;-80.3300;-3.7200
1400.1110;-83.2600;-80.0100;-3.2500
1400.3100;-82.5200;-78.5400;-3.9800
1400.5090;-84.9000;-79.0000;-5.9000
1400.7080;-82.9500;-78.7000;-4.2500
1400.9070;-82.5200;-79.6100;-2.9100
1401.1060;-80.5800;-78.0300;-2.5500
1401.3050;-81.8300;-79.8600;-1.9700
1401.5040;-83.7700;-79.0600;-4.7100
1401.7040;-81.7100;-79.6800;-2.0300
1401.9030;-83.5900;-80.4100;-3.1800
1402.1020;-81.0900;-80.0900;-1.0000
1402.3010;-83.4200;-80.4900;-2.9300
1402.5000;-82.9500;-78.1500;-4.8000
1402.6990;-83.9500;-79.9000;-4.0500
1402.8980;-83.8600;-78.7600;-5.1000
1403.0970;-81.7100;-78.4800;-3.2300
1403.2970;-84.3500;-79.0300;-5.3200
1403.4960;-83.1000;-79.9300;-3.1700
1403.6950;-82.0700;-79.0000;-3.0700
1403.8940;-82.3800;-79.7200;-2.6600
1404.0930;-83.9500;-79.5100;-4.4400
1404.2920;-81.1800;-80.7100;-0.4700
1404.4910;-83.2600;-78.5400;-4.7200
1404.6900;-81.7700;-79.6500;-2.1200
1404.8890;-83.4200;-78.4800;-4.9400
1405.0890;-81.7100;-81.1800;-0.5300
1405.2880;-81.5500;-79.9000;-1.6500
1405.4870;-83.7700;-80.0500;-3.7200
1405.6860;-81.8900;-79.7200;-2.1700
1405.8850;-81.3900;-78.6500;-2.7400
1406.0840;-80.4100;-78.9700;-1.4400
1406.2830;-84.5600;-79.0600;-5.5000
1406.4820;-85.2600;-79.2100;-6.0500
1406.6810;-82.9600;-79.3500;-3.6100
1406.8810;-85.2700;-78.9200;-6.3500
1407.0800;-81.7800;-78.3600;-3.4200
1407.2790;-82.4600;-80.1000;-2.3600
1407.4780;-81.3500;-80.9500;-0.4000
1407.6770;-81.9000;-79.2500;-2.6500
1407.8760;-81.1400;-79.5200;-1.6200
1408.0750;-86.4400;-78.9500;-7.4900
1408.2740;-85.6800;-79.2500;-6.4300
1408.4740;-82.2000;-78.1300;-4.0700
1408.6730;-83.9600;-78.8300;-5.1300
1408.8720;-85.2700;-78.4400;-6.8300
1409.0710;-84.6800;-78.9200;-5.7600
1409.2700;-83.0300;-78.4400;-4.5900
1409.4690;-84.3600;-80.3800;-3.9800
1409.6680;-83.1900;-80.0200;-3.1700
1409.8670;-83.9600;-79.5200;-4.4400
1410.0660;-83.7800;-79.2200;-4.5600
1410.2660;-81.1400;-78.2600;-2.8800
1410.4650;-82.2000;-79.5200;-2.6800
1410.6640;-83.4300;-79.0100;-4.4200
1410.8630;-82.2600;-78.6900;-3.5700
1411.0620;-83.9600;-78.8000;-5.1600
1411.2610;-83.7800;-79.6600;-4.1200
1411.4600;-80.6300;-78.8000;-1.8300
1411.6590;-83.1100;-78.2600;-4.8500
1411.8580;-82.2600;-78.1300;-4.1300
1412.0580;-82.8800;-77.9600;-4.9200
1412.2570;-83.6000;-78.0900;-5.5100
1412.4560;-82.5300;-78.8600;-3.6700
1412.6550;-84.5700;-78.0400;-6.5300
1412.8540;-81.5000;-79.4800;-2.0200
1413.0530;-80.9500;-78.7100;-2.2400
1413.2520;-83.9600;-78.5500;-5.4100
1413.4510;-82.9600;-77.6700;-5.2900
1413.6500;-84.4700;-78.5000;-5.9700
1413.8500;-84.5800;-78.1700;-6.4100
1414.0490;-84.5800;-78.6700;-5.9100
1414.2480;-80.7800;-79.2600;-1.5200
1414.4470;-82.5400;-78.9900;-3.5500
1414.6460;-81.3100;-79.7400;-1.5700
1414.8450;-80.6900;-79.4600;-1.2300
1415.0440;-80.7800;-78.4500;-2.3300
1415.2430;-81.1500;-78.6700;-2.4800
1415.4430;-81.7900;-79.2300;-2.5600
1415.6420;-82.1500;-78.9000;-3.2500
1415.8410;-82.9700;-78.7200;-4.2500
1416.0400;-85.9800;-78.1400;-7.8400
1416.2390;-84.1600;-78.7200;-5.4400
1416.4380;-80.1100;-78.1900;-1.9200
1416.6370;-83.6100;-78.9000;-4.7100
1416.8360;-84.0700;-79.7000;-4.3700
1417.0350;-81.4600;-78.8400;-2.6200
1417.2350;-83.6100;-77.8800;-5.7300
1417.4340;-84.5800;-77.4600;-7.1200
1417.6330;-82.2100;-78.1200;-4.0900
1417.8320;-82.4000;-78.0000;-4.4000
1418.0310;-83.9700;-77.4200;-6.5500
1418.2300;-81.3100;-77.8100;-3.5000
1418.4290;-83.7000;-78.2400;-5.4600
1418.6280;-82.0300;-77.6800;-4.3500
1418.8270;-80.4300;-78.6100;-1.8200
1419.0270;-81.0100;-79.1400;-1.8700
1419.2260;-83.1200;-78.0500;-5.0700
1419.4250;-83.7900;-78.6700;-5.1200
1419.6240;-81.3600;-78.6100;-2.7500
1419.8230;-81.2500;-78.0500;-3.2000
1420.0220;-82.5400;-78.4500;-4.0900
1420.2210;-82.2100;-78.1000;-4.1100
1420.4200;-81.4600;-78.2400;-3.2200
1420.6200;-81.0100;-77.5500;-3.4600
1420.8190;-81.4600;-78.4800;-2.9800
1421.0180;-82.1500;-78.0200;-4.1300
1421.2170;-84.4700;-78.1000;-6.3700
1421.4160;-82.5400;-78.2200;-4.3200
1421.6150;-83.2100;-78.5700;-4.6400
1421.8140;-81.5200;-77.9400;-3.5800
1422.0130;-81.9200;-77.7800;-4.1400
1422.2120;-82.2800;-78.4600;-3.8200
1422.4120;-82.8300;-77.6900;-5.1400
1422.6110;-82.9000;-78.1500;-4.7500
1422.8100;-80.0800;-77.7100;-2.3700
1423.0090;-80.5200;-78.6200;-1.9000
1423.2080;-81.6900;-78.1100;-3.5800
1423.4070;-80.7000;-77.8700;-2.8300
1423.6060;-85.2900;-78.4600;-6.8300
1423.8050;-81.9200;-78.1100;-3.8100
1424.0040;-85.4200;-78.2000;-7.2200
1424.2040;-80.7900;-78.8200;-1.9700
1424.4030;-82.9000;-78.7900;-4.1100
1424.6020;-81.5800;-77.9600;-3.6200
1424.8010;-82.0400;-77.0900;-4.9500
1425.0000;-80.2800;-77.1900;-3.0900
