Wavelength;Intensity_Meas;Intensity_Ref;Difference_dB
1200.0000;-60.9400;-56.1700;-4.7700
1200.1990;-60.9100;-56.1300;-4.7800
1200.3980;-60.8600;-56.1000;-4.7600
1200.5970;-60.8500;-56.0800;-4.7700
1200.7970;-60.8200;-56.0500;-4.7700
1200.9960;-60.8000;-56.0200;-4.7800
1201.1950;-60.7800;-55.9700;-4.8100
1201.3940;-60.7400;-55.9300;-4.8100
1201.5930;-60.6800;-55.9000;-4.7800
1201.7920;-60.6200;-55.8500;-4.7700
1201.9910;-60.6300;-55.8100;-4.8200
1202.1900;-60.5600;-55.7500;-4.8100
1202.3890;-60.4900;-55.7000;-4.7900
1202.5890;-60.4400;-55.6600;-4.7800
1202.7880;-60.4500;-55.5900;-4.8600
1202.9870;-60.4200;-55.5400;-4.8800
1203.1860;-60.3400;-55.4800;-4.8600
1203.3850;-60.3100;-55.4400;-4.8700
1203.5840;-60.3400;-55.4200;-4.9200
1203.7830;-60.3200;-55.3500;-4.9700
1203.9820;-60.2800;-55.3200;-4.9600
1204.1810;-60.2400;-55.2800;-4.9600
1204.3810;-60.2700;-55.2400;-5.0300
1204.5800;-60.2800;-55.2300;-5.0500
1204.7790;-60.2300;-55.1800;-5.0500
1204.9780;-60.2100;-55.1500;-5.0600
1205.1770;-60.2000;-55.1200;-5.0800
1205.3760;-60.1800;-55.0900;-5.0900
1205.5750;-60.2200;-55.0900;-5.1300
1205.7740;-60.2000;-55.0500;-5.1500
1205.9740;-60.1600;-55.0400;-5.1200
1206.1730;-60.1600;-55.0200;-5.1400
1206.3720;-60.1600;-54.9900;-5.1700
1206.5710;-60.1300;-54.9800;-5.1500
1206.7700;-60.0600;-54.9500;-5.1100
1206.9690;-60.0700;-54.9300;-5.1400
1207.1680;-60.0700;-54.9000;-5.1700
1207.3670;-60.0200;-54.8600;-5.1600
1207.5660;-59.9800;-54.8500;-5.1300
1207.7660;-59.9500;-54.8000;-5.1500
1207.9650;-59.9300;-54.7700;-5.1600
1208.1640;-59.9000;-54.7200;-5.1800
1208.3630;-59.8400;-54.6800;-5.1600
1208.5620;-59.8100;-54.6500;-5.1600
1208.7610;-59.8000;-54.5800;-5.2200
1208.9600;-59.7600;-54.5400;-5.2200
1209.1590;-59.7000;-54.4900;-5.2100
1209.3580;-59.6200;-54.4300;-5.1900
1209.5580;-59.6300;-54.4000;-5.2300
1209.7570;-59.5800;-54.3400;-5.2400
1209.9560;-59.5100;-54.2800;-5.2300
1210.1550;-59.4600;-54.2300;-5.2300
1210.3540;-59.4200;-54.1800;-5.2400
1210.5530;-59.4100;-54.1400;-5.2700
1210.7520;-59.3300;-54.0800;-5.2500
1210.9510;-59.2600;-54.0300;-5.2300
1211.1500;-59.2400;-54.0000;-5.2400
1211.3500;-59.2100;-53.9500;-5.2600
1211.5490;-59.1700;-53.9200;-5.2500
1211.7480;-59.1000;-53.8800;-5.2200
1211.9470;-59.0700;-53.8400;-5.2300
1212.1460;-59.0600;-53.8200;-5.2400
1212.3450;-59.0400;-53.7700;-5.2700
1212.5440;-59.0300;-53.7600;-5.2700
1212.7430;-58.9700;-53.7200;-5.2500
1212.9430;-58.9900;-53.6800;-5.3100
1213.1420;-59.0000;-53.6700;-5.3300
1213.3410;-58.9600;-53.6300;-5.3300
1213.5400;-58.9800;-53.6100;-5.3700
1213.7390;-58.9800;-53.5700;-5.4100
1213.9380;-59.0200;-53.5300;-5.4900
1214.1370;-59.0000;-53.5100;-5.4900
1214.3360;-58.9700;-53.4600;-5.5100
1214.5350;-59.0200;-53.4400;-5.5800
1214.7350;-59.0400;-53.3900;-5.6500
1214.9340;-59.0000;-53.3400;-5.6600
1215.1330;-58.9900;-53.2900;-5.7000
1215.3320;-58.9900;-53.2400;-5.7500
1215.5310;-59.0100;-53.2000;-5.8100
1215.7300;-58.9800;-53.1400;-5.8400
1215.9290;-58.9300;-53.0800;-5.8500
1216.1280;-58.9100;-53.0300;-5.8800
1216.3270;-58.9100;-52.9600;-5.9500
1216.5270;-58.8900;-52.9200;-5.9700
1216.7260;-58.8100;-52.8600;-5.9500
1216.9250;-58.7500;-52.7900;-5.9600
1217.1240;-58.7400;-52.7400;-6.0000
1217.3230;-58.7000;-52.6700;-6.0300
1217.5220;-58.6500;-52.6300;-6.0200
1217.7210;-58.5900;-52.5700;-6.0200
1217.9200;-58.5600;-52.5200;-6.0400
1218.1200;-58.5500;-52.4800;-6.0700
1218.3190;-58.4800;-52.4200;-6.0600
1218.5180;-58.4500;-52.3900;-6.0600
1218.7170;-58.4300;-52.3400;-6.0900
1218.9160;-58.4000;-52.2900;-6.1100
1219.1150;-58.3500;-52.2600;-6.0900
1219.3140;-58.2900;-52.2100;-6.0800
1219.5130;-58.2700;-52.1900;-6.0800
1219.7120;-58.2500;-52.1500;-6.1000
1219.9120;-58.1900;-52.1100;-6.0800
1220.1110;-58.1200;-52.0700;-6.0500
1220.3100;-58.0800;-52.0300;-6.0500
1220.5090;-58.0600;-52.0000;-6.0600
1220.7080;-57.9600;-51.9500;-6.0100
1220.9070;-57.8800;-51.9100;-5.9700
1221.1060;-57.8200;-51.8500;-5.9700
1221.3050;-57.7600;-51.8000;-5.9600
1221.5040;-57.6700;-51.7500;-5.9200
1221.7040;-57.5500;-51.6800;-5.8700
1221.9030;-57.4600;-51.6300;-5.8300
1222.1020;-57.3800;-51.5700;-5.8100
1222.3010;-57.2700;-51.5000;-5.7700
1222.5000;-57.1600;-51.4300;-5.7300
1222.6990;-57.0500;-51.3600;-5.6900
1222.8980;-56.9600;-51.2900;-5.6700
1223.0970;-56.8400;-51.2200;-5.6200
1223.2970;-56.7100;-51.1500;-5.5600
1223.4960;-56.6000;-51.0800;-5.5200
1223.6950;-56.5100;-51.0000;-5.5100
1223.8940;-56.4200;-50.9400;-5.4800
1224.0930;-56.2900;-50.8700;-5.4200
1224.2920;-56.1800;-50.8000;-5.3800
1224.4910;-56.1200;-50.7400;-5.3800
1224.6900;-56.0200;-50.6700;-5.3500
1224.8890;-55.9000;-50.6000;-5.3000
1225.0890;-55.8200;-50.5500;-5.2700
1225.2880;-55.7600;-50.4800;-5.2800
1225.4870;-55.6800;-50.4300;-5.2500
1225.6860;-55.6000;-50.3700;-5.2300
1225.8850;-55.5500;-50.3200;-5.2300
1226.0840;-55.4800;-50.2700;-5.2100
1226.2830;-55.4200;-50.2100;-5.2100
1226.4820;-55.3500;-50.1600;-5.1900
1226.6810;-55.2900;-50.1100;-5.1800
1226.8810;-55.2500;-50.0600;-5.1900
1227.0800;-55.1800;-50.0000;-5.1800
1227.2790;-55.0900;-49.9500;-5.1400
1227.4780;-55.0600;-49.8900;-5.1700
1227.6770;-54.9900;-49.8300;-5.1600
1227.8760;-54.9300;-49.7700;-5.1600
1228.0750;-54.8400;-49.7100;-5.1300
1228.2740;-54.7800;-49.6400;-5.1400
1228.4740;-54.7300;-49.5700;-5.1600
1228.6730;-54.6600;-49.4900;-5.1700
1228.8720;-54.5900;-49.4200;-5.1700
1229.0710;-54.5200;-49.3500;-5.1700
1229.2700;-54.4800;-49.2600;-5.2200
1229.4690;-54.4100;-49.1900;-5.2200
1229.6680;-54.3500;-49.1000;-5.2500
1229.8670;-54.3100;-49.0100;-5.3000
1230.0660;-54.2700;-48.9500;-5.3200
1230.2660;-54.2200;-48.8500;-5.3700
1230.4650;-54.1900;-48.7700;-5.4200
1230.6640;-54.1700;-48.6900;-5.4800
1230.8630;-54.1600;-48.6200;-5.5400
1231.0620;-54.1400;-48.5500;-5.5900
1231.2610;-54.1300;-48.4800;-5.6500
1231.4600;-54.1600;-48.4300;-5.7300
1231.6590;-54.1400;-48.3500;-5.7900
1231.8580;-54.1400;-48.2800;-5.8600
1232.0580;-54.1500;-48.2300;-5.9200
1232.2570;-54.1400;-48.1600;-5.9800
1232.4560;-54.1700;-48.1200;-6.0500
1232.6550;-54.1400;-48.0400;-6.1000
1232.8540;-54.1400;-47.9800;-6.1600
1233.0530;-54.1400;-47.9300;-6.2100
1233.2520;-54.1200;-47.8600;-6.2600
1233.4510;-54.1000;-47.8100;-6.2900
1233.6500;-54.0800;-47.7400;-6.3400
1233.8500;-54.0600;-47.6800;-6.3800
1234.0490;-54.0300;-47.6200;-6.4100
1234.2480;-53.9700;-47.5400;-6.4300
1234.4470;-53.9400;-47.4800;-6.4600
1234.6460;-53.9000;-47.4000;-6.5000
1234.8450;-53.8500;-47.3300;-6.5200
1235.0440;-53.7800;-47.2400;-6.5400
1235.2430;-53.7200;-47.1600;-6.5600
1235.4430;-53.6600;-47.0800;-6.5800
1235.6420;-53.5800;-46.9800;-6.6000
1235.8410;-53.5000;-46.9000;-6.6000
1236.0400;-53.4200;-46.8100;-6.6100
1236.2390;-53.3300;-46.7100;-6.6200
1236.4380;-53.2300;-46.6200;-6.6100
1236.6370;-53.1300;-46.5300;-6.6000
1236.8360;-53.0500;-46.4400;-6.6100
1237.0350;-52.9400;-46.3400;-6.6000
1237.2350;-52.8300;-46.2500;-6.5800
1237.4340;-52.7200;-46.1600;-6.5600
1237.6330;-52.6100;-46.0700;-6.5400
1237.8320;-52.5200;-46.0000;-6.5200
1238.0310;-52.3800;-45.8900;-6.4900
1238.2300;-52.2800;-45.8300;-6.4500
1238.4290;-52.1700;-45.7300;-6.4400
1238.6280;-52.0600;-45.6600;-6.4000
1238.8270;-51.9500;-45.5800;-6.3700
1239.0270;-51.8400;-45.5000;-6.3400
1239.2260;-51.7200;-45.4200;-6.3000
1239.4250;-51.6100;-45.3300;-6.2800
1239.6240;-51.5000;-45.2500;-6.2500
1239.8230;-51.4000;-45.1600;-6.2400
1240.0220;-51.2900;-45.0700;-6.2200
1240.2210;-51.1800;-44.9900;-6.1900
1240.4200;-51.0700;-44.8800;-6.1900
1240.6200;-50.9600;-44.8000;-6.1600
1240.8190;-50.8600;-44.6900;-6.1700
1241.0180;-50.7100;-44.5700;-6.1400
1241.2170;-50.6000;-44.4700;-6.1300
1241.4160;-50.4800;-44.3500;-6.1300
1241.6150;-50.3500;-44.2300;-6.1200
1241.8140;-50.2300;-44.1100;-6.1200
1242.0130;-50.0900;-43.9900;-6.1000
1242.2120;-49.9500;-43.8800;-6.0700
1242.4120;-49.8200;-43.7400;-6.0800
1242.6110;-49.6600;-43.6100;-6.0500
1242.8100;-49.5300;-43.4900;-6.0400
1243.0090;-49.3700;-43.3500;-6.0200
1243.2080;-49.2200;-43.2300;-5.9900
1243.4070;-49.0800;-43.0900;-5.9900
1243.6060;-48.9200;-42.9700;-5.9500
1243.8050;-48.7900;-42.8400;-5.9500
1244.0040;-48.6200;-42.7100;-5.9100
1244.2040;-48.4700;-42.6000;-5.8700
1244.4030;-48.3300;-42.4600;-5.8700
1244.6020;-48.1700;-42.3400;-5.8300
1244.8010;-48.0300;-42.2200;-5.8100
1245.0000;-47.8600;-42.0900;-5.7700
1245.1990;-47.7100;-41.9900;-5.7200
1245.3980;-47.5500;-41.8600;-5.6900
1245.5970;-47.3700;-41.7300;-5.6400
1245.7970;-47.2100;-41.6100;-5.6000
1245.9960;-47.0100;-41.4800;-5.5300
1246.1950;-46.8200;-41.3600;-5.4600
1246.3940;-46.6200;-41.2300;-5.3900
1246.5930;-46.4100;-41.0900;-5.3200
1246.7920;-46.2100;-40.9600;-5.2500
1246.9910;-45.9700;-40.8100;-5.1600
1247.1900;-45.7200;-40.6900;-5.0300
1247.3890;-45.5100;-40.5400;-4.9700
1247.5890;-45.2700;-40.3900;-4.8800
1247.7880;-45.0300;-40.2500;-4.7800
1247.9870;-44.7700;-40.0900;-4.6800
1248.1860;-44.5400;-39.9500;-4.5900
1248.3850;-44.2800;-39.7900;-4.4900
1248.5840;-44.0400;-39.6300;-4.4100
1248.7830;-43.7900;-39.4900;-4.3000
1248.9820;-43.5500;-39.3300;-4.2200
1249.1810;-43.3200;-39.1900;-4.1300
1249.3810;-43.0800;-39.0300;-4.0500
1249.5800;-42.8500;-38.8700;-3.9800
1249.7790;-42.6100;-38.7300;-3.8800
1249.9780;-42.3800;-38.5600;-3.8200
1250.1770;-42.1900;-38.4300;-3.7600
1250.3760;-41.9600;-38.2700;-3.6900
1250.5750;-41.7500;-38.1200;-3.6300
1250.7740;-41.5400;-37.9800;-3.5600
1250.9740;-41.3500;-37.8500;-3.5000
1251.1730;-41.1600;-37.7200;-3.4400
1251.3720;-40.9600;-37.5600;-3.4000
1251.5710;-40.7900;-37.4400;-3.3500
1251.7700;-40.6100;-37.2900;-3.3200
1251.9690;-40.4300;-37.1500;-3.2800
1252.1680;-40.2700;-37.0100;-3.2600
1252.3670;-40.1000;-36.8600;-3.2400
1252.5660;-39.9600;-36.7300;-3.2300
1252.7660;-39.8000;-36.5700;-3.2300
1252.9650;-39.6700;-36.4300;-3.2400
1253.1640;-39.5500;-36.2900;-3.2600
1253.3630;-39.4100;-36.1200;-3.2900
1253.5620;-39.3100;-35.9900;-3.3200
1253.7610;-39.1900;-35.8000;-3.3900
1253.9600;-39.1000;-35.6800;-3.4200
1254.1590;-39.0100;-35.5100;-3.5000
1254.3580;-38.9200;-35.3500;-3.5700
1254.5580;-38.8500;-35.2100;-3.6400
1254.7570;-38.7600;-35.0400;-3.7200
1254.9560;-38.6800;-34.8900;-3.7900
1255.1550;-38.6300;-34.7300;-3.9000
1255.3540;-38.5600;-34.5700;-3.9900
1255.5530;-38.5200;-34.4300;-4.0900
1255.7520;-38.4500;-34.2700;-4.1800
1255.9510;-38.3900;-34.1300;-4.2600
1256.1500;-38.3500;-33.9700;-4.3800
1256.3500;-38.2900;-33.8400;-4.4500
1256.5490;-38.2600;-33.7100;-4.5500
1256.7480;-38.1900;-33.5600;-4.6300
1256.9470;-38.1400;-33.4300;-4.7100
1257.1460;-38.0900;-33.2900;-4.8000
1257.3450;-38.0300;-33.1500;-4.8800
1257.5440;-37.9900;-33.0300;-4.9600
1257.7430;-37.9100;-32.8800;-5.0300
1257.9430;-37.8400;-32.7500;-5.0900
1258.1420;-37.7600;-32.6100;-5.1500
1258.3410;-37.6600;-32.4700;-5.1900
1258.5400;-37.5700;-32.3500;-5.2200
1258.7390;-37.4200;-32.2000;-5.2200
1258.9380;-37.2700;-32.0700;-5.2000
1259.1370;-37.1100;-31.9200;-5.1900
1259.3360;-36.9200;-31.7800;-5.1400
1259.5350;-36.7300;-31.6400;-5.0900
1259.7350;-36.5000;-31.4900;-5.0100
1259.9340;-36.2600;-31.3500;-4.9100
1260.1330;-36.0100;-31.2000;-4.8100
1260.3320;-35.7000;-31.0600;-4.6400
1260.5310;-35.4600;-30.9200;-4.5400
1260.7300;-35.1800;-30.7700;-4.4100
1260.9290;-34.9000;-30.6400;-4.2600
1261.1280;-34.6000;-30.4900;-4.1100
1261.3270;-34.3100;-30.3600;-3.9500
1261.5270;-34.0200;-30.2300;-3.7900
1261.7260;-33.7300;-30.1000;-3.6300
1261.9250;-33.4500;-29.9700;-3.4800
1262.1240;-33.1600;-29.8300;-3.3300
1262.3230;-32.8900;-29.7100;-3.1800
1262.5220;-32.6100;-29.5900;-3.0200
1262.7210;-32.3400;-29.4600;-2.8800
1262.9200;-32.0900;-29.3500;-2.7400
1263.1200;-31.8300;-29.2200;-2.6100
1263.3190;-31.5800;-29.1000;-2.4800
1263.5180;-31.3400;-28.9800;-2.3600
1263.7170;-31.1100;-28.8600;-2.2500
1263.9160;-30.8900;-28.7400;-2.1500
1264.1150;-30.6700;-28.6000;-2.0700
1264.3140;-30.4600;-28.4800;-1.9800
1264.5130;-30.2600;-28.3500;-1.9100
1264.7120;-30.0700;-28.2200;-1.8500
1264.9120;-29.8900;-28.1000;-1.7900
1265.1110;-29.7200;-27.9600;-1.7600
1265.3100;-29.5700;-27.8300;-1.7400
1265.5090;-29.4200;-27.7000;-1.7200
1265.7080;-29.2800;-27.5700;-1.7100
1265.9070;-29.1600;-27.4400;-1.7200
1266.1060;-29.0400;-27.3000;-1.7400
1266.3050;-28.9500;-27.1800;-1.7700
1266.5040;-28.8600;-27.0500;-1.8100
1266.7040;-28.7900;-26.9300;-1.8600
1266.9030;-28.7300;-26.8000;-1.9300
1267.1020;-28.6800;-26.6700;-2.0100
1267.3010;-28.6500;-26.5600;-2.0900
1267.5000;-28.6300;-26.4300;-2.2000
1267.6990;-28.6200;-26.3200;-2.3000
1267.8980;-28.6300;-26.2000;-2.4300
1268.0970;-28.6500;-26.0700;-2.5800
1268.2970;-28.6900;-25.9700;-2.7200
1268.4960;-28.7300;-25.8600;-2.8700
1268.6950;-28.7900;-25.7500;-3.0400
1268.8940;-28.8600;-25.6200;-3.2400
1269.0930;-28.9400;-25.5100;-3.4300
1269.2920;-29.0500;-25.3900;-3.6600
1269.4910;-29.1500;-25.2800;-3.8700
1269.6900;-29.2700;-25.1700;-4.1000
1269.8890;-29.4000;-25.0400;-4.3600
1270.0890;-29.5300;-24.9200;-4.6100
1270.2880;-29.6800;-24.8000;-4.8800
1270.4870;-29.8300;-24.6900;-5.1400
1270.6860;-29.9800;-24.5700;-5.4100
1270.8850;-30.1200;-24.4400;-5.6800
1271.0840;-30.2400;-24.3200;-5.9200
1271.2830;-30.3800;-24.2000;-6.1800
1271.4820;-30.4600;-24.0800;-6.3800
1271.6810;-30.5500;-23.9700;-6.5800
1271.8810;-30.6000;-23.8300;-6.7700
1272.0800;-30.6100;-23.7300;-6.8800
1272.2790;-30.6100;-23.6100;-7.0000
1272.4780;-30.5400;-23.4900;-7.0500
1272.6770;-30.4500;-23.3900;-7.0600
1272.8760;-30.3100;-23.2700;-7.0400
1273.0750;-30.1300;-23.1700;-6.9600
1273.2740;-29.9200;-23.0600;-6.8600
1273.4740;-29.6700;-22.9500;-6.7200
1273.6730;-29.4000;-22.8600;-6.5400
1273.8720;-29.0800;-22.7500;-6.3300
1274.0710;-28.7400;-22.6600;-6.0800
1274.2700;-28.4000;-22.5500;-5.8500
1274.4690;-28.0300;-22.4500;-5.5800
1274.6680;-27.6700;-22.3600;-5.3100
1274.8670;-27.2700;-22.2500;-5.0200
1275.0660;-26.8900;-22.1700;-4.7200
1275.2660;-26.5000;-22.0600;-4.4400
1275.4650;-26.0600;-21.9600;-4.1000
1275.6640;-25.7500;-21.8700;-3.8800
1275.8630;-25.3800;-21.7700;-3.6100
1276.0620;-25.0300;-21.6800;-3.3500
1276.2610;-24.6700;-21.5800;-3.0900
1276.4600;-24.3400;-21.4800;-2.8600
1276.6590;-24.0100;-21.3800;-2.6300
1276.8580;-23.6900;-21.2800;-2.4100
1277.0580;-23.4100;-21.2000;-2.2100
1277.2570;-23.1200;-21.0900;-2.0300
1277.4560;-22.8500;-21.0100;-1.8400
1277.6550;-22.6000;-20.9200;-1.6800
1277.8540;-22.3500;-20.8300;-1.5200
1278.0530;-22.1300;-20.7500;-1.3800
1278.2520;-21.9100;-20.6600;-1.2500
1278.4510;-21.7100;-20.5800;-1.1300
1278.6500;-21.5000;-20.4900;-1.0100
1278.8500;-21.3100;-20.4100;-0.9000
1279.0490;-21.1500;-20.3400;-0.8100
1279.2480;-20.9700;-20.2500;-0.7200
1279.4470;-20.8300;-20.1900;-0.6400
1279.6460;-20.6800;-20.1000;-0.5800
1279.8450;-20.5400;-20.0200;-0.5200
1280.0440;-20.4200;-19.9500;-0.4700
1280.2430;-20.3000;-19.8700;-0.4300
1280.4430;-20.2100;-19.8100;-0.4000
1280.6420;-20.1000;-19.7200;-0.3800
1280.8410;-20.0200;-19.6400;-0.3800
1281.0400;-19.9500;-19.5700;-0.3800
1281.2390;-19.8800;-19.4900;-0.3900
1281.4380;-19.8400;-19.4200;-0.4200
1281.6370;-19.7900;-19.3300;-0.4600
1281.8360;-19.7600;-19.2500;-0.5100
1282.0350;-19.7300;-19.1700;-0.5600
1282.2350;-19.7200;-19.0800;-0.6400
1282.4340;-19.7300;-19.0200;-0.7100
1282.6330;-19.7300;-18.9400;-0.7900
1282.8320;-19.7600;-18.8600;-0.9000
1283.0310;-19.7800;-18.7800;-1.0000
1283.2300;-19.8100;-18.7000;-1.1100
1283.4290;-19.8700;-18.6400;-1.2300
1283.6280;-19.9100;-18.5500;-1.3600
1283.8270;-19.9800;-18.4900;-1.4900
1284.0270;-20.0400;-18.4100;-1.6300
1284.2260;-20.1100;-18.3300;-1.7800
1284.4250;-20.2000;-18.2800;-1.9200
1284.6240;-20.2800;-18.2000;-2.0800
1284.8230;-20.3800;-18.1300;-2.2500
1285.0220;-20.4600;-18.0500;-2.4100
1285.2210;-20.5500;-17.9800;-2.5700
1285.4200;-20.6600;-17.9200;-2.7400
1285.6200;-20.7400;-17.8400;-2.9000
1285.8190;-20.8400;-17.7800;-3.0600
1286.0180;-20.9100;-17.7000;-3.2100
1286.2170;-20.9900;-17.6300;-3.3600
1286.4160;-21.0700;-17.5700;-3.5000
1286.6150;-21.1300;-17.5000;-3.6300
1286.8140;-21.2000;-17.4400;-3.7600
1287.0130;-21.2100;-17.3600;-3.8500
1287.2120;-21.2300;-17.2900;-3.9400
1287.4120;-21.2400;-17.2200;-4.0200
1287.6110;-21.2200;-17.1500;-4.0700
1287.8100;-21.2000;-17.1000;-4.1000
1288.0090;-21.1400;-17.0200;-4.1200
1288.2080;-21.0800;-16.9600;-4.1200
1288.4070;-21.0000;-16.9000;-4.1000
1288.6060;-20.9000;-16.8300;-4.0700
1288.8050;-20.8000;-16.7800;-4.0200
1289.0040;-20.6700;-16.7100;-3.9600
1289.2040;-20.5400;-16.6600;-3.8800
1289.4030;-20.4000;-16.6000;-3.8000
1289.6020;-20.2400;-16.5500;-3.6900
1289.8010;-20.1100;-16.5000;-3.6100
1290.0000;-19.9400;-16.4300;-3.5100
1290.1990;-19.7900;-16.3900;-3.4000
1290.3980;-19.6200;-16.3300;-3.2900
1290.5970;-19.4600;-16.2900;-3.1700
1290.7970;-19.3100;-16.2500;-3.0600
1290.9960;-19.1400;-16.1800;-2.9600
1291.1950;-19.0000;-16.1400;-2.8600
1291.3940;-18.8400;-16.0800;-2.7600
1291.5930;-18.6900;-16.0400;-2.6500
1291.7920;-18.5700;-15.9800;-2.5900
1291.9910;-18.4300;-15.9400;-2.4900
1292.1900;-18.3300;-15.8900;-2.4400
1292.3890;-18.2100;-15.8500;-2.3600
1292.5890;-18.1100;-15.8000;-2.3100
1292.7880;-18.0100;-15.7500;-2.2600
1292.9870;-17.9300;-15.7100;-2.2200
1293.1860;-17.8700;-15.6600;-2.2100
1293.3850;-17.7900;-15.6200;-2.1700
1293.5840;-17.7400;-15.5800;-2.1600
1293.7830;-17.6800;-15.5300;-2.1500
1293.9820;-17.6400;-15.5000;-2.1400
1294.1810;-17.6200;-15.4500;-2.1700
1294.3810;-17.5900;-15.4200;-2.1700
1294.5800;-17.5800;-15.3800;-2.2000
1294.7790;-17.5600;-15.3400;-2.2200
1294.9780;-17.5500;-15.3100;-2.2400
1295.1770;-17.5600;-15.2700;-2.2900
1295.3760;-17.5600;-15.2400;-2.3200
1295.5750;-17.5800;-15.2000;-2.3800
1295.7740;-17.5800;-15.1600;-2.4200
1295.9740;-17.6000;-15.1300;-2.4700
1296.1730;-17.6100;-15.0800;-2.5300
1296.3720;-17.6300;-15.0600;-2.5700
1296.5710;-17.6500;-15.0200;-2.6300
1296.7700;-17.6600;-14.9800;-2.6800
1296.9690;-17.6900;-14.9600;-2.7300
1297.1680;-17.6900;-14.9300;-2.7600
1297.3670;-17.7100;-14.9000;-2.8100
1297.5660;-17.7000;-14.8500;-2.8500
1297.7660;-17.7000;-14.8200;-2.8800
1297.9650;-17.7100;-14.8000;-2.9100
1298.1640;-17.6800;-14.7600;-2.9200
1298.3630;-17.6600;-14.7400;-2.9200
1298.5620;-17.6200;-14.7000;-2.9200
1298.7610;-17.5800;-14.6700;-2.9100
1298.9600;-17.5500;-14.6500;-2.9000
1299.1590;-17.4800;-14.6200;-2.8600
1299.3580;-17.4300;-14.6000;-2.8300
1299.5580;-17.3400;-14.5600;-2.7800
1299.7570;-17.2500;-14.5400;-2.7100
1299.9560;-17.1700;-14.5200;-2.6500
1300.1550;-17.0700;-14.4900;-2.5800
1300.3540;-16.9800;-14.4800;-2.5000
1300.5530;-16.8400;-14.4300;-2.4100
1300.7520;-16.7300;-14.4100;-2.3200
1300.9510;-16.6200;-14.3900;-2.2300
1301.1500;-16.5000;-14.3800;-2.1200
1301.3500;-16.3900;-14.3700;-2.0200
1301.5490;-16.2600;-14.3500;-1.9100
1301.7480;-16.1500;-14.3400;-1.8100
1301.9470;-16.0000;-14.3200;-1.6800
1302.1460;-15.9300;-14.3100;-1.6200
1302.3450;-15.8000;-14.3000;-1.5000
1302.5440;-15.7000;-14.2800;-1.4200
1302.7430;-15.6100;-14.2800;-1.3300
1302.9430;-15.5000;-14.2600;-1.2400
1303.1420;-15.4300;-14.2500;-1.1800
1303.3410;-15.3300;-14.2400;-1.0900
1303.5400;-15.2700;-14.2400;-1.0300
1303.7390;-15.2000;-14.2400;-0.9600
1303.9380;-15.1400;-14.2100;-0.9300
1304.1370;-15.1100;-14.2200;-0.8900
1304.3360;-15.0500;-14.2100;-0.8400
1304.5350;-15.0300;-14.2100;-0.8200
1304.7350;-15.0000;-14.2200;-0.7800
1304.9340;-14.9800;-14.2100;-0.7700
1305.1330;-15.0000;-14.2200;-0.7800
1305.3320;-14.9900;-14.2100;-0.7800
1305.5310;-15.0100;-14.2200;-0.7900
1305.7300;-15.0300;-14.2300;-0.8000
1305.9290;-15.0700;-14.2200;-0.8500
1306.1280;-15.1300;-14.2400;-0.8900
1306.3270;-15.1700;-14.2400;-0.9300
1306.5270;-15.2600;-14.2500;-1.0100
1306.7260;-15.3300;-14.2600;-1.0700
1306.9250;-15.4300;-14.2600;-1.1700
1307.1240;-15.5500;-14.2800;-1.2700
1307.3230;-15.6600;-14.2800;-1.3800
1307.5220;-15.8200;-14.3000;-1.5200
1307.7210;-15.9600;-14.3100;-1.6500
1307.9200;-16.1200;-14.3100;-1.8100
1308.1200;-16.3200;-14.3500;-1.9700
1308.3190;-16.5100;-14.3500;-2.1600
1308.5180;-16.7400;-14.3700;-2.3700
1308.7170;-16.9500;-14.3800;-2.5700
1308.9160;-17.1900;-14.3900;-2.8000
1309.1150;-17.4600;-14.4300;-3.0300
1309.3140;-17.7300;-14.4300;-3.3000
1309.5130;-18.0400;-14.4700;-3.5700
1309.7120;-18.4000;-14.4800;-3.9200
1309.9120;-18.6800;-14.5000;-4.1800
1310.1110;-19.0200;-14.5400;-4.4800
1310.3100;-19.3800;-14.5500;-4.8300
1310.5090;-19.7700;-14.5900;-5.1800
1310.7080;-20.1800;-14.6000;-5.5800
1310.9070;-20.6200;-14.6200;-6.0000
1311.1060;-21.0700;-14.6600;-6.4100
1311.3050;-21.5400;-14.6700;-6.8700
1311.5040;-22.0200;-14.7200;-7.3000
1311.7040;-22.5100;-14.7300;-7.7800
1311.9030;-23.0200;-14.7700;-8.2500
1312.1020;-23.5100;-14.7900;-8.7200
1312.3010;-24.0100;-14.8200;-9.1900
1312.5000;-24.4700;-14.8700;-9.6000
1312.6990;-24.9100;-14.9000;-10.0100
1312.8980;-25.3000;-14.9400;-10.3600
1313.0970;-25.6000;-14.9600;-10.6400
1313.2970;-25.8400;-15.0000;-10.8400
1313.4960;-25.9700;-15.0500;-10.9200
1313.6950;-26.0000;-15.0800;-10.9200
1313.8940;-25.9400;-15.1300;-10.8100
1314.0930;-25.8100;-15.1600;-10.6500
1314.2920;-25.6200;-15.2100;-10.4100
1314.4910;-25.3600;-15.2600;-10.1000
1314.6900;-25.0700;-15.3000;-9.7700
1314.8890;-24.7500;-15.3500;-9.4000
1315.0890;-24.4100;-15.3800;-9.0300
1315.2880;-24.0900;-15.4400;-8.6500
1315.4870;-23.7700;-15.4800;-8.2900
1315.6860;-23.4700;-15.5300;-7.9400
1315.8850;-23.1700;-15.5800;-7.5900
1316.0840;-22.8900;-15.6300;-7.2600
1316.2830;-22.6500;-15.6900;-6.9600
1316.4820;-22.4200;-15.7400;-6.6800
1316.6810;-22.2300;-15.7900;-6.4400
1316.8810;-22.0300;-15.8500;-6.1800
1317.0800;-21.8800;-15.9100;-5.9700
1317.2790;-21.7300;-15.9800;-5.7500
1317.4780;-21.6200;-16.0400;-5.5800
1317.6770;-21.5300;-16.1100;-5.4200
1317.8760;-21.4400;-16.1600;-5.2800
1318.0750;-21.3800;-16.2200;-5.1600
1318.2740;-21.3300;-16.2900;-5.0400
1318.4740;-21.3100;-16.3500;-4.9600
1318.6730;-21.3300;-16.4500;-4.8800
1318.8720;-21.3300;-16.5000;-4.8300
1319.0710;-21.3900;-16.5800;-4.8100
1319.2700;-21.4300;-16.6500;-4.7800
1319.4690;-21.5000;-16.7200;-4.7800
1319.6680;-21.6000;-16.8100;-4.7900
1319.8670;-21.7000;-16.8800;-4.8200
1320.0660;-21.8400;-16.9600;-4.8800
1320.2660;-21.9700;-17.0300;-4.9400
1320.4650;-22.1400;-17.1100;-5.0300
1320.6640;-22.3100;-17.2100;-5.1000
1320.8630;-22.5000;-17.2900;-5.2100
1321.0620;-22.7100;-17.3800;-5.3300
1321.2610;-22.9200;-17.4500;-5.4700
1321.4600;-23.1600;-17.5500;-5.6100
1321.6590;-23.3800;-17.6300;-5.7500
1321.8580;-23.6300;-17.7100;-5.9200
1322.0580;-23.9000;-17.8200;-6.0800
1322.2570;-24.1500;-17.9000;-6.2500
1322.4560;-24.4300;-18.0100;-6.4200
1322.6550;-24.6800;-18.0900;-6.5900
1322.8540;-24.9400;-18.1900;-6.7500
1323.0530;-25.1900;-18.2900;-6.9000
1323.2520;-25.4300;-18.3900;-7.0400
1323.4510;-25.6700;-18.5100;-7.1600
1323.6500;-25.8600;-18.5900;-7.2700
1323.8500;-26.0500;-18.7000;-7.3500
1324.0490;-26.1800;-18.8000;-7.3800
1324.2480;-26.2900;-18.9100;-7.3800
1324.4470;-26.3900;-19.0200;-7.3700
1324.6460;-26.4200;-19.1200;-7.3000
1324.8450;-26.4300;-19.2400;-7.1900
1325.0440;-26.4000;-19.3400;-7.0600
1325.2430;-26.3400;-19.4600;-6.8800
1325.4430;-26.2600;-19.5700;-6.6900
1325.6420;-26.1600;-19.6900;-6.4700
1325.8410;-26.0500;-19.8100;-6.2400
1326.0400;-25.9000;-19.9200;-5.9800
1326.2390;-25.7500;-20.0500;-5.7000
1326.4380;-25.5900;-20.1600;-5.4300
1326.6370;-25.4300;-20.2800;-5.1500
1326.8360;-25.2900;-20.4000;-4.8900
1327.0350;-25.1300;-20.5200;-4.6100
1327.2350;-25.0000;-20.6600;-4.3400
1327.4340;-24.8600;-20.7700;-4.0900
1327.6330;-24.7300;-20.9000;-3.8300
1327.8320;-24.6200;-21.0200;-3.6000
1328.0310;-24.5100;-21.1500;-3.3600
1328.2300;-24.4200;-21.2900;-3.1300
1328.4290;-24.3300;-21.4100;-2.9200
1328.6280;-24.2600;-21.5600;-2.7000
1328.8270;-24.2100;-21.6800;-2.5300
1329.0270;-24.1600;-21.8100;-2.3500
1329.2260;-24.1500;-21.9600;-2.1900
1329.4250;-24.1200;-22.0800;-2.0400
1329.6240;-24.1100;-22.2300;-1.8800
1329.8230;-24.1100;-22.3500;-1.7600
1330.0220;-24.1300;-22.4900;-1.6400
1330.2210;-24.1800;-22.6400;-1.5400
1330.4200;-24.2200;-22.7700;-1.4500
1330.6200;-24.2800;-22.9200;-1.3600
1330.8190;-24.3500;-23.0600;-1.2900
1331.0180;-24.4300;-23.2100;-1.2200
1331.2170;-24.5500;-23.3500;-1.2000
1331.4160;-24.6600;-23.5000;-1.1600
1331.6150;-24.7900;-23.6500;-1.1400
1331.8140;-24.9200;-23.7900;-1.1300
1332.0130;-25.0800;-23.9600;-1.1200
1332.2120;-25.2500;-24.0900;-1.1600
1332.4120;-25.4200;-24.2500;-1.1700
1332.6110;-25.6400;-24.4100;-1.2300
1332.8100;-25.8300;-24.5600;-1.2700
1333.0090;-26.0600;-24.7300;-1.3300
1333.2080;-26.2800;-24.8700;-1.4100
1333.4070;-26.5300;-25.0300;-1.5000
1333.6060;-26.7900;-25.1800;-1.6100
1333.8050;-27.0600;-25.3400;-1.7200
1334.0040;-27.3600;-25.5100;-1.8500
1334.2040;-27.6500;-25.6600;-1.9900
1334.4030;-27.9700;-25.8300;-2.1400
1334.6020;-28.2800;-25.9800;-2.3000
1334.8010;-28.7000;-26.1400;-2.5600
1335.0000;-28.9800;-26.3100;-2.6700
1335.1990;-29.3400;-26.4600;-2.8800
1335.3980;-29.7200;-26.6400;-3.0800
1335.5970;-30.1000;-26.7900;-3.3100
1335.7970;-30.5100;-26.9600;-3.5500
1335.9960;-30.9100;-27.1300;-3.7800
1336.1950;-31.3300;-27.2900;-4.0400
1336.3940;-31.7400;-27.4500;-4.2900
1336.5930;-32.1600;-27.6100;-4.5500
1336.7920;-32.5800;-27.7900;-4.7900
1336.9910;-33.0000;-27.9400;-5.0600
1337.1900;-33.4200;-28.1100;-5.3100
1337.3890;-33.8100;-28.2800;-5.5300
1337.5890;-34.2000;-28.4400;-5.7600
1337.7880;-34.5700;-28.6500;-5.9200
1337.9870;-34.9100;-28.7900;-6.1200
1338.1860;-35.2400;-28.9600;-6.2800
1338.3850;-35.5100;-29.1300;-6.3800
1338.5840;-35.7600;-29.3100;-6.4500
1338.7830;-35.9500;-29.4700;-6.4800
1338.9820;-36.1100;-29.6400;-6.4700
1339.1810;-36.2500;-29.8200;-6.4300
1339.3810;-36.3300;-29.9900;-6.3400
1339.5800;-36.4000;-30.1700;-6.2300
1339.7790;-36.4100;-30.3300;-6.0800
1339.9780;-36.4100;-30.5200;-5.8900
1340.1770;-36.4000;-30.6900;-5.7100
1340.3760;-36.3600;-30.8600;-5.5000
1340.5750;-36.3300;-31.0600;-5.2700
1340.7740;-36.2600;-31.2200;-5.0400
1340.9740;-36.2100;-31.4000;-4.8100
1341.1730;-36.1600;-31.5700;-4.5900
1341.3720;-36.1000;-31.7400;-4.3600
1341.5710;-36.0700;-31.9200;-4.1500
1341.7700;-36.0300;-32.0900;-3.9400
1341.9690;-36.0100;-32.2800;-3.7300
1342.1680;-35.9800;-32.4400;-3.5400
1342.3670;-35.9600;-32.6200;-3.3400
1342.5660;-35.9800;-32.7900;-3.1900
1342.7660;-35.9900;-32.9700;-3.0200
1342.9650;-36.0400;-33.1600;-2.8800
1343.1640;-36.0700;-33.3300;-2.7400
1343.3630;-36.1400;-33.5100;-2.6300
1343.5620;-36.2000;-33.6800;-2.5200
1343.7610;-36.2900;-33.8500;-2.4400
1343.9600;-36.4100;-34.0500;-2.3600
1344.1590;-36.5200;-34.2200;-2.3000
1344.3580;-36.6600;-34.4100;-2.2500
1344.5580;-36.8100;-34.5800;-2.2300
1344.7570;-36.9600;-34.7700;-2.1900
1344.9560;-37.1400;-34.9400;-2.2000
1345.1550;-37.3100;-35.1000;-2.2100
1345.3540;-37.5100;-35.2800;-2.2300
1345.5530;-37.7200;-35.4400;-2.2800
1345.7520;-37.9500;-35.6300;-2.3200
1345.9510;-38.1900;-35.8000;-2.3900
1346.1500;-38.5100;-35.9700;-2.5400
1346.3500;-38.7300;-36.1600;-2.5700
1346.5490;-39.0200;-36.3400;-2.6800
1346.7480;-39.3300;-36.5100;-2.8200
1346.9470;-39.6300;-36.6800;-2.9500
1347.1460;-39.9700;-36.8500;-3.1200
1347.3450;-40.2900;-37.0000;-3.2900
1347.5440;-40.6700;-37.2100;-3.4600
1347.7430;-41.0900;-37.4400;-3.6500
1347.9430;-41.5000;-37.6300;-3.8700
1348.1420;-41.9100;-37.8000;-4.1100
1348.3410;-42.3100;-37.9800;-4.3300
1348.5400;-42.7100;-38.1100;-4.6000
1348.7390;-43.1000;-38.2700;-4.8300
1348.9380;-43.5200;-38.4600;-5.0600
1349.1370;-43.9600;-38.5900;-5.3700
1349.3360;-44.3500;-38.7200;-5.6300
1349.5350;-44.7800;-38.8700;-5.9100
1349.7350;-45.1800;-39.0200;-6.1600
1349.9340;-45.6000;-39.1900;-6.4100
1350.1330;-46.0200;-39.3900;-6.6300
1350.3320;-46.4500;-39.6100;-6.8400
1350.5310;-46.8500;-39.8100;-7.0400
1350.7300;-47.1600;-39.9700;-7.1900
1350.9290;-47.4300;-40.1100;-7.3200
1351.1280;-47.6300;-40.2200;-7.4100
1351.3270;-47.7700;-40.3600;-7.4100
1351.5270;-47.9300;-40.5400;-7.3900
1351.7260;-48.0500;-40.7500;-7.3000
1351.9250;-48.1200;-40.9200;-7.2000
1352.1240;-48.1100;-41.0900;-7.0200
1352.3230;-48.0500;-41.2500;-6.8000
1352.5220;-48.0600;-41.4500;-6.6100
1352.7210;-47.9300;-41.5800;-6.3500
1352.9200;-47.8200;-41.7300;-6.0900
1353.1200;-47.7700;-41.9800;-5.7900
1353.3190;-47.6000;-42.0700;-5.5300
1353.5180;-47.4600;-42.2300;-5.2300
1353.7170;-47.3400;-42.4000;-4.9400
1353.9160;-47.1800;-42.4900;-4.6900
1354.1150;-47.0300;-42.6200;-4.4100
1354.3140;-46.9800;-42.8400;-4.1400
1354.5130;-46.8900;-43.0200;-3.8700
1354.7120;-46.9500;-43.3100;-3.6400
1354.9120;-46.9800;-43.6000;-3.3800
1355.1110;-46.9600;-43.7500;-3.2100
1355.3100;-46.8600;-43.8800;-2.9800
1355.5090;-46.7000;-43.8500;-2.8500
1355.7080;-46.7300;-44.1100;-2.6200
1355.9070;-46.8500;-44.3700;-2.4800
1356.1060;-46.8500;-44.5200;-2.3300
1356.3050;-46.8200;-44.6000;-2.2200
1356.5040;-46.7900;-44.6800;-2.1100
1356.7040;-46.6200;-44.6000;-2.0200
1356.9030;-46.6200;-44.7300;-1.8900
1357.1020;-46.8900;-45.0900;-1.8000
1357.3010;-47.0500;-45.3100;-1.7400
1357.5000;-47.1800;-45.4700;-1.7100
1357.6990;-47.3000;-45.6500;-1.6500
1357.8980;-47.3700;-45.6800;-1.6900
1358.0970;-47.4000;-45.7300;-1.6700
1358.2970;-47.5500;-45.9000;-1.6500
1358.4960;-47.8200;-46.1200;-1.7000
1358.6950;-47.9700;-46.2500;-1.7200
1358.8940;-48.1900;-46.3800;-1.8100
1359.0930;-48.4000;-46.5200;-1.8800
1359.2920;-48.5400;-46.5500;-1.9900
1359.4910;-48.9300;-46.9100;-2.0200
1359.6900;-49.3400;-47.2000;-2.1400
1359.8890;-49.6900;-47.3800;-2.3100
1360.0890;-49.8900;-47.4300;-2.4600
1360.2880;-50.1200;-47.4300;-2.6900
1360.4870;-50.2700;-47.4100;-2.8600
1360.6860;-50.5700;-47.5600;-3.0100
1360.8850;-51.1200;-47.8900;-3.2300
1361.0840;-51.6400;-48.1900;-3.4500
1361.2830;-52.1100;-48.3400;-3.7700
1361.4820;-52.5200;-48.5500;-3.9700
1361.6810;-52.9900;-48.6800;-4.3100
1361.8810;-53.4600;-48.8200;-4.6400
1362.0800;-54.0100;-49.0200;-4.9900
1362.2790;-54.6700;-49.4200;-5.2500
1362.4780;-55.3700;-49.6600;-5.7100
1362.6770;-55.9000;-49.7700;-6.1300
1362.8760;-56.2900;-49.6400;-6.6500
1363.0750;-56.6900;-49.5500;-7.1400
1363.2740;-56.8000;-49.3200;-7.4800
1363.4740;-57.2500;-49.3700;-7.8800
1363.6730;-57.7500;-49.4500;-8.3000
1363.8720;-58.2700;-49.5900;-8.6800
1364.0710;-58.9200;-49.7800;-9.1400
1364.2700;-59.3100;-49.9800;-9.3300
1364.4690;-59.8200;-50.2700;-9.5500
1364.6680;-60.5000;-50.7700;-9.7300
1364.8670;-60.8500;-50.9700;-9.8800
1365.0660;-60.8900;-50.9300;-9.9600
1365.2660;-60.9200;-51.0900;-9.8300
1365.4650;-60.7700;-51.0100;-9.7600
1365.6640;-60.5600;-51.0800;-9.4800
1365.8630;-60.3300;-51.1000;-9.2300
1366.0620;-60.0100;-51.0800;-8.9300
1366.2610;-59.6800;-51.0600;-8.6200
1366.4600;-59.3900;-51.1100;-8.2800
1366.6590;-59.1800;-51.2800;-7.9000
1366.8580;-59.0700;-51.4900;-7.5800
1367.0580;-58.8300;-51.6200;-7.2100
1367.2570;-58.6100;-51.7100;-6.9000
1367.4560;-58.5300;-51.9700;-6.5600
1367.6550;-58.3900;-52.1500;-6.2400
1367.8540;-58.4100;-52.4000;-6.0100
1368.0530;-58.2200;-52.5200;-5.7000
1368.2520;-58.0000;-52.4700;-5.5300
1368.4510;-58.0500;-52.8100;-5.2400
1368.6500;-57.9800;-52.8800;-5.1000
1368.8500;-57.8800;-52.9700;-4.9100
1369.0490;-57.6600;-52.9500;-4.7100
1369.2480;-57.5400;-52.8900;-4.6500
1369.4470;-57.2900;-52.8200;-4.4700
1369.6460;-57.2800;-52.9000;-4.3800
1369.8450;-57.4600;-53.2300;-4.2300
1370.0440;-57.6100;-53.4100;-4.2000
1370.2430;-57.6800;-53.5300;-4.1500
1370.4430;-57.6600;-53.5800;-4.0800
1370.6420;-57.6900;-53.5900;-4.1000
1370.8410;-57.9000;-53.9000;-4.0000
1371.0400;-58.2000;-54.1600;-4.0400
1371.2390;-58.4200;-54.3300;-4.0900
1371.4380;-58.4600;-54.3500;-4.1100
1371.6370;-58.5600;-54.2900;-4.2700
1371.8360;-58.5300;-54.2800;-4.2500
1372.0350;-58.7900;-54.4500;-4.3400
1372.2350;-59.0700;-54.6600;-4.4100
1372.4340;-59.3200;-54.7400;-4.5800
1372.6330;-59.5400;-54.8200;-4.7200
1372.8320;-59.7100;-54.8500;-4.8600
1373.0310;-59.9200;-54.8700;-5.0500
1373.2300;-60.1900;-55.0200;-5.1700
1373.4290;-60.5500;-55.1400;-5.4100
1373.6280;-60.8600;-55.2600;-5.6000
1373.8270;-61.1400;-55.3300;-5.8100
1374.0270;-61.4800;-55.4400;-6.0400
1374.2260;-61.8000;-55.5300;-6.2700
1374.4250;-62.1800;-55.6700;-6.5100
1374.6240;-62.5300;-55.8100;-6.7200
1374.8230;-62.9600;-55.9900;-6.9700
1375.0220;-63.3700;-56.1700;-7.2000
1375.2210;-63.6900;-56.2400;-7.4500
1375.4200;-63.9500;-56.3000;-7.6500
1375.6200;-64.2000;-56.3800;-7.8200
1375.8190;-64.4500;-56.4800;-7.9700
1376.0180;-64.6900;-56.6300;-8.0600
1376.2170;-64.9700;-56.7700;-8.2000
1376.4160;-65.0500;-56.8700;-8.1800
1376.6150;-65.1500;-56.9600;-8.1900
1376.8140;-65.1800;-57.1100;-8.0700
1377.0130;-65.3800;-57.3400;-8.0400
1377.2120;-65.3700;-57.5100;-7.8600
1377.4120;-65.2700;-57.6000;-7.6700
1377.6110;-65.0900;-57.6400;-7.4500
1377.8100;-64.8100;-57.6100;-7.2000
1378.0090;-64.5600;-57.6600;-6.9000
1378.2080;-64.4200;-57.7600;-6.6600
1378.4070;-64.2500;-57.9300;-6.3200
1378.6060;-64.2000;-58.1800;-6.0200
1378.8050;-64.1700;-58.5400;-5.6300
1379.0040;-64.0200;-58.6100;-5.4100
1379.2040;-63.7700;-58.6600;-5.1100
1379.4030;-63.4500;-58.6400;-4.8100
1379.6020;-63.1800;-58.6200;-4.5600
1379.8010;-62.9400;-58.6300;-4.3100
1380.0000;-62.8400;-58.7700;-4.0700
1380.1990;-62.7500;-58.9500;-3.8000
1380.3980;-62.7100;-59.1500;-3.5600
1380.5970;-63.0100;-59.7300;-3.2800
1380.7970;-63.3100;-60.1400;-3.1700
1380.9960;-63.2400;-60.3000;-2.9400
1381.1950;-63.1100;-60.2900;-2.8200
1381.3940;-62.7600;-60.0000;-2.7600
1381.5930;-62.3300;-59.7500;-2.5800
1381.7920;-62.2300;-59.8000;-2.4300
1381.9910;-62.1300;-59.8400;-2.2900
1382.1900;-62.1700;-59.9400;-2.2300
1382.3890;-62.3500;-60.2600;-2.0900
1382.5890;-62.7700;-60.8000;-1.9700
1382.7880;-63.2500;-61.2900;-1.9600
1382.9870;-63.4400;-61.5000;-1.9400
1383.1860;-63.2500;-61.2600;-1.9900
1383.3850;-63.0300;-60.9800;-2.0500
1383.5840;-62.7800;-60.7700;-2.0100
1383.7830;-62.9200;-60.9300;-1.9900
1383.9820;-63.0800;-61.0300;-2.0500
1384.1810;-63.2300;-61.0800;-2.1500
1384.3810;-63.2900;-61.1100;-2.1800
1384.5800;-63.3700;-61.0400;-2.3300
1384.7790;-63.5600;-61.1700;-2.3900
1384.9780;-63.8900;-61.4200;-2.4700
1385.1770;-64.2700;-61.6400;-2.6300
1385.3760;-64.5400;-61.7600;-2.7800
1385.5750;-64.7000;-61.7100;-2.9900
1385.7740;-64.9300;-61.7400;-3.1900
1385.9740;-65.0600;-61.7300;-3.3300
1386.1730;-65.3500;-61.7700;-3.5800
1386.3720;-65.7200;-61.8800;-3.8400
1386.5710;-66.0500;-61.9200;-4.1300
1386.7700;-66.3600;-61.9700;-4.3900
1386.9690;-66.7100;-62.0000;-4.7100
1387.1680;-67.0800;-62.0200;-5.0600
1387.3670;-67.4300;-62.0900;-5.3400
1387.5660;-67.8300;-62.1500;-5.6800
1387.7660;-68.4100;-62.4300;-5.9800
1387.9650;-69.1800;-62.6800;-6.5000
1388.1640;-69.7500;-62.9600;-6.7900
1388.3630;-70.4000;-63.0600;-7.3400
1388.5620;-70.7100;-63.0100;-7.7000
1388.7610;-71.1500;-62.8800;-8.2700
1388.9600;-71.4000;-62.8300;-8.5700
1389.1590;-71.6300;-62.8000;-8.8300
1389.3580;-71.9000;-62.8100;-9.0900
1389.5580;-72.4800;-62.8600;-9.6200
1389.7570;-72.5000;-62.9900;-9.5100
1389.9560;-72.7600;-63.1700;-9.5900
1390.1550;-72.9000;-63.2200;-9.6800
1390.3540;-73.1700;-63.2400;-9.9300
1390.5530;-73.4600;-63.3300;-10.1300
1390.7520;-73.1200;-63.2800;-9.8400
1390.9510;-72.9400;-63.4100;-9.5300
1391.1500;-73.0000;-63.4500;-9.5500
1391.3500;-72.3400;-63.4900;-8.8500
1391.5490;-71.8100;-63.5400;-8.2700
1391.7480;-71.4700;-63.6500;-7.8200
1391.9470;-71.4000;-63.7600;-7.6400
1392.1460;-71.1000;-63.9200;-7.1800
1392.3450;-70.7200;-64.1600;-6.5600
1392.5440;-71.0100;-64.5900;-6.4200
1392.7430;-70.6700;-64.7100;-5.9600
1392.9430;-70.2700;-64.6200;-5.6500
1393.1420;-69.7600;-64.4800;-5.2800
1393.3410;-69.4400;-64.3000;-5.1400
1393.5400;-69.0500;-64.2800;-4.7700
1393.7390;-68.7100;-64.3700;-4.3400
1393.9380;-68.5500;-64.4100;-4.1400
1394.1370;-68.3300;-64.4900;-3.8400
1394.3360;-68.1800;-64.5700;-3.6100
1394.5350;-68.0500;-64.6100;-3.4400
1394.7350;-67.9000;-64.7500;-3.1500
1394.9340;-67.8800;-65.0500;-2.8300
1395.1330;-68.1800;-65.2200;-2.9600
1395.3320;-68.1500;-65.3800;-2.7700
1395.5310;-68.0200;-65.4700;-2.5500
1395.7300;-68.0400;-65.5200;-2.5200
1395.9290;-67.8500;-65.3900;-2.4600
1396.1280;-67.7400;-65.5200;-2.2200
1396.3270;-67.7800;-65.6300;-2.1500
1396.5270;-67.9000;-65.9200;-1.9800
1396.7260;-68.1400;-66.0500;-2.0900
1396.9250;-68.0400;-66.0900;-1.9500
1397.1240;-67.9200;-65.8900;-2.0300
1397.3230;-67.9500;-65.7800;-2.1700
1397.5220;-67.9300;-65.7400;-2.1900
1397.7210;-67.8900;-65.7900;-2.1000
1397.9200;-68.1100;-65.8800;-2.2300
1398.1200;-68.2500;-65.8800;-2.3700
1398.3190;-68.3300;-66.0000;-2.3300
1398.5180;-68.5100;-66.1100;-2.4000
1398.7170;-68.7000;-66.1700;-2.5300
1398.9160;-68.8800;-66.2900;-2.5900
1399.1150;-69.0700;-66.2800;-2.7900
1399.3140;-69.3500;-66.4200;-2.9300
1399.5130;-69.7800;-66.7000;-3.0800
1399.7120;-70.1100;-66.8100;-3.3000
1399.9120;-70.1900;-67.0200;-3.1700
1400.1110;-70.6800;-67.1500;-3.5300
1400.3100;-70.9600;-67.1100;-3.8500
1400.5090;-71.1200;-67.1900;-3.9300
1400.7080;-71.6900;-67.5300;-4.1600
1400.9070;-72.2900;-67.6500;-4.6400
1401.1060;-72.1200;-67.6900;-4.4300
1401.3050;-72.6300;-67.7200;-4.9100
1401.5040;-72.8300;-67.6200;-5.2100
1401.7040;-73.1400;-67.6400;-5.5000
1401.9030;-73.4000;-67.7600;-5.6400
1402.1020;-73.5600;-67.7900;-5.7700
1402.3010;-74.1400;-67.6900;-6.4500
1402.5000;-73.9100;-67.7000;-6.2100
1402.6990;-74.3500;-67.7100;-6.6400
1402.8980;-75.1900;-67.8800;-7.3100
1403.0970;-74.9800;-68.0500;-6.9300
1403.2970;-75.3700;-68.1100;-7.2600
1403.4960;-75.7500;-68.1700;-7.5800
1403.6950;-75.7800;-68.2600;-7.5200
1403.8940;-75.9600;-68.3500;-7.6100
1404.0930;-76.0600;-68.5100;-7.5500
1404.2920;-76.8100;-68.6300;-8.1800
1404.4910;-76.0900;-68.7700;-7.3200
1404.6900;-76.1400;-68.7800;-7.3600
1404.8890;-76.4600;-69.4100;-7.0500
1405.0890;-78.3500;-69.7100;-8.6400
1405.2880;-77.1200;-69.4600;-7.6600
1405.4870;-77.2300;-69.4900;-7.7400
1405.6860;-77.3400;-69.3300;-8.0100
1405.8850;-76.3600;-69.2700;-7.0900
1406.0840;-76.5000;-69.2100;-7.2900
1406.2830;-75.8500;-69.3500;-6.5000
1406.4820;-76.2700;-69.4400;-6.8300
1406.6810;-76.3100;-69.5200;-6.7900
1406.8810;-76.1800;-69.7600;-6.4200
1407.0800;-76.5100;-69.9600;-6.5500
1407.2790;-76.2400;-70.2200;-6.0200
1407.4780;-76.5100;-70.0900;-6.4200
1407.6770;-76.0300;-70.2200;-5.8100
1407.8760;-76.2800;-70.0600;-6.2200
1408.0750;-76.4700;-70.1900;-6.2800
1408.2740;-76.5800;-70.2100;-6.3700
1408.4740;-75.6900;-70.1200;-5.5700
1408.6730;-76.3100;-70.1800;-6.1300
1408.8720;-75.5400;-70.4900;-5.0500
1409.0710;-76.7200;-70.6800;-6.0400
1409.2700;-76.7200;-70.8900;-5.8300
1409.4690;-77.0100;-71.2300;-5.7800
1409.6680;-76.8100;-71.1900;-5.6200
1409.8670;-76.6100;-71.2700;-5.3400
1410.0660;-76.2800;-71.1100;-5.1700
1410.2660;-76.5100;-71.1000;-5.4100
1410.4650;-76.8200;-71.0700;-5.7500
1410.6640;-76.5100;-71.2000;-5.3100
1410.8630;-77.5600;-71.1200;-6.4400
1411.0620;-77.3300;-71.2800;-6.0500
1411.2610;-76.9000;-71.3000;-5.6000
1411.4600;-77.1300;-71.6000;-5.5300
1411.6590;-77.7600;-71.6000;-6.1600
1411.8580;-77.4500;-71.6200;-5.8300
1412.0580;-77.6700;-71.7900;-5.8800
1412.2570;-78.2600;-71.9500;-6.3100
1412.4560;-78.1100;-71.7900;-6.3200
1412.6550;-77.8200;-71.8300;-5.9900
1412.8540;-78.6300;-72.1500;-6.4800
1413.0530;-77.4900;-72.0000;-5.4900
1413.2520;-77.5800;-72.1600;-5.4200
1413.4510;-78.1300;-72.1300;-6.0000
1413.6500;-78.5000;-72.4800;-6.0200
1413.8500;-78.5000;-72.4300;-6.0700
1414.0490;-79.0800;-72.5400;-6.5400
1414.2480;-78.2900;-72.4400;-5.8500
1414.4470;-77.5700;-72.8500;-4.7200
1414.6460;-78.5300;-73.2100;-5.3200
1414.8450;-78.3500;-72.8100;-5.5400
1415.0440;-78.0200;-73.0500;-4.9700
1415.2430;-78.1900;-73.0900;-5.1000
1415.4430;-77.5000;-73.1300;-4.3700
1415.6420;-77.6500;-72.5800;-5.0700
1415.8410;-77.5500;-72.7100;-4.8400
1416.0400;-77.7400;-72.9000;-4.8400
1416.2390;-76.6200;-73.2100;-3.4100
1416.4380;-77.8800;-73.1500;-4.7300
1416.6370;-77.8300;-73.1400;-4.6900
1416.8360;-77.7200;-73.2800;-4.4400
1417.0350;-77.7700;-73.0000;-4.7700
1417.2350;-77.3000;-72.9100;-4.3900
1417.4340;-76.8200;-73.7100;-3.1100
1417.6330;-77.9500;-73.8100;-4.1400
1417.8320;-77.5500;-73.4800;-4.0700
1418.0310;-77.7000;-72.9200;-4.7800
1418.2300;-77.5900;-73.4100;-4.1800
1418.4290;-77.1000;-73.6400;-3.4600
1418.6280;-77.3200;-73.6000;-3.7200
1418.8270;-76.8300;-73.6100;-3.2200
1419.0270;-77.2100;-73.8200;-3.3900
1419.2260;-78.1900;-74.0100;-4.1800
1419.4250;-77.9700;-74.1500;-3.8200
1419.6240;-77.5500;-74.2400;-3.3100
1419.8230;-78.1200;-73.9900;-4.1300
1420.0220;-76.8500;-74.0900;-2.7600
1420.2210;-76.0700;-74.0900;-1.9800
1420.4200;-77.0800;-73.7000;-3.3800
1420.6200;-77.3200;-74.3100;-3.0100
1420.8190;-77.0400;-74.0400;-3.0000
1421.0180;-77.8800;-74.4300;-3.4500
1421.2170;-77.1800;-74.2900;-2.8900
1421.4160;-77.4800;-74.3600;-3.1200
1421.6150;-77.2000;-73.9900;-3.2100
1421.8140;-77.0900;-74.3600;-2.7300
1422.0130;-77.2200;-74.1700;-3.0500
1422.2120;-77.2400;-74.4400;-2.8000
1422.4120;-76.7000;-74.4600;-2.2400
1422.6110;-77.6000;-74.2300;-3.3700
1422.8100;-77.2000;-74.0100;-3.1900
1423.0090;-77.9600;-74.4400;-3.5200
1423.2080;-77.6000;-74.0500;-3.5500
1423.4070;-78.2000;-74.1000;-4.1000
1423.6060;-77.3900;-74.1300;-3.2600
1423.8050;-77.7300;-74.3800;-3.3500
1424.0040;-77.9800;-74.1000;-3.8800
1424.2040;-78.7600;-74.6700;-4.0900
1424.4030;-78.5700;-74.3300;-4.2400
1424.6020;-77.2900;-74.1300;-3.1600
1424.8010;-77.7300;-74.0600;-3.6700
1425.0000;-77.9400;-74.1700;-3.7700
