Wavelength;Intensity_Meas;Intensity_Ref;Difference_dB
1200.0000;-61.1200;-56.1700;-4.9500
1200.1990;-61.0800;-56.1300;-4.9500
1200.3980;-61.0700;-56.1000;-4.9700
1200.5970;-61.0700;-56.0800;-4.9900
1200.7970;-61.0400;-56.0500;-4.9900
1200.9960;-61.0100;-56.0200;-4.9900
1201.1950;-60.9700;-55.9700;-5.0000
1201.3940;-60.9600;-55.9300;-5.0300
1201.5930;-60.9300;-55.9000;-5.0300
1201.7920;-60.8300;-55.8500;-4.9800
1201.9910;-60.8400;-55.8100;-5.0300
1202.1900;-60.7800;-55.7500;-5.0300
1202.3890;-60.7000;-55.7000;-5.0000
1202.5890;-60.6600;-55.6600;-5.0000
1202.7880;-60.6600;-55.5900;-5.0700
1202.9870;-60.6100;-55.5400;-5.0700
1203.1860;-60.5300;-55.4800;-5.0500
1203.3850;-60.4800;-55.4400;-5.0400
1203.5840;-60.5200;-55.4200;-5.1000
1203.7830;-60.4600;-55.3500;-5.1100
1203.9820;-60.4100;-55.3200;-5.0900
1204.1810;-60.3700;-55.2800;-5.0900
1204.3810;-60.3500;-55.2400;-5.1100
1204.5800;-60.3500;-55.2300;-5.1200
1204.7790;-60.3000;-55.1800;-5.1200
1204.9780;-60.2800;-55.1500;-5.1300
1205.1770;-60.2600;-55.1200;-5.1400
1205.3760;-60.2300;-55.0900;-5.1400
1205.5750;-60.2300;-55.0900;-5.1400
1205.7740;-60.1600;-55.0500;-5.1100
1205.9740;-60.1400;-55.0400;-5.1000
1206.1730;-60.1100;-55.0200;-5.0900
1206.3720;-60.1000;-54.9900;-5.1100
1206.5710;-60.0600;-54.9800;-5.0800
1206.7700;-59.9900;-54.9500;-5.0400
1206.9690;-59.9700;-54.9300;-5.0400
1207.1680;-59.9500;-54.9000;-5.0500
1207.3670;-59.8900;-54.8600;-5.0300
1207.5660;-59.8200;-54.8500;-4.9700
1207.7660;-59.7900;-54.8000;-4.9900
1207.9650;-59.7700;-54.7700;-5.0000
1208.1640;-59.6900;-54.7200;-4.9700
1208.3630;-59.6200;-54.6800;-4.9400
1208.5620;-59.5700;-54.6500;-4.9200
1208.7610;-59.5200;-54.5800;-4.9400
1208.9600;-59.5000;-54.5400;-4.9600
1209.1590;-59.4200;-54.4900;-4.9300
1209.3580;-59.3200;-54.4300;-4.8900
1209.5580;-59.3400;-54.4000;-4.9400
1209.7570;-59.2700;-54.3400;-4.9300
1209.9560;-59.1900;-54.2800;-4.9100
1210.1550;-59.1100;-54.2300;-4.8800
1210.3540;-59.0600;-54.1800;-4.8800
1210.5530;-59.0500;-54.1400;-4.9100
1210.7520;-58.9800;-54.0800;-4.9000
1210.9510;-58.9000;-54.0300;-4.8700
1211.1500;-58.8600;-54.0000;-4.8600
1211.3500;-58.8100;-53.9500;-4.8600
1211.5490;-58.7900;-53.9200;-4.8700
1211.7480;-58.7000;-53.8800;-4.8200
1211.9470;-58.6700;-53.8400;-4.8300
1212.1460;-58.6500;-53.8200;-4.8300
1212.3450;-58.6400;-53.7700;-4.8700
1212.5440;-58.6100;-53.7600;-4.8500
1212.7430;-58.5600;-53.7200;-4.8400
1212.9430;-58.5500;-53.6800;-4.8700
1213.1420;-58.5500;-53.6700;-4.8800
1213.3410;-58.5100;-53.6300;-4.8800
1213.5400;-58.4900;-53.6100;-4.8800
1213.7390;-58.5000;-53.5700;-4.9300
1213.9380;-58.5300;-53.5300;-5.0000
1214.1370;-58.4800;-53.5100;-4.9700
1214.3360;-58.4500;-53.4600;-4.9900
1214.5350;-58.4700;-53.4400;-5.0300
1214.7350;-58.4800;-53.3900;-5.0900
1214.9340;-58.4500;-53.3400;-5.1100
1215.1330;-58.4200;-53.2900;-5.1300
1215.3320;-58.4000;-53.2400;-5.1600
1215.5310;-58.4000;-53.2000;-5.2000
1215.7300;-58.3600;-53.1400;-5.2200
1215.9290;-58.3100;-53.0800;-5.2300
1216.1280;-58.2600;-53.0300;-5.2300
1216.3270;-58.2400;-52.9600;-5.2800
1216.5270;-58.2000;-52.9200;-5.2800
1216.7260;-58.1100;-52.8600;-5.2500
1216.9250;-58.0600;-52.7900;-5.2700
1217.1240;-58.0300;-52.7400;-5.2900
1217.3230;-57.9900;-52.6700;-5.3200
1217.5220;-57.9300;-52.6300;-5.3000
1217.7210;-57.8500;-52.5700;-5.2800
1217.9200;-57.8300;-52.5200;-5.3100
1218.1200;-57.7900;-52.4800;-5.3100
1218.3190;-57.7100;-52.4200;-5.2900
1218.5180;-57.6700;-52.3900;-5.2800
1218.7170;-57.6400;-52.3400;-5.3000
1218.9160;-57.6300;-52.2900;-5.3400
1219.1150;-57.5600;-52.2600;-5.3000
1219.3140;-57.4900;-52.2100;-5.2800
1219.5130;-57.4900;-52.1900;-5.3000
1219.7120;-57.4700;-52.1500;-5.3200
1219.9120;-57.4300;-52.1100;-5.3200
1220.1110;-57.3700;-52.0700;-5.3000
1220.3100;-57.3400;-52.0300;-5.3100
1220.5090;-57.3300;-52.0000;-5.3300
1220.7080;-57.2900;-51.9500;-5.3400
1220.9070;-57.2200;-51.9100;-5.3100
1221.1060;-57.1600;-51.8500;-5.3100
1221.3050;-57.1300;-51.8000;-5.3300
1221.5040;-57.0700;-51.7500;-5.3200
1221.7040;-56.9900;-51.6800;-5.3100
1221.9030;-56.9500;-51.6300;-5.3200
1222.1020;-56.8900;-51.5700;-5.3200
1222.3010;-56.8200;-51.5000;-5.3200
1222.5000;-56.7300;-51.4300;-5.3000
1222.6990;-56.6700;-51.3600;-5.3100
1222.8980;-56.6300;-51.2900;-5.3400
1223.0970;-56.5500;-51.2200;-5.3300
1223.2970;-56.4700;-51.1500;-5.3200
1223.4960;-56.4200;-51.0800;-5.3400
1223.6950;-56.3700;-51.0000;-5.3700
1223.8940;-56.3300;-50.9400;-5.3900
1224.0930;-56.2500;-50.8700;-5.3800
1224.2920;-56.2000;-50.8000;-5.4000
1224.4910;-56.1900;-50.7400;-5.4500
1224.6900;-56.1500;-50.6700;-5.4800
1224.8890;-56.0900;-50.6000;-5.4900
1225.0890;-56.0800;-50.5500;-5.5300
1225.2880;-56.0600;-50.4800;-5.5800
1225.4870;-56.0400;-50.4300;-5.6100
1225.6860;-56.0100;-50.3700;-5.6400
1225.8850;-56.0200;-50.3200;-5.7000
1226.0840;-56.0100;-50.2700;-5.7400
1226.2830;-56.0100;-50.2100;-5.8000
1226.4820;-55.9700;-50.1600;-5.8100
1226.6810;-55.9600;-50.1100;-5.8500
1226.8810;-55.9800;-50.0600;-5.9200
1227.0800;-55.9500;-50.0000;-5.9500
1227.2790;-55.9200;-49.9500;-5.9700
1227.4780;-55.9100;-49.8900;-6.0200
1227.6770;-55.9100;-49.8300;-6.0800
1227.8760;-55.8800;-49.7700;-6.1100
1228.0750;-55.8400;-49.7100;-6.1300
1228.2740;-55.8100;-49.6400;-6.1700
1228.4740;-55.7800;-49.5700;-6.2100
1228.6730;-55.7300;-49.4900;-6.2400
1228.8720;-55.7000;-49.4200;-6.2800
1229.0710;-55.6600;-49.3500;-6.3100
1229.2700;-55.6200;-49.2600;-6.3600
1229.4690;-55.5700;-49.1900;-6.3800
1229.6680;-55.5300;-49.1000;-6.4300
1229.8670;-55.4900;-49.0100;-6.4800
1230.0660;-55.4500;-48.9500;-6.5000
1230.2660;-55.3900;-48.8500;-6.5400
1230.4650;-55.3400;-48.7700;-6.5700
1230.6640;-55.2900;-48.6900;-6.6000
1230.8630;-55.2700;-48.6200;-6.6500
1231.0620;-55.2100;-48.5500;-6.6600
1231.2610;-55.1700;-48.4800;-6.6900
1231.4600;-55.1400;-48.4300;-6.7100
1231.6590;-55.0800;-48.3500;-6.7300
1231.8580;-55.0200;-48.2800;-6.7400
1232.0580;-54.9500;-48.2300;-6.7200
1232.2570;-54.8900;-48.1600;-6.7300
1232.4560;-54.8300;-48.1200;-6.7100
1232.6550;-54.7400;-48.0400;-6.7000
1232.8540;-54.6700;-47.9800;-6.6900
1233.0530;-54.5900;-47.9300;-6.6600
1233.2520;-54.5000;-47.8600;-6.6400
1233.4510;-54.4000;-47.8100;-6.5900
1233.6500;-54.3000;-47.7400;-6.5600
1233.8500;-54.2100;-47.6800;-6.5300
1234.0490;-54.1100;-47.6200;-6.4900
1234.2480;-53.9900;-47.5400;-6.4500
1234.4470;-53.8900;-47.4800;-6.4100
1234.6460;-53.7800;-47.4000;-6.3800
1234.8450;-53.6800;-47.3300;-6.3500
1235.0440;-53.5400;-47.2400;-6.3000
1235.2430;-53.4400;-47.1600;-6.2800
1235.4430;-53.3200;-47.0800;-6.2400
1235.6420;-53.2000;-46.9800;-6.2200
1235.8410;-53.0800;-46.9000;-6.1800
1236.0400;-52.9700;-46.8100;-6.1600
1236.2390;-52.8400;-46.7100;-6.1300
1236.4380;-52.7200;-46.6200;-6.1000
1236.6370;-52.5900;-46.5300;-6.0600
1236.8360;-52.4900;-46.4400;-6.0500
1237.0350;-52.3600;-46.3400;-6.0200
1237.2350;-52.2400;-46.2500;-5.9900
1237.4340;-52.1200;-46.1600;-5.9600
1237.6330;-52.0100;-46.0700;-5.9400
1237.8320;-51.9200;-46.0000;-5.9200
1238.0310;-51.7900;-45.8900;-5.9000
1238.2300;-51.7000;-45.8300;-5.8700
1238.4290;-51.5900;-45.7300;-5.8600
1238.6280;-51.5000;-45.6600;-5.8400
1238.8270;-51.4100;-45.5800;-5.8300
1239.0270;-51.3200;-45.5000;-5.8200
1239.2260;-51.2300;-45.4200;-5.8100
1239.4250;-51.1400;-45.3300;-5.8100
1239.6240;-51.0600;-45.2500;-5.8100
1239.8230;-50.9900;-45.1600;-5.8300
1240.0220;-50.9000;-45.0700;-5.8300
1240.2210;-50.8300;-44.9900;-5.8400
1240.4200;-50.7400;-44.8800;-5.8600
1240.6200;-50.6700;-44.8000;-5.8700
1240.8190;-50.5900;-44.6900;-5.9000
1241.0180;-50.4800;-44.5700;-5.9100
1241.2170;-50.3900;-44.4700;-5.9200
1241.4160;-50.3000;-44.3500;-5.9500
1241.6150;-50.1800;-44.2300;-5.9500
1241.8140;-50.0700;-44.1100;-5.9600
1242.0130;-49.9500;-43.9900;-5.9600
1242.2120;-49.8400;-43.8800;-5.9600
1242.4120;-49.7000;-43.7400;-5.9600
1242.6110;-49.5500;-43.6100;-5.9400
1242.8100;-49.4300;-43.4900;-5.9400
1243.0090;-49.2600;-43.3500;-5.9100
1243.2080;-49.1100;-43.2300;-5.8800
1243.4070;-48.9500;-43.0900;-5.8600
1243.6060;-48.7800;-42.9700;-5.8100
1243.8050;-48.6300;-42.8400;-5.7900
1244.0040;-48.4400;-42.7100;-5.7300
1244.2040;-48.2800;-42.6000;-5.6800
1244.4030;-48.1100;-42.4600;-5.6500
1244.6020;-47.9200;-42.3400;-5.5800
1244.8010;-47.7500;-42.2200;-5.5300
1245.0000;-47.5700;-42.0900;-5.4800
1245.1990;-47.4100;-41.9900;-5.4200
1245.3980;-47.2200;-41.8600;-5.3600
1245.5970;-47.0300;-41.7300;-5.3000
1245.7970;-46.8700;-41.6100;-5.2600
1245.9960;-46.6700;-41.4800;-5.1900
1246.1950;-46.4900;-41.3600;-5.1300
1246.3940;-46.3100;-41.2300;-5.0800
1246.5930;-46.1200;-41.0900;-5.0300
1246.7920;-45.9400;-40.9600;-4.9800
1246.9910;-45.7200;-40.8100;-4.9100
1247.1900;-45.5800;-40.6900;-4.8900
1247.3890;-45.4000;-40.5400;-4.8600
1247.5890;-45.2200;-40.3900;-4.8300
1247.7880;-45.0400;-40.2500;-4.7900
1247.9870;-44.8700;-40.0900;-4.7800
1248.1860;-44.7200;-39.9500;-4.7700
1248.3850;-44.5600;-39.7900;-4.7700
1248.5840;-44.4100;-39.6300;-4.7800
1248.7830;-44.2700;-39.4900;-4.7800
1248.9820;-44.1300;-39.3300;-4.8000
1249.1810;-44.0300;-39.1900;-4.8400
1249.3810;-43.9100;-39.0300;-4.8800
1249.5800;-43.8000;-38.8700;-4.9300
1249.7790;-43.7000;-38.7300;-4.9700
1249.9780;-43.6000;-38.5600;-5.0400
1250.1770;-43.5400;-38.4300;-5.1100
1250.3760;-43.4700;-38.2700;-5.2000
1250.5750;-43.4100;-38.1200;-5.2900
1250.7740;-43.3600;-37.9800;-5.3800
1250.9740;-43.3300;-37.8500;-5.4800
1251.1730;-43.3100;-37.7200;-5.5900
1251.3720;-43.2900;-37.5600;-5.7300
1251.5710;-43.3000;-37.4400;-5.8600
1251.7700;-43.2900;-37.2900;-6.0000
1251.9690;-43.3000;-37.1500;-6.1500
1252.1680;-43.3300;-37.0100;-6.3200
1252.3670;-43.3600;-36.8600;-6.5000
1252.5660;-43.4200;-36.7300;-6.6900
1252.7660;-43.4800;-36.5700;-6.9100
1252.9650;-43.5600;-36.4300;-7.1300
1253.1640;-43.6500;-36.2900;-7.3600
1253.3630;-43.7500;-36.1200;-7.6300
1253.5620;-43.8700;-35.9900;-7.8800
1253.7610;-43.9900;-35.8000;-8.1900
1253.9600;-44.1200;-35.6800;-8.4400
1254.1590;-44.2600;-35.5100;-8.7500
1254.3580;-44.3900;-35.3500;-9.0400
1254.5580;-44.5300;-35.2100;-9.3200
1254.7570;-44.6300;-35.0400;-9.5900
1254.9560;-44.7200;-34.8900;-9.8300
1255.1550;-44.7800;-34.7300;-10.0500
1255.3540;-44.7900;-34.5700;-10.2200
1255.5530;-44.7800;-34.4300;-10.3500
1255.7520;-44.6800;-34.2700;-10.4100
1255.9510;-44.5500;-34.1300;-10.4200
1256.1500;-44.3700;-33.9700;-10.4000
1256.3500;-44.1200;-33.8400;-10.2800
1256.5490;-43.8600;-33.7100;-10.1500
1256.7480;-43.5300;-33.5600;-9.9700
1256.9470;-43.1800;-33.4300;-9.7500
1257.1460;-42.8100;-33.2900;-9.5200
1257.3450;-42.4000;-33.1500;-9.2500
1257.5440;-42.0200;-33.0300;-8.9900
1257.7430;-41.5900;-32.8800;-8.7100
1257.9430;-41.1700;-32.7500;-8.4200
1258.1420;-40.7500;-32.6100;-8.1400
1258.3410;-40.3200;-32.4700;-7.8500
1258.5400;-39.9200;-32.3500;-7.5700
1258.7390;-39.4800;-32.2000;-7.2800
1258.9380;-39.0600;-32.0700;-6.9900
1259.1370;-38.6600;-31.9200;-6.7400
1259.3360;-38.2500;-31.7800;-6.4700
1259.5350;-37.8700;-31.6400;-6.2300
1259.7350;-37.4800;-31.4900;-5.9900
1259.9340;-37.1100;-31.3500;-5.7600
1260.1330;-36.7500;-31.2000;-5.5500
1260.3320;-36.4000;-31.0600;-5.3400
1260.5310;-36.0900;-30.9200;-5.1700
1260.7300;-35.7000;-30.7700;-4.9300
1260.9290;-35.4600;-30.6400;-4.8200
1261.1280;-35.1700;-30.4900;-4.6800
1261.3270;-34.9100;-30.3600;-4.5500
1261.5270;-34.6500;-30.2300;-4.4200
1261.7260;-34.4100;-30.1000;-4.3100
1261.9250;-34.2000;-29.9700;-4.2300
1262.1240;-33.9900;-29.8300;-4.1600
1262.3230;-33.8100;-29.7100;-4.1000
1262.5220;-33.6400;-29.5900;-4.0500
1262.7210;-33.4900;-29.4600;-4.0300
1262.9200;-33.3500;-29.3500;-4.0000
1263.1200;-33.2200;-29.2200;-4.0000
1263.3190;-33.1300;-29.1000;-4.0300
1263.5180;-33.0300;-28.9800;-4.0500
1263.7170;-32.9600;-28.8600;-4.1000
1263.9160;-32.9000;-28.7400;-4.1600
1264.1150;-32.8500;-28.6000;-4.2500
1264.3140;-32.8400;-28.4800;-4.3600
1264.5130;-32.8300;-28.3500;-4.4800
1264.7120;-32.8400;-28.2200;-4.6200
1264.9120;-32.8700;-28.1000;-4.7700
1265.1110;-32.9100;-27.9600;-4.9500
1265.3100;-32.9800;-27.8300;-5.1500
1265.5090;-33.0600;-27.7000;-5.3600
1265.7080;-33.1700;-27.5700;-5.6000
1265.9070;-33.2800;-27.4400;-5.8400
1266.1060;-33.4100;-27.3000;-6.1100
1266.3050;-33.5600;-27.1800;-6.3800
1266.5040;-33.7200;-27.0500;-6.6700
1266.7040;-33.8900;-26.9300;-6.9600
1266.9030;-34.0500;-26.8000;-7.2500
1267.1020;-34.2200;-26.6700;-7.5500
1267.3010;-34.4000;-26.5600;-7.8400
1267.5000;-34.5600;-26.4300;-8.1300
1267.6990;-34.7100;-26.3200;-8.3900
1267.8980;-34.8100;-26.2000;-8.6100
1268.0970;-34.9000;-26.0700;-8.8300
1268.2970;-34.9500;-25.9700;-8.9800
1268.4960;-34.9400;-25.8600;-9.0800
1268.6950;-34.8900;-25.7500;-9.1400
1268.8940;-34.7600;-25.6200;-9.1400
1269.0930;-34.5900;-25.5100;-9.0800
1269.2920;-34.3500;-25.3900;-8.9600
1269.4910;-34.0600;-25.2800;-8.7800
1269.6900;-33.7200;-25.1700;-8.5500
1269.8890;-33.3200;-25.0400;-8.2800
1270.0890;-32.8900;-24.9200;-7.9700
1270.2880;-32.4400;-24.8000;-7.6400
1270.4870;-31.9700;-24.6900;-7.2800
1270.6860;-31.4800;-24.5700;-6.9100
1270.8850;-30.9600;-24.4400;-6.5200
1271.0840;-30.4600;-24.3200;-6.1400
1271.2830;-29.9700;-24.2000;-5.7700
1271.4820;-29.4700;-24.0800;-5.3900
1271.6810;-29.0100;-23.9700;-5.0400
1271.8810;-28.5300;-23.8300;-4.7000
1272.0800;-28.1000;-23.7300;-4.3700
1272.2790;-27.6700;-23.6100;-4.0600
1272.4780;-27.2700;-23.4900;-3.7800
1272.6770;-26.8900;-23.3900;-3.5000
1272.8760;-26.5200;-23.2700;-3.2500
1273.0750;-26.1700;-23.1700;-3.0000
1273.2740;-25.7900;-23.0600;-2.7300
1273.4740;-25.5300;-22.9500;-2.5800
1273.6730;-25.2400;-22.8600;-2.3800
1273.8720;-24.9500;-22.7500;-2.2000
1274.0710;-24.7000;-22.6600;-2.0400
1274.2700;-24.4400;-22.5500;-1.8900
1274.4690;-24.2000;-22.4500;-1.7500
1274.6680;-23.9800;-22.3600;-1.6200
1274.8670;-23.7600;-22.2500;-1.5100
1275.0660;-23.5800;-22.1700;-1.4100
1275.2660;-23.3800;-22.0600;-1.3200
1275.4650;-23.2100;-21.9600;-1.2500
1275.6640;-23.0400;-21.8700;-1.1700
1275.8630;-22.8900;-21.7700;-1.1200
1276.0620;-22.7700;-21.6800;-1.0900
1276.2610;-22.6300;-21.5800;-1.0500
1276.4600;-22.5300;-21.4800;-1.0500
1276.6590;-22.4100;-21.3800;-1.0300
1276.8580;-22.3300;-21.2800;-1.0500
1277.0580;-22.2700;-21.2000;-1.0700
1277.2570;-22.2100;-21.0900;-1.1200
1277.4560;-22.1800;-21.0100;-1.1700
1277.6550;-22.1400;-20.9200;-1.2200
1277.8540;-22.1300;-20.8300;-1.3000
1278.0530;-22.1400;-20.7500;-1.3900
1278.2520;-22.1500;-20.6600;-1.4900
1278.4510;-22.1900;-20.5800;-1.6100
1278.6500;-22.2200;-20.4900;-1.7300
1278.8500;-22.2800;-20.4100;-1.8700
1279.0490;-22.3600;-20.3400;-2.0200
1279.2480;-22.4400;-20.2500;-2.1900
1279.4470;-22.5600;-20.1900;-2.3700
1279.6460;-22.6600;-20.1000;-2.5600
1279.8450;-22.8000;-20.0200;-2.7800
1280.0440;-22.9500;-19.9500;-3.0000
1280.2430;-23.1000;-19.8700;-3.2300
1280.4430;-23.3000;-19.8100;-3.4900
1280.6420;-23.4900;-19.7200;-3.7700
1280.8410;-23.7000;-19.6400;-4.0600
1281.0400;-23.9300;-19.5700;-4.3600
1281.2390;-24.1700;-19.4900;-4.6800
1281.4380;-24.4500;-19.4200;-5.0300
1281.6370;-24.7200;-19.3300;-5.3900
1281.8360;-25.0200;-19.2500;-5.7700
1282.0350;-25.3100;-19.1700;-6.1400
1282.2350;-25.6200;-19.0800;-6.5400
1282.4340;-25.9500;-19.0200;-6.9300
1282.6330;-26.2600;-18.9400;-7.3200
1282.8320;-26.5600;-18.8600;-7.7000
1283.0310;-26.8200;-18.7800;-8.0400
1283.2300;-27.0400;-18.7000;-8.3400
1283.4290;-27.2200;-18.6400;-8.5800
1283.6280;-27.3200;-18.5500;-8.7700
1283.8270;-27.3700;-18.4900;-8.8800
1284.0270;-27.3100;-18.4100;-8.9000
1284.2260;-27.1600;-18.3300;-8.8300
1284.4250;-26.9600;-18.2800;-8.6800
1284.6240;-26.6700;-18.2000;-8.4700
1284.8230;-26.3400;-18.1300;-8.2100
1285.0220;-25.9300;-18.0500;-7.8800
1285.2210;-25.5100;-17.9800;-7.5300
1285.4200;-25.0600;-17.9200;-7.1400
1285.6200;-24.6000;-17.8400;-6.7600
1285.8190;-24.1500;-17.7800;-6.3700
1286.0180;-23.6700;-17.7000;-5.9700
1286.2170;-23.2200;-17.6300;-5.5900
1286.4160;-22.7700;-17.5700;-5.2000
1286.6150;-22.3400;-17.5000;-4.8400
1286.8140;-21.9300;-17.4400;-4.4900
1287.0130;-21.5100;-17.3600;-4.1500
1287.2120;-21.1200;-17.2900;-3.8300
1287.4120;-20.7400;-17.2200;-3.5200
1287.6110;-20.3800;-17.1500;-3.2300
1287.8100;-20.0500;-17.1000;-2.9500
1288.0090;-19.7200;-17.0200;-2.7000
1288.2080;-19.4300;-16.9600;-2.4700
1288.4070;-19.1300;-16.9000;-2.2300
1288.6060;-18.8600;-16.8300;-2.0300
1288.8050;-18.6100;-16.7800;-1.8300
1289.0040;-18.3600;-16.7100;-1.6500
1289.2040;-18.1500;-16.6600;-1.4900
1289.4030;-17.9200;-16.6000;-1.3200
1289.6020;-17.7300;-16.5500;-1.1800
1289.8010;-17.5500;-16.5000;-1.0500
1290.0000;-17.3700;-16.4300;-0.9400
1290.1990;-17.2200;-16.3900;-0.8300
1290.3980;-17.0600;-16.3300;-0.7300
1290.5970;-16.9300;-16.2900;-0.6400
1290.7970;-16.8100;-16.2500;-0.5600
1290.9960;-16.6800;-16.1800;-0.5000
1291.1950;-16.5800;-16.1400;-0.4400
1291.3940;-16.4700;-16.0800;-0.3900
1291.5930;-16.3800;-16.0400;-0.3400
1291.7920;-16.3000;-15.9800;-0.3200
1291.9910;-16.2200;-15.9400;-0.2800
1292.1900;-16.1500;-15.8900;-0.2600
1292.3890;-16.1100;-15.8500;-0.2600
1292.5890;-16.0600;-15.8000;-0.2600
1292.7880;-16.0000;-15.7500;-0.2500
1292.9870;-15.9800;-15.7100;-0.2700
1293.1860;-15.9400;-15.6600;-0.2800
1293.3850;-15.9100;-15.6200;-0.2900
1293.5840;-15.8900;-15.5800;-0.3100
1293.7830;-15.8700;-15.5300;-0.3400
1293.9820;-15.8700;-15.5000;-0.3700
1294.1810;-15.8500;-15.4500;-0.4000
1294.3810;-15.8500;-15.4200;-0.4300
1294.5800;-15.8300;-15.3800;-0.4500
1294.7790;-15.8300;-15.3400;-0.4900
1294.9780;-15.8400;-15.3100;-0.5300
1295.1770;-15.8200;-15.2700;-0.5500
1295.3760;-15.8200;-15.2400;-0.5800
1295.5750;-15.8100;-15.2000;-0.6100
1295.7740;-15.8100;-15.1600;-0.6500
1295.9740;-15.8000;-15.1300;-0.6700
1296.1730;-15.7800;-15.0800;-0.7000
1296.3720;-15.7800;-15.0600;-0.7200
1296.5710;-15.7500;-15.0200;-0.7300
1296.7700;-15.7300;-14.9800;-0.7500
1296.9690;-15.7200;-14.9600;-0.7600
1297.1680;-15.6900;-14.9300;-0.7600
1297.3670;-15.6800;-14.9000;-0.7800
1297.5660;-15.6400;-14.8500;-0.7900
1297.7660;-15.6100;-14.8200;-0.7900
1297.9650;-15.5900;-14.8000;-0.7900
1298.1640;-15.5600;-14.7600;-0.8000
1298.3630;-15.5400;-14.7400;-0.8000
1298.5620;-15.4900;-14.7000;-0.7900
1298.7610;-15.4700;-14.6700;-0.8000
1298.9600;-15.4400;-14.6500;-0.7900
1299.1590;-15.4100;-14.6200;-0.7900
1299.3580;-15.4000;-14.6000;-0.8000
1299.5580;-15.3600;-14.5600;-0.8000
1299.7570;-15.3400;-14.5400;-0.8000
1299.9560;-15.3200;-14.5200;-0.8000
1300.1550;-15.3200;-14.4900;-0.8300
1300.3540;-15.3200;-14.4800;-0.8400
1300.5530;-15.3000;-14.4300;-0.8700
1300.7520;-15.3200;-14.4100;-0.9100
1300.9510;-15.3100;-14.3900;-0.9200
1301.1500;-15.3400;-14.3800;-0.9600
1301.3500;-15.3700;-14.3700;-1.0000
1301.5490;-15.4000;-14.3500;-1.0500
1301.7480;-15.4500;-14.3400;-1.1100
1301.9470;-15.4800;-14.3200;-1.1600
1302.1460;-15.5500;-14.3100;-1.2400
1302.3450;-15.6200;-14.3000;-1.3200
1302.5440;-15.7000;-14.2800;-1.4200
1302.7430;-15.8100;-14.2800;-1.5300
1302.9430;-15.9000;-14.2600;-1.6400
1303.1420;-16.0200;-14.2500;-1.7700
1303.3410;-16.1500;-14.2400;-1.9100
1303.5400;-16.3000;-14.2400;-2.0600
1303.7390;-16.4700;-14.2400;-2.2300
1303.9380;-16.6300;-14.2100;-2.4200
1304.1370;-16.8500;-14.2200;-2.6300
1304.3360;-17.0500;-14.2100;-2.8400
1304.5350;-17.2900;-14.2100;-3.0800
1304.7350;-17.5400;-14.2200;-3.3200
1304.9340;-17.8000;-14.2100;-3.5900
1305.1330;-18.1100;-14.2200;-3.8900
1305.3320;-18.4700;-14.2100;-4.2600
1305.5310;-18.7700;-14.2200;-4.5500
1305.7300;-19.1200;-14.2300;-4.8900
1305.9290;-19.5100;-14.2200;-5.2900
1306.1280;-19.9600;-14.2400;-5.7200
1306.3270;-20.4100;-14.2400;-6.1700
1306.5270;-20.9300;-14.2500;-6.6800
1306.7260;-21.4600;-14.2600;-7.2000
1306.9250;-22.0400;-14.2600;-7.7800
1307.1240;-22.7000;-14.2800;-8.4200
1307.3230;-23.3900;-14.2800;-9.1100
1307.5220;-24.1600;-14.3000;-9.8600
1307.7210;-24.9800;-14.3100;-10.6700
1307.9200;-25.8900;-14.3100;-11.5800
1308.1200;-26.8600;-14.3500;-12.5100
1308.3190;-27.8900;-14.3500;-13.5400
1308.5180;-29.1800;-14.3700;-14.8100
1308.7170;-29.9700;-14.3800;-15.5900
1308.9160;-30.7800;-14.3900;-16.3900
1309.1150;-31.2400;-14.4300;-16.8100
1309.3140;-31.2300;-14.4300;-16.8000
1309.5130;-30.7400;-14.4700;-16.2700
1309.7120;-29.9200;-14.4800;-15.4400
1309.9120;-28.9500;-14.5000;-14.4500
1310.1110;-27.9300;-14.5400;-13.3900
1310.3100;-26.9400;-14.5500;-12.3900
1310.5090;-25.8400;-14.5900;-11.2500
1310.7080;-25.1300;-14.6000;-10.5300
1310.9070;-24.3200;-14.6200;-9.7000
1311.1060;-23.5800;-14.6600;-8.9200
1311.3050;-22.9100;-14.6700;-8.2400
1311.5040;-22.2900;-14.7200;-7.5700
1311.7040;-21.7300;-14.7300;-7.0000
1311.9030;-21.2000;-14.7700;-6.4300
1312.1020;-20.7200;-14.7900;-5.9300
1312.3010;-20.2800;-14.8200;-5.4600
1312.5000;-19.8800;-14.8700;-5.0100
1312.6990;-19.5200;-14.9000;-4.6200
1312.8980;-19.1600;-14.9400;-4.2200
1313.0970;-18.8500;-14.9600;-3.8900
1313.2970;-18.5600;-15.0000;-3.5600
1313.4960;-18.3100;-15.0500;-3.2600
1313.6950;-18.0800;-15.0800;-3.0000
1313.8940;-17.8600;-15.1300;-2.7300
1314.0930;-17.6900;-15.1600;-2.5300
1314.2920;-17.5000;-15.2100;-2.2900
1314.4910;-17.3500;-15.2600;-2.0900
1314.6900;-17.2200;-15.3000;-1.9200
1314.8890;-17.0800;-15.3500;-1.7300
1315.0890;-16.9900;-15.3800;-1.6100
1315.2880;-16.8800;-15.4400;-1.4400
1315.4870;-16.8200;-15.4800;-1.3400
1315.6860;-16.7500;-15.5300;-1.2200
1315.8850;-16.7000;-15.5800;-1.1200
1316.0840;-16.6700;-15.6300;-1.0400
1316.2830;-16.6400;-15.6900;-0.9500
1316.4820;-16.6400;-15.7400;-0.9000
1316.6810;-16.6400;-15.7900;-0.8500
1316.8810;-16.6500;-15.8500;-0.8000
1317.0800;-16.6900;-15.9100;-0.7800
1317.2790;-16.7200;-15.9800;-0.7400
1317.4780;-16.7800;-16.0400;-0.7400
1317.6770;-16.8200;-16.1100;-0.7100
1317.8760;-16.8800;-16.1600;-0.7200
1318.0750;-16.9600;-16.2200;-0.7400
1318.2740;-17.0400;-16.2900;-0.7500
1318.4740;-17.1400;-16.3500;-0.7900
1318.6730;-17.2300;-16.4500;-0.7800
1318.8720;-17.3300;-16.5000;-0.8300
1319.0710;-17.4400;-16.5800;-0.8600
1319.2700;-17.5500;-16.6500;-0.9000
1319.4690;-17.6800;-16.7200;-0.9600
1319.6680;-17.7900;-16.8100;-0.9800
1319.8670;-17.9200;-16.8800;-1.0400
1320.0660;-18.0300;-16.9600;-1.0700
1320.2660;-18.1600;-17.0300;-1.1300
1320.4650;-18.3000;-17.1100;-1.1900
1320.6640;-18.4200;-17.2100;-1.2100
1320.8630;-18.5600;-17.2900;-1.2700
1321.0620;-18.6700;-17.3800;-1.2900
1321.2610;-18.8000;-17.4500;-1.3500
1321.4600;-18.9200;-17.5500;-1.3700
1321.6590;-19.0300;-17.6300;-1.4000
1321.8580;-19.1600;-17.7100;-1.4500
1322.0580;-19.2600;-17.8200;-1.4400
1322.2570;-19.3800;-17.9000;-1.4800
1322.4560;-19.4700;-18.0100;-1.4600
1322.6550;-19.5700;-18.0900;-1.4800
1322.8540;-19.6800;-18.1900;-1.4900
1323.0530;-19.7600;-18.2900;-1.4700
1323.2520;-19.8600;-18.3900;-1.4700
1323.4510;-19.9400;-18.5100;-1.4300
1323.6500;-20.0200;-18.5900;-1.4300
1323.8500;-20.1000;-18.7000;-1.4000
1324.0490;-20.1700;-18.8000;-1.3700
1324.2480;-20.2700;-18.9100;-1.3600
1324.4470;-20.3200;-19.0200;-1.3000
1324.6460;-20.4000;-19.1200;-1.2800
1324.8450;-20.4800;-19.2400;-1.2400
1325.0440;-20.5500;-19.3400;-1.2100
1325.2430;-20.6500;-19.4600;-1.1900
1325.4430;-20.7200;-19.5700;-1.1500
1325.6420;-20.8200;-19.6900;-1.1300
1325.8410;-20.9000;-19.8100;-1.0900
1326.0400;-20.9900;-19.9200;-1.0700
1326.2390;-21.1000;-20.0500;-1.0500
1326.4380;-21.2000;-20.1600;-1.0400
1326.6370;-21.3300;-20.2800;-1.0500
1326.8360;-21.4300;-20.4000;-1.0300
1327.0350;-21.5600;-20.5200;-1.0400
1327.2350;-21.7000;-20.6600;-1.0400
1327.4340;-21.8400;-20.7700;-1.0700
1327.6330;-22.0100;-20.9000;-1.1100
1327.8320;-22.1500;-21.0200;-1.1300
1328.0310;-22.3300;-21.1500;-1.1800
1328.2300;-22.5100;-21.2900;-1.2200
1328.4290;-22.7000;-21.4100;-1.2900
1328.6280;-22.9100;-21.5600;-1.3500
1328.8270;-23.1200;-21.6800;-1.4400
1329.0270;-23.3500;-21.8100;-1.5400
1329.2260;-23.5800;-21.9600;-1.6200
1329.4250;-23.8200;-22.0800;-1.7400
1329.6240;-24.0800;-22.2300;-1.8500
1329.8230;-24.3400;-22.3500;-1.9900
1330.0220;-24.6400;-22.4900;-2.1500
1330.2210;-24.9300;-22.6400;-2.2900
1330.4200;-25.2300;-22.7700;-2.4600
1330.6200;-25.5600;-22.9200;-2.6400
1330.8190;-25.8900;-23.0600;-2.8300
1331.0180;-26.2500;-23.2100;-3.0400
1331.2170;-26.6100;-23.3500;-3.2600
1331.4160;-27.0000;-23.5000;-3.5000
1331.6150;-27.3800;-23.6500;-3.7300
1331.8140;-27.7800;-23.7900;-3.9900
1332.0130;-28.2000;-23.9600;-4.2400
1332.2120;-28.7100;-24.0900;-4.6200
1332.4120;-29.0800;-24.2500;-4.8300
1332.6110;-29.5200;-24.4100;-5.1100
1332.8100;-29.9900;-24.5600;-5.4300
1333.0090;-30.4300;-24.7300;-5.7000
1333.2080;-30.8900;-24.8700;-6.0200
1333.4070;-31.3300;-25.0300;-6.3000
1333.6060;-31.7700;-25.1800;-6.5900
1333.8050;-32.2000;-25.3400;-6.8600
1334.0040;-32.6000;-25.5100;-7.0900
1334.2040;-32.9700;-25.6600;-7.3100
1334.4030;-33.3000;-25.8300;-7.4700
1334.6020;-33.5800;-25.9800;-7.6000
1334.8010;-33.8300;-26.1400;-7.6900
1335.0000;-34.0100;-26.3100;-7.7000
1335.1990;-34.1600;-26.4600;-7.7000
1335.3980;-34.2300;-26.6400;-7.5900
1335.5970;-34.2800;-26.7900;-7.4900
1335.7970;-34.2800;-26.9600;-7.3200
1335.9960;-34.2500;-27.1300;-7.1200
1336.1950;-34.1900;-27.2900;-6.9000
1336.3940;-34.1000;-27.4500;-6.6500
1336.5930;-34.0000;-27.6100;-6.3900
1336.7920;-33.8800;-27.7900;-6.0900
1336.9910;-33.7600;-27.9400;-5.8200
1337.1900;-33.6600;-28.1100;-5.5500
1337.3890;-33.5500;-28.2800;-5.2700
1337.5890;-33.4600;-28.4400;-5.0200
1337.7880;-33.3500;-28.6500;-4.7000
1337.9870;-33.2800;-28.7900;-4.4900
1338.1860;-33.2000;-28.9600;-4.2400
1338.3850;-33.1400;-29.1300;-4.0100
1338.5840;-33.1100;-29.3100;-3.8000
1338.7830;-33.0800;-29.4700;-3.6100
1338.9820;-33.0800;-29.6400;-3.4400
1339.1810;-33.0700;-29.8200;-3.2500
1339.3810;-33.0900;-29.9900;-3.1000
1339.5800;-33.1300;-30.1700;-2.9600
1339.7790;-33.1700;-30.3300;-2.8400
1339.9780;-33.2600;-30.5200;-2.7400
1340.1770;-33.3300;-30.6900;-2.6400
1340.3760;-33.4400;-30.8600;-2.5800
1340.5750;-33.5700;-31.0600;-2.5100
1340.7740;-33.6900;-31.2200;-2.4700
1340.9740;-33.8500;-31.4000;-2.4500
1341.1730;-34.0100;-31.5700;-2.4400
1341.3720;-34.1900;-31.7400;-2.4500
1341.5710;-34.3800;-31.9200;-2.4600
1341.7700;-34.6000;-32.0900;-2.5100
1341.9690;-34.8400;-32.2800;-2.5600
1342.1680;-35.0800;-32.4400;-2.6400
1342.3670;-35.3600;-32.6200;-2.7400
1342.5660;-35.6300;-32.7900;-2.8400
1342.7660;-35.9400;-32.9700;-2.9700
1342.9650;-36.2600;-33.1600;-3.1000
1343.1640;-36.6100;-33.3300;-3.2800
1343.3630;-36.9800;-33.5100;-3.4700
1343.5620;-37.3500;-33.6800;-3.6700
1343.7610;-37.7700;-33.8500;-3.9200
1343.9600;-38.2000;-34.0500;-4.1500
1344.1590;-38.7700;-34.2200;-4.5500
1344.3580;-39.1500;-34.4100;-4.7400
1344.5580;-39.6600;-34.5800;-5.0800
1344.7570;-40.2100;-34.7700;-5.4400
1344.9560;-40.7700;-34.9400;-5.8300
1345.1550;-41.3800;-35.1000;-6.2800
1345.3540;-42.0000;-35.2800;-6.7200
1345.5530;-42.6700;-35.4400;-7.2300
1345.7520;-43.3800;-35.6300;-7.7500
1345.9510;-44.1300;-35.8000;-8.3300
1346.1500;-44.9400;-35.9700;-8.9700
1346.3500;-45.7800;-36.1600;-9.6200
1346.5490;-46.7000;-36.3400;-10.3600
1346.7480;-47.6300;-36.5100;-11.1200
1346.9470;-48.8400;-36.6800;-12.1600
1347.1460;-49.6400;-36.8500;-12.7900
1347.3450;-50.6300;-37.0000;-13.6300
1347.5440;-51.6100;-37.2100;-14.4000
1347.7430;-52.4700;-37.4400;-15.0300
1347.9430;-53.1200;-37.6300;-15.4900
1348.1420;-53.4200;-37.8000;-15.6200
1348.3410;-53.4000;-37.9800;-15.4200
1348.5400;-53.0600;-38.1100;-14.9500
1348.7390;-52.5400;-38.2700;-14.2700
1348.9380;-51.9300;-38.4600;-13.4700
1349.1370;-51.2600;-38.5900;-12.6700
1349.3360;-50.6100;-38.7200;-11.8900
1349.5350;-49.9800;-38.8700;-11.1100
1349.7350;-49.4100;-39.0200;-10.3900
1349.9340;-48.9100;-39.1900;-9.7200
1350.1330;-48.4500;-39.3900;-9.0600
1350.3320;-48.1100;-39.6100;-8.5000
1350.5310;-47.7500;-39.8100;-7.9400
1350.7300;-47.4000;-39.9700;-7.4300
1350.9290;-47.0700;-40.1100;-6.9600
1351.1280;-46.7600;-40.2200;-6.5400
1351.3270;-46.5100;-40.3600;-6.1500
1351.5270;-46.2700;-40.5400;-5.7300
1351.7260;-46.2100;-40.7500;-5.4600
1351.9250;-46.0700;-40.9200;-5.1500
1352.1240;-45.9600;-41.0900;-4.8700
1352.3230;-45.8500;-41.2500;-4.6000
1352.5220;-45.8400;-41.4500;-4.3900
1352.7210;-45.7800;-41.5800;-4.2000
1352.9200;-45.7400;-41.7300;-4.0100
1353.1200;-45.8200;-41.9800;-3.8400
1353.3190;-45.7800;-42.0700;-3.7100
1353.5180;-45.8100;-42.2300;-3.5800
1353.7170;-45.8800;-42.4000;-3.4800
1353.9160;-45.9100;-42.4900;-3.4200
1354.1150;-45.9900;-42.6200;-3.3700
1354.3140;-46.1400;-42.8400;-3.3000
1354.5130;-46.2900;-43.0200;-3.2700
1354.7120;-46.5700;-43.3100;-3.2600
1354.9120;-46.8300;-43.6000;-3.2300
1355.1110;-47.0700;-43.7500;-3.3200
1355.3100;-47.2200;-43.8800;-3.3400
1355.5090;-47.3400;-43.8500;-3.4900
1355.7080;-47.6000;-44.1100;-3.4900
1355.9070;-47.9800;-44.3700;-3.6100
1356.1060;-48.2600;-44.5200;-3.7400
1356.3050;-48.5900;-44.6000;-3.9900
1356.5040;-48.8100;-44.6800;-4.1300
1356.7040;-48.9000;-44.6000;-4.3000
1356.9030;-49.2200;-44.7300;-4.4900
1357.1020;-49.7600;-45.0900;-4.6700
1357.3010;-50.2700;-45.3100;-4.9600
1357.5000;-50.7500;-45.4700;-5.2800
1357.6990;-51.2200;-45.6500;-5.5700
1357.8980;-51.6900;-45.6800;-6.0100
1358.0970;-52.0700;-45.7300;-6.3400
1358.2970;-52.6400;-45.9000;-6.7400
1358.4960;-53.3100;-46.1200;-7.1900
1358.6950;-53.9200;-46.2500;-7.6700
1358.8940;-54.6200;-46.3800;-8.2400
1359.0930;-55.3500;-46.5200;-8.8300
1359.2920;-55.9900;-46.5500;-9.4400
1359.4910;-56.9000;-46.9100;-9.9900
1359.6900;-57.8700;-47.2000;-10.6700
1359.8890;-59.0900;-47.3800;-11.7100
1360.0890;-59.7700;-47.4300;-12.3400
1360.2880;-60.5700;-47.4300;-13.1400
1360.4870;-61.1800;-47.4100;-13.7700
1360.6860;-61.8000;-47.5600;-14.2400
1360.8850;-62.4500;-47.8900;-14.5600
1361.0840;-62.8200;-48.1900;-14.6300
1361.2830;-62.7800;-48.3400;-14.4400
1361.4820;-62.3600;-48.5500;-13.8100
1361.6810;-62.0000;-48.6800;-13.3200
1361.8810;-61.3400;-48.8200;-12.5200
1362.0800;-60.7300;-49.0200;-11.7100
1362.2790;-60.2500;-49.4200;-10.8300
1362.4780;-59.9000;-49.6600;-10.2400
1362.6770;-59.1500;-49.7700;-9.3800
1362.8760;-58.3400;-49.6400;-8.7000
1363.0750;-57.6300;-49.5500;-8.0800
1363.2740;-56.8300;-49.3200;-7.5100
1363.4740;-56.2700;-49.3700;-6.9000
1363.6730;-55.9200;-49.4500;-6.4700
1363.8720;-55.5900;-49.5900;-6.0000
1364.0710;-55.3300;-49.7800;-5.5500
1364.2700;-55.1400;-49.9800;-5.1600
1364.4690;-54.9900;-50.2700;-4.7200
1364.6680;-55.2000;-50.7700;-4.4300
1364.8670;-55.1000;-50.9700;-4.1300
1365.0660;-54.7800;-50.9300;-3.8500
1365.2660;-54.6300;-51.0900;-3.5400
1365.4650;-54.3500;-51.0100;-3.3400
1365.6640;-54.1900;-51.0800;-3.1100
1365.8630;-54.0000;-51.1000;-2.9000
1366.0620;-53.8300;-51.0800;-2.7500
1366.2610;-53.6600;-51.0600;-2.6000
1366.4600;-53.5500;-51.1100;-2.4400
1366.6590;-53.5700;-51.2800;-2.2900
1366.8580;-53.6700;-51.4900;-2.1800
1367.0580;-53.7100;-51.6200;-2.0900
1367.2570;-53.7200;-51.7100;-2.0100
1367.4560;-53.8800;-51.9700;-1.9100
1367.6550;-53.9800;-52.1500;-1.8300
1367.8540;-54.2200;-52.4000;-1.8200
1368.0530;-54.2900;-52.5200;-1.7700
1368.2520;-54.2900;-52.4700;-1.8200
1368.4510;-54.5300;-52.8100;-1.7200
1368.6500;-54.6500;-52.8800;-1.7700
1368.8500;-54.7500;-52.9700;-1.7800
1369.0490;-54.7500;-52.9500;-1.8000
1369.2480;-54.7900;-52.8900;-1.9000
1369.4470;-54.7100;-52.8200;-1.8900
1369.6460;-54.8200;-52.9000;-1.9200
1369.8450;-55.1500;-53.2300;-1.9200
1370.0440;-55.4200;-53.4100;-2.0100
1370.2430;-55.6100;-53.5300;-2.0800
1370.4430;-55.7200;-53.5800;-2.1400
1370.6420;-55.8300;-53.5900;-2.2400
1370.8410;-56.1300;-53.9000;-2.2300
1371.0400;-56.4900;-54.1600;-2.3300
1371.2390;-56.7600;-54.3300;-2.4300
1371.4380;-56.8500;-54.3500;-2.5000
1371.6370;-56.9500;-54.2900;-2.6600
1371.8360;-56.9300;-54.2800;-2.6500
1372.0350;-57.1700;-54.4500;-2.7200
1372.2350;-57.4300;-54.6600;-2.7700
1372.4340;-57.6000;-54.7400;-2.8600
1372.6330;-57.7300;-54.8200;-2.9100
1372.8320;-57.8100;-54.8500;-2.9600
1373.0310;-57.8800;-54.8700;-3.0100
1373.2300;-58.0200;-55.0200;-3.0000
1373.4290;-58.1700;-55.1400;-3.0300
1373.6280;-58.3100;-55.2600;-3.0500
1373.8270;-58.3800;-55.3300;-3.0500
1374.0270;-58.5300;-55.4400;-3.0900
1374.2260;-58.5700;-55.5300;-3.0400
1374.4250;-58.6700;-55.6700;-3.0000
1374.6240;-58.7700;-55.8100;-2.9600
1374.8230;-58.8900;-55.9900;-2.9000
1375.0220;-59.0300;-56.1700;-2.8600
1375.2210;-59.0500;-56.2400;-2.8100
1375.4200;-59.0600;-56.3000;-2.7600
1375.6200;-59.0500;-56.3800;-2.6700
1375.8190;-59.0900;-56.4800;-2.6100
1376.0180;-59.1600;-56.6300;-2.5300
1376.2170;-59.2100;-56.7700;-2.4400
1376.4160;-59.2500;-56.8700;-2.3800
1376.6150;-59.2700;-56.9600;-2.3100
1376.8140;-59.3300;-57.1100;-2.2200
1377.0130;-59.5100;-57.3400;-2.1700
1377.2120;-59.6400;-57.5100;-2.1300
1377.4120;-59.6600;-57.6000;-2.0600
1377.6110;-59.6600;-57.6400;-2.0200
1377.8100;-59.5800;-57.6100;-1.9700
1378.0090;-59.5800;-57.6600;-1.9200
1378.2080;-59.6500;-57.7600;-1.8900
1378.4070;-59.7800;-57.9300;-1.8500
1378.6060;-60.0000;-58.1800;-1.8200
1378.8050;-60.2900;-58.5400;-1.7500
1379.0040;-60.4400;-58.6100;-1.8300
1379.2040;-60.5400;-58.6600;-1.8800
1379.4030;-60.5200;-58.6400;-1.8800
1379.6020;-60.5000;-58.6200;-1.8800
1379.8010;-60.5900;-58.6300;-1.9600
1380.0000;-60.7700;-58.7700;-2.0000
1380.1990;-61.0000;-58.9500;-2.0500
1380.3980;-61.2700;-59.1500;-2.1200
1380.5970;-61.8100;-59.7300;-2.0800
1380.7970;-62.4300;-60.1400;-2.2900
1380.9960;-62.7400;-60.3000;-2.4400
1381.1950;-62.9200;-60.2900;-2.6300
1381.3940;-62.8900;-60.0000;-2.8900
1381.5930;-62.7300;-59.7500;-2.9800
1381.7920;-62.9500;-59.8000;-3.1500
1381.9910;-63.1400;-59.8400;-3.3000
1382.1900;-63.4500;-59.9400;-3.5100
1382.3890;-63.9100;-60.2600;-3.6500
1382.5890;-64.5500;-60.8000;-3.7500
1382.7880;-65.3700;-61.2900;-4.0800
1382.9870;-65.9100;-61.5000;-4.4100
1383.1860;-66.0800;-61.2600;-4.8200
1383.3850;-66.1500;-60.9800;-5.1700
1383.5840;-66.2100;-60.7700;-5.4400
1383.7830;-66.5700;-60.9300;-5.6400
1383.9820;-66.9500;-61.0300;-5.9200
1384.1810;-67.4400;-61.0800;-6.3600
1384.3810;-67.8200;-61.1100;-6.7100
1384.5800;-67.9900;-61.0400;-6.9500
1384.7790;-68.3600;-61.1700;-7.1900
1384.9780;-68.8500;-61.4200;-7.4300
1385.1770;-69.4100;-61.6400;-7.7700
1385.3760;-69.7300;-61.7600;-7.9700
1385.5750;-69.8500;-61.7100;-8.1400
1385.7740;-70.0000;-61.7400;-8.2600
1385.9740;-70.1200;-61.7300;-8.3900
1386.1730;-70.2500;-61.7700;-8.4800
1386.3720;-70.3700;-61.8800;-8.4900
1386.5710;-70.1600;-61.9200;-8.2400
1386.7700;-70.0200;-61.9700;-8.0500
1386.9690;-69.8900;-62.0000;-7.8900
1387.1680;-69.6300;-62.0200;-7.6100
1387.3670;-69.3700;-62.0900;-7.2800
1387.5660;-69.1000;-62.1500;-6.9500
1387.7660;-69.1000;-62.4300;-6.6700
1387.9650;-68.9700;-62.6800;-6.2900
1388.1640;-68.9700;-62.9600;-6.0100
1388.3630;-68.6800;-63.0600;-5.6200
1388.5620;-68.3700;-63.0100;-5.3600
1388.7610;-68.0100;-62.8800;-5.1300
1388.9600;-67.6700;-62.8300;-4.8400
1389.1590;-67.2700;-62.8000;-4.4700
1389.3580;-67.1400;-62.8100;-4.3300
1389.5580;-66.9600;-62.8600;-4.1000
1389.7570;-66.7700;-62.9900;-3.7800
1389.9560;-66.6300;-63.1700;-3.4600
1390.1550;-66.5800;-63.2200;-3.3600
1390.3540;-66.4400;-63.2400;-3.2000
1390.5530;-66.3100;-63.3300;-2.9800
1390.7520;-66.1200;-63.2800;-2.8400
1390.9510;-66.0900;-63.4100;-2.6800
1391.1500;-66.0100;-63.4500;-2.5600
1391.3500;-65.9400;-63.4900;-2.4500
1391.5490;-65.9200;-63.5400;-2.3800
1391.7480;-65.8900;-63.6500;-2.2400
1391.9470;-65.9300;-63.7600;-2.1700
1392.1460;-66.0600;-63.9200;-2.1400
1392.3450;-66.2000;-64.1600;-2.0400
1392.5440;-66.5500;-64.5900;-1.9600
1392.7430;-66.6800;-64.7100;-1.9700
1392.9430;-66.7000;-64.6200;-2.0800
1393.1420;-66.5800;-64.4800;-2.1000
1393.3410;-66.4400;-64.3000;-2.1400
1393.5400;-66.3600;-64.2800;-2.0800
1393.7390;-66.5000;-64.3700;-2.1300
1393.9380;-66.6200;-64.4100;-2.2100
1394.1370;-66.8800;-64.4900;-2.3900
1394.3360;-67.0000;-64.5700;-2.4300
1394.5350;-67.1900;-64.6100;-2.5800
1394.7350;-67.4400;-64.7500;-2.6900
1394.9340;-67.7700;-65.0500;-2.7200
1395.1330;-68.2600;-65.2200;-3.0400
1395.3320;-68.4300;-65.3800;-3.0500
1395.5310;-68.7600;-65.4700;-3.2900
1395.7300;-68.9600;-65.5200;-3.4400
1395.9290;-69.1600;-65.3900;-3.7700
1396.1280;-69.3300;-65.5200;-3.8100
1396.3270;-69.8000;-65.6300;-4.1700
1396.5270;-70.4700;-65.9200;-4.5500
1396.7260;-70.8300;-66.0500;-4.7800
1396.9250;-71.1100;-66.0900;-5.0200
1397.1240;-71.4800;-65.8900;-5.5900
1397.3230;-71.7600;-65.7800;-5.9800
1397.5220;-71.8500;-65.7400;-6.1100
1397.7210;-72.1100;-65.7900;-6.3200
1397.9200;-72.4300;-65.8800;-6.5500
1398.1200;-73.0400;-65.8800;-7.1600
1398.3190;-73.2900;-66.0000;-7.2900
1398.5180;-74.1100;-66.1100;-8.0000
1398.7170;-74.3900;-66.1700;-8.2200
1398.9160;-74.9000;-66.2900;-8.6100
1399.1150;-75.3700;-66.2800;-9.0900
1399.3140;-75.2800;-66.4200;-8.8600
1399.5130;-75.9300;-66.7000;-9.2300
1399.7120;-76.1700;-66.8100;-9.3600
1399.9120;-76.0900;-67.0200;-9.0700
1400.1110;-76.2200;-67.1500;-9.0700
1400.3100;-75.6100;-67.1100;-8.5000
1400.5090;-75.6500;-67.1900;-8.4600
1400.7080;-76.2200;-67.5300;-8.6900
1400.9070;-76.3100;-67.6500;-8.6600
1401.1060;-75.7200;-67.6900;-8.0300
1401.3050;-75.5700;-67.7200;-7.8500
1401.5040;-75.0200;-67.6200;-7.4000
1401.7040;-75.0800;-67.6400;-7.4400
1401.9030;-74.7400;-67.7600;-6.9800
1402.1020;-74.1200;-67.7900;-6.3300
1402.3010;-73.9300;-67.6900;-6.2400
1402.5000;-73.7500;-67.7000;-6.0500
1402.6990;-73.8400;-67.7100;-6.1300
1402.8980;-73.1900;-67.8800;-5.3100
1403.0970;-73.2100;-68.0500;-5.1600
1403.2970;-73.1300;-68.1100;-5.0200
1403.4960;-72.8200;-68.1700;-4.6500
1403.6950;-72.7000;-68.2600;-4.4400
1403.8940;-72.4100;-68.3500;-4.0600
1404.0930;-72.6300;-68.5100;-4.1200
1404.2920;-72.8100;-68.6300;-4.1800
1404.4910;-72.6200;-68.7700;-3.8500
1404.6900;-72.5800;-68.7800;-3.8000
1404.8890;-72.9400;-69.4100;-3.5300
1405.0890;-73.4900;-69.7100;-3.7800
1405.2880;-73.1600;-69.4600;-3.7000
1405.4870;-72.8800;-69.4900;-3.3900
1405.6860;-72.5000;-69.3300;-3.1700
1405.8850;-72.8200;-69.2700;-3.5500
1406.0840;-72.6600;-69.2100;-3.4500
1406.2830;-72.7000;-69.3500;-3.3500
1406.4820;-72.6700;-69.4400;-3.2300
1406.6810;-72.8400;-69.5200;-3.3200
1406.8810;-72.9700;-69.7600;-3.2100
1407.0800;-72.9800;-69.9600;-3.0200
1407.2790;-73.2800;-70.2200;-3.0600
1407.4780;-73.2200;-70.0900;-3.1300
1407.6770;-73.8200;-70.2200;-3.6000
1407.8760;-73.5900;-70.0600;-3.5300
1408.0750;-73.4000;-70.1900;-3.2100
1408.2740;-73.7600;-70.2100;-3.5500
1408.4740;-73.5800;-70.1200;-3.4600
1408.6730;-74.1100;-70.1800;-3.9300
1408.8720;-73.9800;-70.4900;-3.4900
1409.0710;-74.4200;-70.6800;-3.7400
1409.2700;-74.7500;-70.8900;-3.8600
1409.4690;-75.1900;-71.2300;-3.9600
1409.6680;-75.2900;-71.1900;-4.1000
1409.8670;-74.9700;-71.2700;-3.7000
1410.0660;-75.0600;-71.1100;-3.9500
1410.2660;-75.4300;-71.1000;-4.3300
1410.4650;-75.3100;-71.0700;-4.2400
1410.6640;-75.3000;-71.2000;-4.1000
1410.8630;-75.5800;-71.1200;-4.4600
1411.0620;-75.3300;-71.2800;-4.0500
1411.2610;-75.2500;-71.3000;-3.9500
1411.4600;-75.9200;-71.6000;-4.3200
1411.6590;-75.9700;-71.6000;-4.3700
1411.8580;-75.8000;-71.6200;-4.1800
1412.0580;-75.8800;-71.7900;-4.0900
1412.2570;-75.8900;-71.9500;-3.9400
1412.4560;-75.9800;-71.7900;-4.1900
1412.6550;-76.1300;-71.8300;-4.3000
1412.8540;-76.2800;-72.1500;-4.1300
1413.0530;-76.3400;-72.0000;-4.3400
1413.2520;-76.3900;-72.1600;-4.2300
1413.4510;-76.7500;-72.1300;-4.6200
1413.6500;-76.2700;-72.4800;-3.7900
1413.8500;-76.0700;-72.4300;-3.6400
1414.0490;-76.2100;-72.5400;-3.6700
1414.2480;-76.3300;-72.4400;-3.8900
1414.4470;-76.8200;-72.8500;-3.9700
1414.6460;-76.6500;-73.2100;-3.4400
1414.8450;-75.9800;-72.8100;-3.1700
1415.0440;-76.3800;-73.0500;-3.3300
1415.2430;-76.3500;-73.0900;-3.2600
1415.4430;-76.7300;-73.1300;-3.6000
1415.6420;-75.6300;-72.5800;-3.0500
1415.8410;-76.2400;-72.7100;-3.5300
1416.0400;-76.0400;-72.9000;-3.1400
1416.2390;-75.5800;-73.2100;-2.3700
1416.4380;-75.9200;-73.1500;-2.7700
1416.6370;-76.1000;-73.1400;-2.9600
1416.8360;-76.4500;-73.2800;-3.1700
1417.0350;-75.9300;-73.0000;-2.9300
1417.2350;-76.4700;-72.9100;-3.5600
1417.4340;-76.7100;-73.7100;-3.0000
1417.6330;-76.8300;-73.8100;-3.0200
1417.8320;-76.4800;-73.4800;-3.0000
1418.0310;-76.9300;-72.9200;-4.0100
1418.2300;-76.3800;-73.4100;-2.9700
1418.4290;-76.7600;-73.6400;-3.1200
1418.6280;-76.6700;-73.6000;-3.0700
1418.8270;-77.1600;-73.6100;-3.5500
1419.0270;-77.5200;-73.8200;-3.7000
1419.2260;-76.9400;-74.0100;-2.9300
1419.4250;-76.9800;-74.1500;-2.8300
1419.6240;-77.6500;-74.2400;-3.4100
1419.8230;-77.7400;-73.9900;-3.7500
1420.0220;-78.0500;-74.0900;-3.9600
1420.2210;-77.3200;-74.0900;-3.2300
1420.4200;-77.3000;-73.7000;-3.6000
1420.6200;-76.7300;-74.3100;-2.4200
1420.8190;-77.0000;-74.0400;-2.9600
1421.0180;-77.5700;-74.4300;-3.1400
1421.2170;-76.6500;-74.2900;-2.3600
1421.4160;-76.6000;-74.3600;-2.2400
1421.6150;-78.0300;-73.9900;-4.0400
1421.8140;-76.9500;-74.3600;-2.5900
1422.0130;-77.4300;-74.1700;-3.2600
1422.2120;-77.2900;-74.4400;-2.8500
1422.4120;-77.9400;-74.4600;-3.4800
1422.6110;-77.8900;-74.2300;-3.6600
1422.8100;-77.8400;-74.0100;-3.8300
1423.0090;-77.3500;-74.4400;-2.9100
1423.2080;-77.2900;-74.0500;-3.2400
1423.4070;-76.9500;-74.1000;-2.8500
1423.6060;-78.2000;-74.1300;-4.0700
1423.8050;-77.6600;-74.3800;-3.2800
1424.0040;-77.5800;-74.1000;-3.4800
1424.2040;-77.7300;-74.6700;-3.0600
1424.4030;-77.8700;-74.3300;-3.5400
1424.6020;-78.1800;-74.1300;-4.0500
1424.8010;-79.2700;-74.0600;-5.2100
1425.0000;-77.0700;-74.1700;-2.9000
