Wavelength;Intensity_Meas;Intensity_Ref;Difference_dB
1200.0000;-60.9700;-56.1700;-4.8000
1200.1990;-60.9000;-56.1300;-4.7700
1200.3980;-60.8900;-56.1000;-4.7900
1200.5970;-60.9000;-56.0800;-4.8200
1200.7970;-60.8800;-56.0500;-4.8300
1200.9960;-60.8600;-56.0200;-4.8400
1201.1950;-60.8200;-55.9700;-4.8500
1201.3940;-60.8100;-55.9300;-4.8800
1201.5930;-60.7200;-55.9000;-4.8200
1201.7920;-60.6900;-55.8500;-4.8400
1201.9910;-60.6800;-55.8100;-4.8700
1202.1900;-60.6700;-55.7500;-4.9200
1202.3890;-60.5900;-55.7000;-4.8900
1202.5890;-60.5400;-55.6600;-4.8800
1202.7880;-60.5600;-55.5900;-4.9700
1202.9870;-60.5500;-55.5400;-5.0100
1203.1860;-60.4700;-55.4800;-4.9900
1203.3850;-60.4400;-55.4400;-5.0000
1203.5840;-60.4700;-55.4200;-5.0500
1203.7830;-60.4700;-55.3500;-5.1200
1203.9820;-60.4300;-55.3200;-5.1100
1204.1810;-60.4200;-55.2800;-5.1400
1204.3810;-60.4200;-55.2400;-5.1800
1204.5800;-60.4200;-55.2300;-5.1900
1204.7790;-60.4000;-55.1800;-5.2200
1204.9780;-60.3800;-55.1500;-5.2300
1205.1770;-60.3700;-55.1200;-5.2500
1205.3760;-60.3600;-55.0900;-5.2700
1205.5750;-60.3700;-55.0900;-5.2800
1205.7740;-60.3600;-55.0500;-5.3100
1205.9740;-60.3100;-55.0400;-5.2700
1206.1730;-60.2800;-55.0200;-5.2600
1206.3720;-60.3000;-54.9900;-5.3100
1206.5710;-60.2700;-54.9800;-5.2900
1206.7700;-60.2300;-54.9500;-5.2800
1206.9690;-60.1800;-54.9300;-5.2500
1207.1680;-60.1600;-54.9000;-5.2600
1207.3670;-60.1100;-54.8600;-5.2500
1207.5660;-60.0500;-54.8500;-5.2000
1207.7660;-60.0200;-54.8000;-5.2200
1207.9650;-60.0200;-54.7700;-5.2500
1208.1640;-59.9700;-54.7200;-5.2500
1208.3630;-59.9000;-54.6800;-5.2200
1208.5620;-59.8300;-54.6500;-5.1800
1208.7610;-59.8100;-54.5800;-5.2300
1208.9600;-59.7800;-54.5400;-5.2400
1209.1590;-59.6700;-54.4900;-5.1800
1209.3580;-59.6200;-54.4300;-5.1900
1209.5580;-59.5800;-54.4000;-5.1800
1209.7570;-59.5400;-54.3400;-5.2000
1209.9560;-59.4500;-54.2800;-5.1700
1210.1550;-59.3500;-54.2300;-5.1200
1210.3540;-59.3000;-54.1800;-5.1200
1210.5530;-59.2500;-54.1400;-5.1100
1210.7520;-59.1900;-54.0800;-5.1100
1210.9510;-59.1000;-54.0300;-5.0700
1211.1500;-59.0400;-54.0000;-5.0400
1211.3500;-59.0000;-53.9500;-5.0500
1211.5490;-58.9700;-53.9200;-5.0500
1211.7480;-58.8900;-53.8800;-5.0100
1211.9470;-58.8100;-53.8400;-4.9700
1212.1460;-58.7900;-53.8200;-4.9700
1212.3450;-58.7700;-53.7700;-5.0000
1212.5440;-58.7200;-53.7600;-4.9600
1212.7430;-58.6700;-53.7200;-4.9500
1212.9430;-58.6700;-53.6800;-4.9900
1213.1420;-58.6600;-53.6700;-4.9900
1213.3410;-58.6400;-53.6300;-5.0100
1213.5400;-58.6000;-53.6100;-4.9900
1213.7390;-58.6100;-53.5700;-5.0400
1213.9380;-58.6300;-53.5300;-5.1000
1214.1370;-58.5900;-53.5100;-5.0800
1214.3360;-58.5700;-53.4600;-5.1100
1214.5350;-58.5900;-53.4400;-5.1500
1214.7350;-58.6000;-53.3900;-5.2100
1214.9340;-58.5700;-53.3400;-5.2300
1215.1330;-58.5400;-53.2900;-5.2500
1215.3320;-58.5400;-53.2400;-5.3000
1215.5310;-58.5600;-53.2000;-5.3600
1215.7300;-58.5500;-53.1400;-5.4100
1215.9290;-58.4800;-53.0800;-5.4000
1216.1280;-58.4600;-53.0300;-5.4300
1216.3270;-58.4600;-52.9600;-5.5000
1216.5270;-58.4500;-52.9200;-5.5300
1216.7260;-58.3800;-52.8600;-5.5200
1216.9250;-58.3400;-52.7900;-5.5500
1217.1240;-58.3200;-52.7400;-5.5800
1217.3230;-58.3300;-52.6700;-5.6600
1217.5220;-58.2700;-52.6300;-5.6400
1217.7210;-58.2400;-52.5700;-5.6700
1217.9200;-58.2300;-52.5200;-5.7100
1218.1200;-58.2100;-52.4800;-5.7300
1218.3190;-58.1900;-52.4200;-5.7700
1218.5180;-58.1400;-52.3900;-5.7500
1218.7170;-58.1700;-52.3400;-5.8300
1218.9160;-58.1500;-52.2900;-5.8600
1219.1150;-58.1100;-52.2600;-5.8500
1219.3140;-58.1000;-52.2100;-5.8900
1219.5130;-58.1100;-52.1900;-5.9200
1219.7120;-58.1200;-52.1500;-5.9700
1219.9120;-58.0800;-52.1100;-5.9700
1220.1110;-58.0400;-52.0700;-5.9700
1220.3100;-58.0400;-52.0300;-6.0100
1220.5090;-58.0400;-52.0000;-6.0400
1220.7080;-58.0100;-51.9500;-6.0600
1220.9070;-57.9400;-51.9100;-6.0300
1221.1060;-57.9100;-51.8500;-6.0600
1221.3050;-57.8900;-51.8000;-6.0900
1221.5040;-57.8300;-51.7500;-6.0800
1221.7040;-57.7700;-51.6800;-6.0900
1221.9030;-57.7000;-51.6300;-6.0700
1222.1020;-57.6400;-51.5700;-6.0700
1222.3010;-57.5800;-51.5000;-6.0800
1222.5000;-57.4700;-51.4300;-6.0400
1222.6990;-57.4100;-51.3600;-6.0500
1222.8980;-57.3300;-51.2900;-6.0400
1223.0970;-57.2300;-51.2200;-6.0100
1223.2970;-57.1500;-51.1500;-6.0000
1223.4960;-57.0400;-51.0800;-5.9600
1223.6950;-56.9700;-51.0000;-5.9700
1223.8940;-56.8900;-50.9400;-5.9500
1224.0930;-56.7800;-50.8700;-5.9100
1224.2920;-56.7000;-50.8000;-5.9000
1224.4910;-56.6300;-50.7400;-5.8900
1224.6900;-56.5600;-50.6700;-5.8900
1224.8890;-56.4400;-50.6000;-5.8400
1225.0890;-56.3800;-50.5500;-5.8300
1225.2880;-56.3200;-50.4800;-5.8400
1225.4870;-56.2300;-50.4300;-5.8000
1225.6860;-56.1600;-50.3700;-5.7900
1225.8850;-56.0900;-50.3200;-5.7700
1226.0840;-56.0300;-50.2700;-5.7600
1226.2830;-55.9800;-50.2100;-5.7700
1226.4820;-55.8900;-50.1600;-5.7300
1226.6810;-55.8200;-50.1100;-5.7100
1226.8810;-55.7600;-50.0600;-5.7000
1227.0800;-55.6900;-50.0000;-5.6900
1227.2790;-55.6000;-49.9500;-5.6500
1227.4780;-55.5200;-49.8900;-5.6300
1227.6770;-55.4700;-49.8300;-5.6400
1227.8760;-55.3800;-49.7700;-5.6100
1228.0750;-55.2900;-49.7100;-5.5800
1228.2740;-55.2000;-49.6400;-5.5600
1228.4740;-55.1100;-49.5700;-5.5400
1228.6730;-55.0300;-49.4900;-5.5400
1228.8720;-54.9400;-49.4200;-5.5200
1229.0710;-54.8600;-49.3500;-5.5100
1229.2700;-54.7800;-49.2600;-5.5200
1229.4690;-54.6800;-49.1900;-5.4900
1229.6680;-54.6100;-49.1000;-5.5100
1229.8670;-54.5200;-49.0100;-5.5100
1230.0660;-54.4700;-48.9500;-5.5200
1230.2660;-54.3800;-48.8500;-5.5300
1230.4650;-54.3100;-48.7700;-5.5400
1230.6640;-54.2600;-48.6900;-5.5700
1230.8630;-54.2200;-48.6200;-5.6000
1231.0620;-54.1600;-48.5500;-5.6100
1231.2610;-54.1200;-48.4800;-5.6400
1231.4600;-54.1000;-48.4300;-5.6700
1231.6590;-54.0700;-48.3500;-5.7200
1231.8580;-54.0200;-48.2800;-5.7400
1232.0580;-53.9800;-48.2300;-5.7500
1232.2570;-53.9500;-48.1600;-5.7900
1232.4560;-53.9200;-48.1200;-5.8000
1232.6550;-53.8800;-48.0400;-5.8400
1232.8540;-53.8200;-47.9800;-5.8400
1233.0530;-53.8000;-47.9300;-5.8700
1233.2520;-53.7400;-47.8600;-5.8800
1233.4510;-53.6700;-47.8100;-5.8600
1233.6500;-53.6300;-47.7400;-5.8900
1233.8500;-53.5600;-47.6800;-5.8800
1234.0490;-53.5200;-47.6200;-5.9000
1234.2480;-53.4300;-47.5400;-5.8900
1234.4470;-53.3500;-47.4800;-5.8700
1234.6460;-53.3000;-47.4000;-5.9000
1234.8450;-53.2200;-47.3300;-5.8900
1235.0440;-53.1400;-47.2400;-5.9000
1235.2430;-53.0500;-47.1600;-5.8900
1235.4430;-52.9700;-47.0800;-5.8900
1235.6420;-52.8900;-46.9800;-5.9100
1235.8410;-52.7800;-46.9000;-5.8800
1236.0400;-52.7200;-46.8100;-5.9100
1236.2390;-52.6100;-46.7100;-5.9000
1236.4380;-52.5100;-46.6200;-5.8900
1236.6370;-52.4200;-46.5300;-5.8900
1236.8360;-52.3200;-46.4400;-5.8800
1237.0350;-52.2300;-46.3400;-5.8900
1237.2350;-52.1200;-46.2500;-5.8700
1237.4340;-52.0100;-46.1600;-5.8500
1237.6330;-51.9300;-46.0700;-5.8600
1237.8320;-51.8300;-46.0000;-5.8300
1238.0310;-51.7300;-45.8900;-5.8400
1238.2300;-51.6300;-45.8300;-5.8000
1238.4290;-51.5400;-45.7300;-5.8100
1238.6280;-51.4500;-45.6600;-5.7900
1238.8270;-51.3500;-45.5800;-5.7700
1239.0270;-51.2800;-45.5000;-5.7800
1239.2260;-51.1900;-45.4200;-5.7700
1239.4250;-51.1000;-45.3300;-5.7700
1239.6240;-51.0300;-45.2500;-5.7800
1239.8230;-50.9500;-45.1600;-5.7900
1240.0220;-50.8900;-45.0700;-5.8200
1240.2210;-50.8000;-44.9900;-5.8100
1240.4200;-50.7300;-44.8800;-5.8500
1240.6200;-50.6600;-44.8000;-5.8600
1240.8190;-50.5800;-44.6900;-5.8900
1241.0180;-50.5000;-44.5700;-5.9300
1241.2170;-50.4100;-44.4700;-5.9400
1241.4160;-50.3400;-44.3500;-5.9900
1241.6150;-50.2500;-44.2300;-6.0200
1241.8140;-50.1500;-44.1100;-6.0400
1242.0130;-50.0800;-43.9900;-6.0900
1242.2120;-49.9800;-43.8800;-6.1000
1242.4120;-49.8800;-43.7400;-6.1400
1242.6110;-49.7700;-43.6100;-6.1600
1242.8100;-49.6700;-43.4900;-6.1800
1243.0090;-49.5700;-43.3500;-6.2200
1243.2080;-49.4500;-43.2300;-6.2200
1243.4070;-49.3500;-43.0900;-6.2600
1243.6060;-49.2300;-42.9700;-6.2600
1243.8050;-49.1100;-42.8400;-6.2700
1244.0040;-49.0000;-42.7100;-6.2900
1244.2040;-48.8700;-42.6000;-6.2700
1244.4030;-48.7600;-42.4600;-6.3000
1244.6020;-48.6200;-42.3400;-6.2800
1244.8010;-48.4900;-42.2200;-6.2700
1245.0000;-48.3700;-42.0900;-6.2800
1245.1990;-48.2200;-41.9900;-6.2300
1245.3980;-48.0800;-41.8600;-6.2200
1245.5970;-47.9100;-41.7300;-6.1800
1245.7970;-47.7500;-41.6100;-6.1400
1245.9960;-47.5800;-41.4800;-6.1000
1246.1950;-47.3800;-41.3600;-6.0200
1246.3940;-47.2000;-41.2300;-5.9700
1246.5930;-46.9800;-41.0900;-5.8900
1246.7920;-46.7600;-40.9600;-5.8000
1246.9910;-46.5400;-40.8100;-5.7300
1247.1900;-46.3000;-40.6900;-5.6100
1247.3890;-46.0700;-40.5400;-5.5300
1247.5890;-45.7700;-40.3900;-5.3800
1247.7880;-45.5700;-40.2500;-5.3200
1247.9870;-45.3100;-40.0900;-5.2200
1248.1860;-45.0500;-39.9500;-5.1000
1248.3850;-44.8000;-39.7900;-5.0100
1248.5840;-44.5300;-39.6300;-4.9000
1248.7830;-44.2900;-39.4900;-4.8000
1248.9820;-44.0300;-39.3300;-4.7000
1249.1810;-43.7800;-39.1900;-4.5900
1249.3810;-43.5500;-39.0300;-4.5200
1249.5800;-43.3000;-38.8700;-4.4300
1249.7790;-43.0800;-38.7300;-4.3500
1249.9780;-42.8400;-38.5600;-4.2800
1250.1770;-42.6200;-38.4300;-4.1900
1250.3760;-42.4200;-38.2700;-4.1500
1250.5750;-42.1900;-38.1200;-4.0700
1250.7740;-42.0000;-37.9800;-4.0200
1250.9740;-41.8100;-37.8500;-3.9600
1251.1730;-41.6200;-37.7200;-3.9000
1251.3720;-41.4500;-37.5600;-3.8900
1251.5710;-41.2800;-37.4400;-3.8400
1251.7700;-41.1300;-37.2900;-3.8400
1251.9690;-40.9600;-37.1500;-3.8100
1252.1680;-40.8100;-37.0100;-3.8000
1252.3670;-40.6800;-36.8600;-3.8200
1252.5660;-40.5400;-36.7300;-3.8100
1252.7660;-40.4300;-36.5700;-3.8600
1252.9650;-40.3200;-36.4300;-3.8900
1253.1640;-40.2200;-36.2900;-3.9300
1253.3630;-40.1300;-36.1200;-4.0100
1253.5620;-40.0500;-35.9900;-4.0600
1253.7610;-39.9900;-35.8000;-4.1900
1253.9600;-39.9300;-35.6800;-4.2500
1254.1590;-39.8900;-35.5100;-4.3800
1254.3580;-39.8500;-35.3500;-4.5000
1254.5580;-39.8400;-35.2100;-4.6300
1254.7570;-39.8400;-35.0400;-4.8000
1254.9560;-39.8300;-34.8900;-4.9400
1255.1550;-39.8500;-34.7300;-5.1200
1255.3540;-39.8800;-34.5700;-5.3100
1255.5530;-39.9300;-34.4300;-5.5000
1255.7520;-39.9900;-34.2700;-5.7200
1255.9510;-40.0400;-34.1300;-5.9100
1256.1500;-40.1300;-33.9700;-6.1600
1256.3500;-40.2200;-33.8400;-6.3800
1256.5490;-40.3300;-33.7100;-6.6200
1256.7480;-40.4500;-33.5600;-6.8900
1256.9470;-40.5500;-33.4300;-7.1200
1257.1460;-40.6900;-33.2900;-7.4000
1257.3450;-40.8200;-33.1500;-7.6700
1257.5440;-40.9700;-33.0300;-7.9400
1257.7430;-41.1200;-32.8800;-8.2400
1257.9430;-41.2500;-32.7500;-8.5000
1258.1420;-41.4000;-32.6100;-8.7900
1258.3410;-41.5100;-32.4700;-9.0400
1258.5400;-41.6200;-32.3500;-9.2700
1258.7390;-41.7000;-32.2000;-9.5000
1258.9380;-41.7200;-32.0700;-9.6500
1259.1370;-41.7300;-31.9200;-9.8100
1259.3360;-41.6700;-31.7800;-9.8900
1259.5350;-41.5600;-31.6400;-9.9200
1259.7350;-41.4100;-31.4900;-9.9200
1259.9340;-41.1700;-31.3500;-9.8200
1260.1330;-40.9100;-31.2000;-9.7100
1260.3320;-40.5800;-31.0600;-9.5200
1260.5310;-40.2400;-30.9200;-9.3200
1260.7300;-39.8600;-30.7700;-9.0900
1260.9290;-39.4500;-30.6400;-8.8100
1261.1280;-39.0500;-30.4900;-8.5600
1261.3270;-38.6100;-30.3600;-8.2500
1261.5270;-38.2000;-30.2300;-7.9700
1261.7260;-37.7800;-30.1000;-7.6800
1261.9250;-37.3600;-29.9700;-7.3900
1262.1240;-36.9600;-29.8300;-7.1300
1262.3230;-36.5500;-29.7100;-6.8400
1262.5220;-36.1700;-29.5900;-6.5800
1262.7210;-35.7300;-29.4600;-6.2700
1262.9200;-35.4300;-29.3500;-6.0800
1263.1200;-35.1000;-29.2200;-5.8800
1263.3190;-34.7600;-29.1000;-5.6600
1263.5180;-34.4600;-28.9800;-5.4800
1263.7170;-34.1500;-28.8600;-5.2900
1263.9160;-33.8600;-28.7400;-5.1200
1264.1150;-33.5900;-28.6000;-4.9900
1264.3140;-33.3300;-28.4800;-4.8500
1264.5130;-33.1000;-28.3500;-4.7500
1264.7120;-32.8600;-28.2200;-4.6400
1264.9120;-32.6500;-28.1000;-4.5500
1265.1110;-32.4600;-27.9600;-4.5000
1265.3100;-32.2700;-27.8300;-4.4400
1265.5090;-32.1300;-27.7000;-4.4300
1265.7080;-31.9800;-27.5700;-4.4100
1265.9070;-31.8500;-27.4400;-4.4100
1266.1060;-31.7500;-27.3000;-4.4500
1266.3050;-31.6500;-27.1800;-4.4700
1266.5040;-31.6100;-27.0500;-4.5600
1266.7040;-31.5500;-26.9300;-4.6200
1266.9030;-31.5200;-26.8000;-4.7200
1267.1020;-31.5200;-26.6700;-4.8500
1267.3010;-31.5300;-26.5600;-4.9700
1267.5000;-31.5900;-26.4300;-5.1600
1267.6990;-31.6500;-26.3200;-5.3300
1267.8980;-31.7300;-26.2000;-5.5300
1268.0970;-31.8600;-26.0700;-5.7900
1268.2970;-31.9900;-25.9700;-6.0200
1268.4960;-32.1800;-25.8600;-6.3200
1268.6950;-32.3500;-25.7500;-6.6000
1268.8940;-32.5800;-25.6200;-6.9600
1269.0930;-32.8300;-25.5100;-7.3200
1269.2920;-33.1200;-25.3900;-7.7300
1269.4910;-33.4600;-25.2800;-8.1800
1269.6900;-33.8100;-25.1700;-8.6400
1269.8890;-34.2200;-25.0400;-9.1800
1270.0890;-34.6700;-24.9200;-9.7500
1270.2880;-35.1600;-24.8000;-10.3600
1270.4870;-35.7200;-24.6900;-11.0300
1270.6860;-36.3000;-24.5700;-11.7300
1270.8850;-36.9300;-24.4400;-12.4900
1271.0840;-37.5600;-24.3200;-13.2400
1271.2830;-38.3100;-24.2000;-14.1100
1271.4820;-38.7600;-24.0800;-14.6800
1271.6810;-39.1800;-23.9700;-15.2100
1271.8810;-39.4100;-23.8300;-15.5800
1272.0800;-39.3500;-23.7300;-15.6200
1272.2790;-39.0100;-23.6100;-15.4000
1272.4780;-38.4100;-23.4900;-14.9200
1272.6770;-37.6500;-23.3900;-14.2600
1272.8760;-36.8000;-23.2700;-13.5300
1273.0750;-35.7300;-23.1700;-12.5600
1273.2740;-34.9800;-23.0600;-11.9200
1273.4740;-34.0900;-22.9500;-11.1400
1273.6730;-33.2600;-22.8600;-10.4000
1273.8720;-32.4400;-22.7500;-9.6900
1274.0710;-31.6700;-22.6600;-9.0100
1274.2700;-30.9500;-22.5500;-8.4000
1274.4690;-30.2600;-22.4500;-7.8100
1274.6680;-29.6300;-22.3600;-7.2700
1274.8670;-29.0000;-22.2500;-6.7500
1275.0660;-28.4300;-22.1700;-6.2600
1275.2660;-27.8800;-22.0600;-5.8200
1275.4650;-27.3600;-21.9600;-5.4000
1275.6640;-26.8900;-21.8700;-5.0200
1275.8630;-26.4100;-21.7700;-4.6400
1276.0620;-25.9100;-21.6800;-4.2300
1276.2610;-25.5700;-21.5800;-3.9900
1276.4600;-25.1900;-21.4800;-3.7100
1276.6590;-24.8100;-21.3800;-3.4300
1276.8580;-24.4700;-21.2800;-3.1900
1277.0580;-24.1600;-21.2000;-2.9600
1277.2570;-23.8500;-21.0900;-2.7600
1277.4560;-23.5800;-21.0100;-2.5700
1277.6550;-23.3100;-20.9200;-2.3900
1277.8540;-23.0600;-20.8300;-2.2300
1278.0530;-22.8400;-20.7500;-2.0900
1278.2520;-22.6200;-20.6600;-1.9600
1278.4510;-22.4300;-20.5800;-1.8500
1278.6500;-22.2300;-20.4900;-1.7400
1278.8500;-22.0600;-20.4100;-1.6500
1279.0490;-21.9200;-20.3400;-1.5800
1279.2480;-21.7700;-20.2500;-1.5200
1279.4470;-21.6600;-20.1900;-1.4700
1279.6460;-21.5300;-20.1000;-1.4300
1279.8450;-21.4300;-20.0200;-1.4100
1280.0440;-21.3400;-19.9500;-1.3900
1280.2430;-21.2700;-19.8700;-1.4000
1280.4430;-21.2200;-19.8100;-1.4100
1280.6420;-21.1600;-19.7200;-1.4400
1280.8410;-21.1300;-19.6400;-1.4900
1281.0400;-21.1100;-19.5700;-1.5400
1281.2390;-21.1000;-19.4900;-1.6100
1281.4380;-21.1300;-19.4200;-1.7100
1281.6370;-21.1400;-19.3300;-1.8100
1281.8360;-21.1900;-19.2500;-1.9400
1282.0350;-21.2500;-19.1700;-2.0800
1282.2350;-21.3200;-19.0800;-2.2400
1282.4340;-21.4300;-19.0200;-2.4100
1282.6330;-21.5400;-18.9400;-2.6000
1282.8320;-21.6700;-18.8600;-2.8100
1283.0310;-21.8200;-18.7800;-3.0400
1283.2300;-21.9800;-18.7000;-3.2800
1283.4290;-22.1800;-18.6400;-3.5400
1283.6280;-22.3800;-18.5500;-3.8300
1283.8270;-22.6200;-18.4900;-4.1300
1284.0270;-22.8700;-18.4100;-4.4600
1284.2260;-23.1300;-18.3300;-4.8000
1284.4250;-23.4400;-18.2800;-5.1600
1284.6240;-23.7500;-18.2000;-5.5500
1284.8230;-24.1000;-18.1300;-5.9700
1285.0220;-24.4500;-18.0500;-6.4000
1285.2210;-24.8300;-17.9800;-6.8500
1285.4200;-25.2300;-17.9200;-7.3100
1285.6200;-25.6300;-17.8400;-7.7900
1285.8190;-26.0500;-17.7800;-8.2700
1286.0180;-26.4300;-17.7000;-8.7300
1286.2170;-26.8200;-17.6300;-9.1900
1286.4160;-27.1700;-17.5700;-9.6000
1286.6150;-27.4900;-17.5000;-9.9900
1286.8140;-27.7300;-17.4400;-10.2900
1287.0130;-27.8400;-17.3600;-10.4800
1287.2120;-27.8600;-17.2900;-10.5700
1287.4120;-27.7500;-17.2200;-10.5300
1287.6110;-27.5300;-17.1500;-10.3800
1287.8100;-27.2200;-17.1000;-10.1200
1288.0090;-26.8100;-17.0200;-9.7900
1288.2080;-26.3600;-16.9600;-9.4000
1288.4070;-25.8500;-16.9000;-8.9500
1288.6060;-25.3200;-16.8300;-8.4900
1288.8050;-24.8000;-16.7800;-8.0200
1289.0040;-24.2600;-16.7100;-7.5500
1289.2040;-23.7400;-16.6600;-7.0800
1289.4030;-23.2300;-16.6000;-6.6300
1289.6020;-22.7400;-16.5500;-6.1900
1289.8010;-22.2800;-16.5000;-5.7800
1290.0000;-21.8300;-16.4300;-5.4000
1290.1990;-21.4200;-16.3900;-5.0300
1290.3980;-21.0000;-16.3300;-4.6700
1290.5970;-20.6200;-16.2900;-4.3300
1290.7970;-20.2700;-16.2500;-4.0200
1290.9960;-19.9000;-16.1800;-3.7200
1291.1950;-19.5800;-16.1400;-3.4400
1291.3940;-19.2700;-16.0800;-3.1900
1291.5930;-18.9700;-16.0400;-2.9300
1291.7920;-18.7000;-15.9800;-2.7200
1291.9910;-18.4400;-15.9400;-2.5000
1292.1900;-18.2200;-15.8900;-2.3300
1292.3890;-17.9900;-15.8500;-2.1400
1292.5890;-17.7800;-15.8000;-1.9800
1292.7880;-17.5800;-15.7500;-1.8300
1292.9870;-17.4000;-15.7100;-1.6900
1293.1860;-17.2500;-15.6600;-1.5900
1293.3850;-17.0900;-15.6200;-1.4700
1293.5840;-16.9600;-15.5800;-1.3800
1293.7830;-16.8200;-15.5300;-1.2900
1293.9820;-16.7100;-15.5000;-1.2100
1294.1810;-16.6100;-15.4500;-1.1600
1294.3810;-16.5100;-15.4200;-1.0900
1294.5800;-16.4300;-15.3800;-1.0500
1294.7790;-16.3400;-15.3400;-1.0000
1294.9780;-16.2800;-15.3100;-0.9700
1295.1770;-16.2200;-15.2700;-0.9500
1295.3760;-16.1600;-15.2400;-0.9200
1295.5750;-16.1100;-15.2000;-0.9100
1295.7740;-16.0700;-15.1600;-0.9100
1295.9740;-16.0400;-15.1300;-0.9100
1296.1730;-16.0000;-15.0800;-0.9200
1296.3720;-15.9900;-15.0600;-0.9300
1296.5710;-15.9400;-15.0200;-0.9200
1296.7700;-15.9200;-14.9800;-0.9400
1296.9690;-15.9100;-14.9600;-0.9500
1297.1680;-15.8800;-14.9300;-0.9500
1297.3670;-15.8800;-14.9000;-0.9800
1297.5660;-15.8500;-14.8500;-1.0000
1297.7660;-15.8400;-14.8200;-1.0200
1297.9650;-15.8200;-14.8000;-1.0200
1298.1640;-15.8000;-14.7600;-1.0400
1298.3630;-15.8000;-14.7400;-1.0600
1298.5620;-15.7600;-14.7000;-1.0600
1298.7610;-15.7500;-14.6700;-1.0800
1298.9600;-15.7200;-14.6500;-1.0700
1299.1590;-15.7000;-14.6200;-1.0800
1299.3580;-15.6800;-14.6000;-1.0800
1299.5580;-15.6300;-14.5600;-1.0700
1299.7570;-15.6100;-14.5400;-1.0700
1299.9560;-15.5700;-14.5200;-1.0500
1300.1550;-15.5300;-14.4900;-1.0400
1300.3540;-15.4900;-14.4800;-1.0100
1300.5530;-15.4300;-14.4300;-1.0000
1300.7520;-15.3900;-14.4100;-0.9800
1300.9510;-15.3300;-14.3900;-0.9400
1301.1500;-15.2900;-14.3800;-0.9100
1301.3500;-15.2400;-14.3700;-0.8700
1301.5490;-15.1900;-14.3500;-0.8400
1301.7480;-15.1500;-14.3400;-0.8100
1301.9470;-15.0800;-14.3200;-0.7600
1302.1460;-15.0500;-14.3100;-0.7400
1302.3450;-15.0000;-14.3000;-0.7000
1302.5440;-14.9600;-14.2800;-0.6800
1302.7430;-14.9300;-14.2800;-0.6500
1302.9430;-14.8800;-14.2600;-0.6200
1303.1420;-14.8600;-14.2500;-0.6100
1303.3410;-14.8300;-14.2400;-0.5900
1303.5400;-14.8200;-14.2400;-0.5800
1303.7390;-14.8100;-14.2400;-0.5700
1303.9380;-14.7900;-14.2100;-0.5800
1304.1370;-14.8100;-14.2200;-0.5900
1304.3360;-14.8100;-14.2100;-0.6000
1304.5350;-14.8300;-14.2100;-0.6200
1304.7350;-14.8600;-14.2200;-0.6400
1304.9340;-14.8800;-14.2100;-0.6700
1305.1330;-14.9400;-14.2200;-0.7200
1305.3320;-14.9700;-14.2100;-0.7600
1305.5310;-15.0400;-14.2200;-0.8200
1305.7300;-15.1100;-14.2300;-0.8800
1305.9290;-15.1800;-14.2200;-0.9600
1306.1280;-15.2900;-14.2400;-1.0500
1306.3270;-15.3800;-14.2400;-1.1400
1306.5270;-15.5100;-14.2500;-1.2600
1306.7260;-15.6300;-14.2600;-1.3700
1306.9250;-15.7700;-14.2600;-1.5100
1307.1240;-15.9400;-14.2800;-1.6600
1307.3230;-16.1000;-14.2800;-1.8200
1307.5220;-16.3100;-14.3000;-2.0100
1307.7210;-16.5000;-14.3100;-2.1900
1307.9200;-16.7200;-14.3100;-2.4100
1308.1200;-16.9700;-14.3500;-2.6200
1308.3190;-17.2300;-14.3500;-2.8800
1308.5180;-17.5300;-14.3700;-3.1600
1308.7170;-17.8200;-14.3800;-3.4400
1308.9160;-18.1300;-14.3900;-3.7400
1309.1150;-18.5600;-14.4300;-4.1300
1309.3140;-18.8600;-14.4300;-4.4300
1309.5130;-19.2700;-14.4700;-4.8000
1309.7120;-19.6800;-14.4800;-5.2000
1309.9120;-20.1400;-14.5000;-5.6400
1310.1110;-20.6200;-14.5400;-6.0800
1310.3100;-21.1300;-14.5500;-6.5800
1310.5090;-21.6900;-14.5900;-7.1000
1310.7080;-22.2800;-14.6000;-7.6800
1310.9070;-22.9200;-14.6200;-8.3000
1311.1060;-23.6000;-14.6600;-8.9400
1311.3050;-24.3200;-14.6700;-9.6500
1311.5040;-25.0800;-14.7200;-10.3600
1311.7040;-25.8700;-14.7300;-11.1400
1311.9030;-26.6700;-14.7700;-11.9000
1312.1020;-27.4500;-14.7900;-12.6600
1312.3010;-28.1700;-14.8200;-13.3500
1312.5000;-28.8900;-14.8700;-14.0200
1312.6990;-29.1900;-14.9000;-14.2900
1312.8980;-29.3100;-14.9400;-14.3700
1313.0970;-29.1700;-14.9600;-14.2100
1313.2970;-28.7900;-15.0000;-13.7900
1313.4960;-28.2400;-15.0500;-13.1900
1313.6950;-27.5900;-15.0800;-12.5100
1313.8940;-26.8800;-15.1300;-11.7500
1314.0930;-26.0700;-15.1600;-10.9100
1314.2920;-25.4900;-15.2100;-10.2800
1314.4910;-24.8700;-15.2600;-9.6100
1314.6900;-24.2500;-15.3000;-8.9500
1314.8890;-23.6700;-15.3500;-8.3200
1315.0890;-23.1500;-15.3800;-7.7700
1315.2880;-22.6600;-15.4400;-7.2200
1315.4870;-22.2300;-15.4800;-6.7500
1315.6860;-21.8100;-15.5300;-6.2800
1315.8850;-21.4300;-15.5800;-5.8500
1316.0840;-21.1000;-15.6300;-5.4700
1316.2830;-20.7800;-15.6900;-5.0900
1316.4820;-20.5200;-15.7400;-4.7800
1316.6810;-20.2500;-15.7900;-4.4600
1316.8810;-20.0300;-15.8500;-4.1800
1317.0800;-19.8400;-15.9100;-3.9300
1317.2790;-19.6500;-15.9800;-3.6700
1317.4780;-19.5100;-16.0400;-3.4700
1317.6770;-19.3600;-16.1100;-3.2500
1317.8760;-19.2500;-16.1600;-3.0900
1318.0750;-19.1400;-16.2200;-2.9200
1318.2740;-19.0600;-16.2900;-2.7700
1318.4740;-19.0000;-16.3500;-2.6500
1318.6730;-18.9600;-16.4500;-2.5100
1318.8720;-18.9400;-16.5000;-2.4400
1319.0710;-18.9200;-16.5800;-2.3400
1319.2700;-18.9200;-16.6500;-2.2700
1319.4690;-18.9400;-16.7200;-2.2200
1319.6680;-18.9700;-16.8100;-2.1600
1319.8670;-19.0200;-16.8800;-2.1400
1320.0660;-19.0700;-16.9600;-2.1100
1320.2660;-19.1500;-17.0300;-2.1200
1320.4650;-19.2200;-17.1100;-2.1100
1320.6640;-19.3300;-17.2100;-2.1200
1320.8630;-19.4400;-17.2900;-2.1500
1321.0620;-19.5500;-17.3800;-2.1700
1321.2610;-19.6900;-17.4500;-2.2400
1321.4600;-19.8200;-17.5500;-2.2700
1321.6590;-19.9600;-17.6300;-2.3300
1321.8580;-20.1300;-17.7100;-2.4200
1322.0580;-20.2900;-17.8200;-2.4700
1322.2570;-20.4700;-17.9000;-2.5700
1322.4560;-20.6400;-18.0100;-2.6300
1322.6550;-20.8200;-18.0900;-2.7300
1322.8540;-21.0100;-18.1900;-2.8200
1323.0530;-21.2000;-18.2900;-2.9100
1323.2520;-21.4100;-18.3900;-3.0200
1323.4510;-21.5900;-18.5100;-3.0800
1323.6500;-21.7900;-18.5900;-3.2000
1323.8500;-21.9800;-18.7000;-3.2800
1324.0490;-22.1700;-18.8000;-3.3700
1324.2480;-22.3600;-18.9100;-3.4500
1324.4470;-22.5300;-19.0200;-3.5100
1324.6460;-22.7100;-19.1200;-3.5900
1324.8450;-22.8600;-19.2400;-3.6200
1325.0440;-23.0100;-19.3400;-3.6700
1325.2430;-23.1500;-19.4600;-3.6900
1325.4430;-23.2700;-19.5700;-3.7000
1325.6420;-23.4100;-19.6900;-3.7200
1325.8410;-23.5000;-19.8100;-3.6900
1326.0400;-23.5900;-19.9200;-3.6700
1326.2390;-23.6700;-20.0500;-3.6200
1326.4380;-23.7300;-20.1600;-3.5700
1326.6370;-23.8000;-20.2800;-3.5200
1326.8360;-23.8300;-20.4000;-3.4300
1327.0350;-23.8800;-20.5200;-3.3600
1327.2350;-23.9100;-20.6600;-3.2500
1327.4340;-23.9300;-20.7700;-3.1600
1327.6330;-23.9600;-20.9000;-3.0600
1327.8320;-23.9700;-21.0200;-2.9500
1328.0310;-24.0000;-21.1500;-2.8500
1328.2300;-24.0100;-21.2900;-2.7200
1328.4290;-24.0300;-21.4100;-2.6200
1328.6280;-24.0500;-21.5600;-2.4900
1328.8270;-24.0700;-21.6800;-2.3900
1329.0270;-24.1100;-21.8100;-2.3000
1329.2260;-24.1300;-21.9600;-2.1700
1329.4250;-24.1700;-22.0800;-2.0900
1329.6240;-24.2000;-22.2300;-1.9700
1329.8230;-24.2400;-22.3500;-1.8900
1330.0220;-24.3100;-22.4900;-1.8200
1330.2210;-24.3600;-22.6400;-1.7200
1330.4200;-24.4400;-22.7700;-1.6700
1330.6200;-24.5000;-22.9200;-1.5800
1330.8190;-24.5900;-23.0600;-1.5300
1331.0180;-24.6900;-23.2100;-1.4800
1331.2170;-24.7800;-23.3500;-1.4300
1331.4160;-24.9100;-23.5000;-1.4100
1331.6150;-25.0100;-23.6500;-1.3600
1331.8140;-25.1500;-23.7900;-1.3600
1332.0130;-25.2800;-23.9600;-1.3200
1332.2120;-25.4200;-24.0900;-1.3300
1332.4120;-25.5800;-24.2500;-1.3300
1332.6110;-25.7500;-24.4100;-1.3400
1332.8100;-25.9300;-24.5600;-1.3700
1333.0090;-26.1000;-24.7300;-1.3700
1333.2080;-26.2900;-24.8700;-1.4200
1333.4070;-26.4800;-25.0300;-1.4500
1333.6060;-26.6800;-25.1800;-1.5000
1333.8050;-26.8900;-25.3400;-1.5500
1334.0040;-27.1000;-25.5100;-1.5900
1334.2040;-27.3300;-25.6600;-1.6700
1334.4030;-27.5400;-25.8300;-1.7100
1334.6020;-27.7800;-25.9800;-1.8000
1334.8010;-28.0100;-26.1400;-1.8700
1335.0000;-28.2500;-26.3100;-1.9400
1335.1990;-28.5400;-26.4600;-2.0800
1335.3980;-28.7300;-26.6400;-2.0900
1335.5970;-28.9800;-26.7900;-2.1900
1335.7970;-29.2200;-26.9600;-2.2600
1335.9960;-29.4800;-27.1300;-2.3500
1336.1950;-29.7100;-27.2900;-2.4200
1336.3940;-29.9500;-27.4500;-2.5000
1336.5930;-30.1800;-27.6100;-2.5700
1336.7920;-30.3900;-27.7900;-2.6000
1336.9910;-30.6200;-27.9400;-2.6800
1337.1900;-30.8200;-28.1100;-2.7100
1337.3890;-31.0300;-28.2800;-2.7500
1337.5890;-31.2200;-28.4400;-2.7800
1337.7880;-31.4000;-28.6500;-2.7500
1337.9870;-31.5800;-28.7900;-2.7900
1338.1860;-31.7400;-28.9600;-2.7800
1338.3850;-31.8900;-29.1300;-2.7600
1338.5840;-32.0300;-29.3100;-2.7200
1338.7830;-32.1500;-29.4700;-2.6800
1338.9820;-32.2800;-29.6400;-2.6400
1339.1810;-32.3900;-29.8200;-2.5700
1339.3810;-32.5100;-29.9900;-2.5200
1339.5800;-32.6000;-30.1700;-2.4300
1339.7790;-32.6900;-30.3300;-2.3600
1339.9780;-32.7900;-30.5200;-2.2700
1340.1770;-32.8800;-30.6900;-2.1900
1340.3760;-32.9800;-30.8600;-2.1200
1340.5750;-33.0700;-31.0600;-2.0100
1340.7740;-33.1600;-31.2200;-1.9400
1340.9740;-33.2300;-31.4000;-1.8300
1341.1730;-33.3200;-31.5700;-1.7500
1341.3720;-33.4200;-31.7400;-1.6800
1341.5710;-33.5100;-31.9200;-1.5900
1341.7700;-33.6200;-32.0900;-1.5300
1341.9690;-33.7200;-32.2800;-1.4400
1342.1680;-33.8300;-32.4400;-1.3900
1342.3670;-33.9500;-32.6200;-1.3300
1342.5660;-34.0700;-32.7900;-1.2800
1342.7660;-34.2200;-32.9700;-1.2500
1342.9650;-34.3600;-33.1600;-1.2000
1343.1640;-34.5200;-33.3300;-1.1900
1343.3630;-34.6800;-33.5100;-1.1700
1343.5620;-34.8500;-33.6800;-1.1700
1343.7610;-35.0500;-33.8500;-1.2000
1343.9600;-35.2500;-34.0500;-1.2000
1344.1590;-35.4700;-34.2200;-1.2500
1344.3580;-35.6800;-34.4100;-1.2700
1344.5580;-35.9200;-34.5800;-1.3400
1344.7570;-36.1700;-34.7700;-1.4000
1344.9560;-36.4100;-34.9400;-1.4700
1345.1550;-36.7000;-35.1000;-1.6000
1345.3540;-36.9600;-35.2800;-1.6800
1345.5530;-37.2600;-35.4400;-1.8200
1345.7520;-37.5600;-35.6300;-1.9300
1345.9510;-37.9000;-35.8000;-2.1000
1346.1500;-38.2500;-35.9700;-2.2800
1346.3500;-38.6800;-36.1600;-2.5200
1346.5490;-39.0000;-36.3400;-2.6600
1346.7480;-39.3800;-36.5100;-2.8700
1346.9470;-39.8100;-36.6800;-3.1300
1347.1460;-40.2300;-36.8500;-3.3800
1347.3450;-40.6700;-37.0000;-3.6700
1347.5440;-41.1800;-37.2100;-3.9700
1347.7430;-41.7100;-37.4400;-4.2700
1347.9430;-42.2800;-37.6300;-4.6500
1348.1420;-42.8300;-37.8000;-5.0300
1348.3410;-43.4300;-37.9800;-5.4500
1348.5400;-44.0100;-38.1100;-5.9000
1348.7390;-44.6300;-38.2700;-6.3600
1348.9380;-45.3100;-38.4600;-6.8500
1349.1370;-46.0100;-38.5900;-7.4200
1349.3360;-46.7500;-38.7200;-8.0300
1349.5350;-47.5400;-38.8700;-8.6700
1349.7350;-48.3700;-39.0200;-9.3500
1349.9340;-49.5000;-39.1900;-10.3100
1350.1330;-50.2800;-39.3900;-10.8900
1350.3320;-51.3500;-39.6100;-11.7400
1350.5310;-52.4700;-39.8100;-12.6600
1350.7300;-53.6300;-39.9700;-13.6600
1350.9290;-54.7800;-40.1100;-14.6700
1351.1280;-55.8100;-40.2200;-15.5900
1351.3270;-56.6400;-40.3600;-16.2800
1351.5270;-57.1900;-40.5400;-16.6500
1351.7260;-57.3900;-40.7500;-16.6400
1351.9250;-57.1100;-40.9200;-16.1900
1352.1240;-56.5200;-41.0900;-15.4300
1352.3230;-55.8000;-41.2500;-14.5500
1352.5220;-55.0900;-41.4500;-13.6400
1352.7210;-54.3000;-41.5800;-12.7200
1352.9200;-53.5600;-41.7300;-11.8300
1353.1200;-52.9900;-41.9800;-11.0100
1353.3190;-52.3400;-42.0700;-10.2700
1353.5180;-51.7900;-42.2300;-9.5600
1353.7170;-51.3200;-42.4000;-8.9200
1353.9160;-50.8500;-42.4900;-8.3600
1354.1150;-50.4600;-42.6200;-7.8400
1354.3140;-50.1700;-42.8400;-7.3300
1354.5130;-49.8900;-43.0200;-6.8700
1354.7120;-49.7900;-43.3100;-6.4800
1354.9120;-49.6600;-43.6000;-6.0600
1355.1110;-49.5200;-43.7500;-5.7700
1355.3100;-49.2800;-43.8800;-5.4000
1355.5090;-49.0300;-43.8500;-5.1800
1355.7080;-48.9700;-44.1100;-4.8600
1355.9070;-49.0400;-44.3700;-4.6700
1356.1060;-48.9700;-44.5200;-4.4500
1356.3050;-48.8800;-44.6000;-4.2800
1356.5040;-48.8100;-44.6800;-4.1300
1356.7040;-48.5900;-44.6000;-3.9900
1356.9030;-48.5700;-44.7300;-3.8400
1357.1020;-48.8100;-45.0900;-3.7200
1357.3010;-48.9600;-45.3100;-3.6500
1357.5000;-49.0800;-45.4700;-3.6100
1357.6990;-49.1700;-45.6500;-3.5200
1357.8980;-49.2600;-45.6800;-3.5800
1358.0970;-49.2700;-45.7300;-3.5400
1358.2970;-49.4300;-45.9000;-3.5300
1358.4960;-49.7200;-46.1200;-3.6000
1358.6950;-49.8800;-46.2500;-3.6300
1358.8940;-50.1400;-46.3800;-3.7600
1359.0930;-50.3500;-46.5200;-3.8300
1359.2920;-50.5200;-46.5500;-3.9700
1359.4910;-50.9400;-46.9100;-4.0300
1359.6900;-51.4000;-47.2000;-4.2000
1359.8890;-51.8000;-47.3800;-4.4200
1360.0890;-52.0700;-47.4300;-4.6400
1360.2880;-52.3800;-47.4300;-4.9500
1360.4870;-52.5800;-47.4100;-5.1700
1360.6860;-52.9700;-47.5600;-5.4100
1360.8850;-53.5900;-47.8900;-5.7000
1361.0840;-54.2200;-48.1900;-6.0300
1361.2830;-54.8300;-48.3400;-6.4900
1361.4820;-55.3800;-48.5500;-6.8300
1361.6810;-55.9800;-48.6800;-7.3000
1361.8810;-56.6100;-48.8200;-7.7900
1362.0800;-57.3700;-49.0200;-8.3500
1362.2790;-58.2400;-49.4200;-8.8200
1362.4780;-59.2900;-49.6600;-9.6300
1362.6770;-59.9900;-49.7700;-10.2200
1362.8760;-60.6900;-49.6400;-11.0500
1363.0750;-61.4500;-49.5500;-11.9000
1363.2740;-61.8100;-49.3200;-12.4900
1363.4740;-62.5200;-49.3700;-13.1500
1363.6730;-63.2200;-49.4500;-13.7700
1363.8720;-63.7800;-49.5900;-14.1900
1364.0710;-64.2800;-49.7800;-14.5000
1364.2700;-64.4900;-49.9800;-14.5100
1364.4690;-64.5000;-50.2700;-14.2300
1364.6680;-64.6100;-50.7700;-13.8400
1364.8670;-64.1200;-50.9700;-13.1500
1365.0660;-63.3300;-50.9300;-12.4000
1365.2660;-62.6900;-51.0900;-11.6000
1365.4650;-62.0100;-51.0100;-11.0000
1365.6640;-61.3200;-51.0800;-10.2400
1365.8630;-60.6300;-51.1000;-9.5300
1366.0620;-59.9700;-51.0800;-8.8900
1366.2610;-59.4000;-51.0600;-8.3400
1366.4600;-58.8900;-51.1100;-7.7800
1366.6590;-58.5100;-51.2800;-7.2300
1366.8580;-58.2700;-51.4900;-6.7800
1367.0580;-57.9400;-51.6200;-6.3200
1367.2570;-57.6300;-51.7100;-5.9200
1367.4560;-57.4600;-51.9700;-5.4900
1367.6550;-57.2900;-52.1500;-5.1400
1367.8540;-57.2400;-52.4000;-4.8400
1368.0530;-57.0000;-52.5200;-4.4800
1368.2520;-56.7500;-52.4700;-4.2800
1368.4510;-56.7600;-52.8100;-3.9500
1368.6500;-56.6700;-52.8800;-3.7900
1368.8500;-56.5200;-52.9700;-3.5500
1369.0490;-56.2000;-52.9500;-3.2500
1369.2480;-56.1100;-52.8900;-3.2200
1369.4470;-55.8400;-52.8200;-3.0200
1369.6460;-55.7800;-52.9000;-2.8800
1369.8450;-55.9300;-53.2300;-2.7000
1370.0440;-56.0400;-53.4100;-2.6300
1370.2430;-56.0600;-53.5300;-2.5300
1370.4430;-56.0300;-53.5800;-2.4500
1370.6420;-55.9800;-53.5900;-2.3900
1370.8410;-56.1600;-53.9000;-2.2600
1371.0400;-56.4100;-54.1600;-2.2500
1371.2390;-56.5700;-54.3300;-2.2400
1371.4380;-56.5500;-54.3500;-2.2000
1371.6370;-56.5600;-54.2900;-2.2700
1371.8360;-56.4700;-54.2800;-2.1900
1372.0350;-56.6600;-54.4500;-2.2100
1372.2350;-56.8800;-54.6600;-2.2200
1372.4340;-57.0400;-54.7400;-2.3000
1372.6330;-57.1400;-54.8200;-2.3200
1372.8320;-57.2300;-54.8500;-2.3800
1373.0310;-57.3300;-54.8700;-2.4600
1373.2300;-57.4900;-55.0200;-2.4700
1373.4290;-57.7300;-55.1400;-2.5900
1373.6280;-57.9100;-55.2600;-2.6500
1373.8270;-58.0900;-55.3300;-2.7600
1374.0270;-58.2900;-55.4400;-2.8500
1374.2260;-58.5300;-55.5300;-3.0000
1374.4250;-58.7300;-55.6700;-3.0600
1374.6240;-58.9700;-55.8100;-3.1600
1374.8230;-59.2200;-55.9900;-3.2300
1375.0220;-59.5300;-56.1700;-3.3600
1375.2210;-59.7100;-56.2400;-3.4700
1375.4200;-59.8800;-56.3000;-3.5800
1375.6200;-60.0700;-56.3800;-3.6900
1375.8190;-60.2500;-56.4800;-3.7700
1376.0180;-60.4700;-56.6300;-3.8400
1376.2170;-60.6800;-56.7700;-3.9100
1376.4160;-60.8600;-56.8700;-3.9900
1376.6150;-61.0000;-56.9600;-4.0400
1376.8140;-61.1500;-57.1100;-4.0400
1377.0130;-61.4400;-57.3400;-4.1000
1377.2120;-61.6300;-57.5100;-4.1200
1377.4120;-61.7000;-57.6000;-4.1000
1377.6110;-61.7500;-57.6400;-4.1100
1377.8100;-61.7100;-57.6100;-4.1000
1378.0090;-61.7100;-57.6600;-4.0500
1378.2080;-61.7600;-57.7600;-4.0000
1378.4070;-61.8700;-57.9300;-3.9400
1378.6060;-62.0400;-58.1800;-3.8600
1378.8050;-62.2100;-58.5400;-3.6700
1379.0040;-62.2600;-58.6100;-3.6500
1379.2040;-62.2200;-58.6600;-3.5600
1379.4030;-62.0900;-58.6400;-3.4500
1379.6020;-61.9500;-58.6200;-3.3300
1379.8010;-61.9100;-58.6300;-3.2800
1380.0000;-61.9300;-58.7700;-3.1600
1380.1990;-61.9800;-58.9500;-3.0300
1380.3980;-62.0400;-59.1500;-2.8900
1380.5970;-62.4400;-59.7300;-2.7100
1380.7970;-62.8400;-60.1400;-2.7000
1380.9960;-62.9100;-60.3000;-2.6100
1381.1950;-62.8400;-60.2900;-2.5500
1381.3940;-62.5200;-60.0000;-2.5200
1381.5930;-62.1700;-59.7500;-2.4200
1381.7920;-62.1500;-59.8000;-2.3500
1381.9910;-62.1000;-59.8400;-2.2600
1382.1900;-62.1800;-59.9400;-2.2400
1382.3890;-62.4000;-60.2600;-2.1400
1382.5890;-62.8300;-60.8000;-2.0300
1382.7880;-63.3100;-61.2900;-2.0200
1382.9870;-63.5700;-61.5000;-2.0700
1383.1860;-63.4200;-61.2600;-2.1600
1383.3850;-63.1800;-60.9800;-2.2000
1383.5840;-62.9700;-60.7700;-2.2000
1383.7830;-63.0800;-60.9300;-2.1500
1383.9820;-63.2100;-61.0300;-2.1800
1384.1810;-63.3700;-61.0800;-2.2900
1384.3810;-63.3900;-61.1100;-2.2800
1384.5800;-63.5100;-61.0400;-2.4700
1384.7790;-63.5800;-61.1700;-2.4100
1384.9780;-63.9400;-61.4200;-2.5200
1385.1770;-64.2800;-61.6400;-2.6400
1385.3760;-64.4800;-61.7600;-2.7200
1385.5750;-64.6300;-61.7100;-2.9200
1385.7740;-64.7600;-61.7400;-3.0200
1385.9740;-64.9100;-61.7300;-3.1800
1386.1730;-65.0300;-61.7700;-3.2600
1386.3720;-65.2900;-61.8800;-3.4100
1386.5710;-65.5000;-61.9200;-3.5800
1386.7700;-65.6500;-61.9700;-3.6800
1386.9690;-65.8700;-62.0000;-3.8700
1387.1680;-66.0800;-62.0200;-4.0600
1387.3670;-66.2900;-62.0900;-4.2000
1387.5660;-66.5100;-62.1500;-4.3600
1387.7660;-66.9900;-62.4300;-4.5600
1387.9650;-67.3500;-62.6800;-4.6700
1388.1640;-67.6600;-62.9600;-4.7000
1388.3630;-67.9800;-63.0600;-4.9200
1388.5620;-68.1800;-63.0100;-5.1700
1388.7610;-67.9600;-62.8800;-5.0800
1388.9600;-68.0600;-62.8300;-5.2300
1389.1590;-68.0600;-62.8000;-5.2600
1389.3580;-68.1400;-62.8100;-5.3300
1389.5580;-68.3000;-62.8600;-5.4400
1389.7570;-68.2200;-62.9900;-5.2300
1389.9560;-68.4300;-63.1700;-5.2600
1390.1550;-68.4700;-63.2200;-5.2500
1390.3540;-68.5200;-63.2400;-5.2800
1390.5530;-68.5500;-63.3300;-5.2200
1390.7520;-68.5000;-63.2800;-5.2200
1390.9510;-68.4100;-63.4100;-5.0000
1391.1500;-68.3500;-63.4500;-4.9000
1391.3500;-68.2800;-63.4900;-4.7900
1391.5490;-68.1800;-63.5400;-4.6400
1391.7480;-68.0900;-63.6500;-4.4400
1391.9470;-68.0800;-63.7600;-4.3200
1392.1460;-68.0400;-63.9200;-4.1200
1392.3450;-68.1200;-64.1600;-3.9600
1392.5440;-68.3100;-64.5900;-3.7200
1392.7430;-68.4900;-64.7100;-3.7800
1392.9430;-68.1800;-64.6200;-3.5600
1393.1420;-67.9000;-64.4800;-3.4200
1393.3410;-67.7200;-64.3000;-3.4200
1393.5400;-67.3000;-64.2800;-3.0200
1393.7390;-67.2700;-64.3700;-2.9000
1393.9380;-67.2100;-64.4100;-2.8000
1394.1370;-67.3200;-64.4900;-2.8300
1394.3360;-67.2500;-64.5700;-2.6800
1394.5350;-67.2300;-64.6100;-2.6200
1394.7350;-67.2100;-64.7500;-2.4600
1394.9340;-67.4200;-65.0500;-2.3700
1395.1330;-67.5500;-65.2200;-2.3300
1395.3320;-67.7200;-65.3800;-2.3400
1395.5310;-67.7500;-65.4700;-2.2800
1395.7300;-67.8400;-65.5200;-2.3200
1395.9290;-67.7600;-65.3900;-2.3700
1396.1280;-67.6600;-65.5200;-2.1400
1396.3270;-67.7800;-65.6300;-2.1500
1396.5270;-68.0400;-65.9200;-2.1200
1396.7260;-68.3700;-66.0500;-2.3200
1396.9250;-68.3000;-66.0900;-2.2100
1397.1240;-68.1300;-65.8900;-2.2400
1397.3230;-68.2500;-65.7800;-2.4700
1397.5220;-68.3700;-65.7400;-2.6300
1397.7210;-68.3500;-65.7900;-2.5600
1397.9200;-68.5700;-65.8800;-2.6900
1398.1200;-68.7400;-65.8800;-2.8600
1398.3190;-68.9300;-66.0000;-2.9300
1398.5180;-69.0800;-66.1100;-2.9700
1398.7170;-69.3500;-66.1700;-3.1800
1398.9160;-69.4400;-66.2900;-3.1500
1399.1150;-69.7700;-66.2800;-3.4900
1399.3140;-69.8700;-66.4200;-3.4500
1399.5130;-70.5400;-66.7000;-3.8400
1399.7120;-70.7200;-66.8100;-3.9100
1399.9120;-71.2500;-67.0200;-4.2300
1400.1110;-71.5400;-67.1500;-4.3900
1400.3100;-71.7900;-67.1100;-4.6800
1400.5090;-72.1200;-67.1900;-4.9300
1400.7080;-72.6300;-67.5300;-5.1000
1400.9070;-72.7000;-67.6500;-5.0500
1401.1060;-72.9500;-67.6900;-5.2600
1401.3050;-73.1100;-67.7200;-5.3900
1401.5040;-73.0500;-67.6200;-5.4300
1401.7040;-73.5300;-67.6400;-5.8900
1401.9030;-73.5600;-67.7600;-5.8000
1402.1020;-73.2900;-67.7900;-5.5000
1402.3010;-73.6500;-67.6900;-5.9600
1402.5000;-73.9300;-67.7000;-6.2300
1402.6990;-74.0200;-67.7100;-6.3100
1402.8980;-73.9000;-67.8800;-6.0200
1403.0970;-74.2000;-68.0500;-6.1500
1403.2970;-74.2000;-68.1100;-6.0900
1403.4960;-74.2600;-68.1700;-6.0900
1403.6950;-74.1100;-68.2600;-5.8500
1403.8940;-73.9000;-68.3500;-5.5500
1404.0930;-74.3000;-68.5100;-5.7900
1404.2920;-73.9500;-68.6300;-5.3200
1404.4910;-74.2900;-68.7700;-5.5200
1404.6900;-73.7000;-68.7800;-4.9200
1404.8890;-74.3900;-69.4100;-4.9800
1405.0890;-74.2900;-69.7100;-4.5800
1405.2880;-74.3300;-69.4600;-4.8700
1405.4870;-74.1500;-69.4900;-4.6600
1405.6860;-73.9300;-69.3300;-4.6000
1405.8850;-73.5800;-69.2700;-4.3100
1406.0840;-73.3400;-69.2100;-4.1300
1406.2830;-73.6200;-69.3500;-4.2700
1406.4820;-73.7300;-69.4400;-4.2900
1406.6810;-73.5800;-69.5200;-4.0600
1406.8810;-73.7100;-69.7600;-3.9500
1407.0800;-73.7800;-69.9600;-3.8200
1407.2790;-73.9400;-70.2200;-3.7200
1407.4780;-73.6700;-70.0900;-3.5800
1407.6770;-73.8300;-70.2200;-3.6100
1407.8760;-73.9600;-70.0600;-3.9000
1408.0750;-73.8600;-70.1900;-3.6700
1408.2740;-74.4600;-70.2100;-4.2500
1408.4740;-73.8200;-70.1200;-3.7000
1408.6730;-74.0800;-70.1800;-3.9000
1408.8720;-73.9900;-70.4900;-3.5000
1409.0710;-73.7800;-70.6800;-3.1000
1409.2700;-74.4000;-70.8900;-3.5100
1409.4690;-74.8400;-71.2300;-3.6100
1409.6680;-74.9700;-71.1900;-3.7800
1409.8670;-75.1000;-71.2700;-3.8300
1410.0660;-76.1800;-71.1100;-5.0700
1410.2660;-75.6300;-71.1000;-4.5300
1410.4650;-75.2700;-71.0700;-4.2000
1410.6640;-75.9700;-71.2000;-4.7700
1410.8630;-75.8500;-71.1200;-4.7300
1411.0620;-75.5700;-71.2800;-4.2900
1411.2610;-75.5000;-71.3000;-4.2000
1411.4600;-75.3600;-71.6000;-3.7600
1411.6590;-75.5400;-71.6000;-3.9400
1411.8580;-76.0900;-71.6200;-4.4700
1412.0580;-75.9800;-71.7900;-4.1900
1412.2570;-76.6400;-71.9500;-4.6900
1412.4560;-76.7700;-71.7900;-4.9800
1412.6550;-76.7900;-71.8300;-4.9600
1412.8540;-77.2200;-72.1500;-5.0700
1413.0530;-76.5900;-72.0000;-4.5900
1413.2520;-76.5100;-72.1600;-4.3500
1413.4510;-77.1300;-72.1300;-5.0000
1413.6500;-77.1400;-72.4800;-4.6600
1413.8500;-77.0800;-72.4300;-4.6500
1414.0490;-77.3600;-72.5400;-4.8200
1414.2480;-77.8800;-72.4400;-5.4400
1414.4470;-78.5300;-72.8500;-5.6800
1414.6460;-78.5900;-73.2100;-5.3800
1414.8450;-77.8600;-72.8100;-5.0500
1415.0440;-77.8300;-73.0500;-4.7800
1415.2430;-77.9300;-73.0900;-4.8400
1415.4430;-78.4200;-73.1300;-5.2900
1415.6420;-77.1600;-72.5800;-4.5800
1415.8410;-77.7200;-72.7100;-5.0100
1416.0400;-76.8300;-72.9000;-3.9300
1416.2390;-77.5000;-73.2100;-4.2900
1416.4380;-78.1700;-73.1500;-5.0200
1416.6370;-78.0500;-73.1400;-4.9100
1416.8360;-77.5900;-73.2800;-4.3100
1417.0350;-77.2100;-73.0000;-4.2100
1417.2350;-76.7100;-72.9100;-3.8000
1417.4340;-77.9000;-73.7100;-4.1900
1417.6330;-77.1900;-73.8100;-3.3800
1417.8320;-77.3400;-73.4800;-3.8600
1418.0310;-77.1400;-72.9200;-4.2200
1418.2300;-77.6300;-73.4100;-4.2200
1418.4290;-76.7300;-73.6400;-3.0900
1418.6280;-77.1000;-73.6000;-3.5000
1418.8270;-76.6200;-73.6100;-3.0100
1419.0270;-77.8300;-73.8200;-4.0100
1419.2260;-77.3000;-74.0100;-3.2900
1419.4250;-77.5700;-74.1500;-3.4200
1419.6240;-77.2800;-74.2400;-3.0400
1419.8230;-76.4800;-73.9900;-2.4900
1420.0220;-77.1800;-74.0900;-3.0900
1420.2210;-76.6500;-74.0900;-2.5600
1420.4200;-77.5000;-73.7000;-3.8000
1420.6200;-78.4200;-74.3100;-4.1100
1420.8190;-77.1000;-74.0400;-3.0600
1421.0180;-77.8600;-74.4300;-3.4300
1421.2170;-76.6900;-74.2900;-2.4000
1421.4160;-76.9400;-74.3600;-2.5800
1421.6150;-76.9500;-73.9900;-2.9600
1421.8140;-77.1100;-74.3600;-2.7500
1422.0130;-77.1100;-74.1700;-2.9400
1422.2120;-77.7800;-74.4400;-3.3400
1422.4120;-77.7800;-74.4600;-3.3200
1422.6110;-77.6200;-74.2300;-3.3900
1422.8100;-77.7300;-74.0100;-3.7200
1423.0090;-77.6900;-74.4400;-3.2500
1423.2080;-76.9500;-74.0500;-2.9000
1423.4070;-78.5100;-74.1000;-4.4100
1423.6060;-77.8700;-74.1300;-3.7400
1423.8050;-77.7500;-74.3800;-3.3700
1424.0040;-77.5800;-74.1000;-3.4800
1424.2040;-78.3000;-74.6700;-3.6300
1424.4030;-77.6400;-74.3300;-3.3100
1424.6020;-77.7500;-74.1300;-3.6200
1424.8010;-77.5800;-74.0600;-3.5200
1425.0000;-78.3600;-74.1700;-4.1900
