Wavelength;Intensity_Meas;Intensity_Ref;Difference_dB
1200.0000;-61.0400;-56.1700;-4.8700
1200.1990;-61.0200;-56.1300;-4.8900
1200.3980;-61.0000;-56.1000;-4.9000
1200.5970;-61.0200;-56.0800;-4.9400
1200.7970;-60.9700;-56.0500;-4.9200
1200.9960;-60.9400;-56.0200;-4.9200
1201.1950;-60.9200;-55.9700;-4.9500
1201.3940;-60.9000;-55.9300;-4.9700
1201.5930;-60.8400;-55.9000;-4.9400
1201.7920;-60.8000;-55.8500;-4.9500
1201.9910;-60.8200;-55.8100;-5.0100
1202.1900;-60.7700;-55.7500;-5.0200
1202.3890;-60.6900;-55.7000;-4.9900
1202.5890;-60.6600;-55.6600;-5.0000
1202.7880;-60.6800;-55.5900;-5.0900
1202.9870;-60.6700;-55.5400;-5.1300
1203.1860;-60.5800;-55.4800;-5.1000
1203.3850;-60.5500;-55.4400;-5.1100
1203.5840;-60.5900;-55.4200;-5.1700
1203.7830;-60.5500;-55.3500;-5.2000
1203.9820;-60.5500;-55.3200;-5.2300
1204.1810;-60.5000;-55.2800;-5.2200
1204.3810;-60.5300;-55.2400;-5.2900
1204.5800;-60.5500;-55.2300;-5.3200
1204.7790;-60.5000;-55.1800;-5.3200
1204.9780;-60.4800;-55.1500;-5.3300
1205.1770;-60.4600;-55.1200;-5.3400
1205.3760;-60.4400;-55.0900;-5.3500
1205.5750;-60.4400;-55.0900;-5.3500
1205.7740;-60.4300;-55.0500;-5.3800
1205.9740;-60.3700;-55.0400;-5.3300
1206.1730;-60.3700;-55.0200;-5.3500
1206.3720;-60.3300;-54.9900;-5.3400
1206.5710;-60.3200;-54.9800;-5.3400
1206.7700;-60.2700;-54.9500;-5.3200
1206.9690;-60.2200;-54.9300;-5.2900
1207.1680;-60.2300;-54.9000;-5.3300
1207.3670;-60.1700;-54.8600;-5.3100
1207.5660;-60.1000;-54.8500;-5.2500
1207.7660;-60.0600;-54.8000;-5.2600
1207.9650;-60.0400;-54.7700;-5.2700
1208.1640;-60.0100;-54.7200;-5.2900
1208.3630;-59.9300;-54.6800;-5.2500
1208.5620;-59.8800;-54.6500;-5.2300
1208.7610;-59.8300;-54.5800;-5.2500
1208.9600;-59.7900;-54.5400;-5.2500
1209.1590;-59.7100;-54.4900;-5.2200
1209.3580;-59.6200;-54.4300;-5.1900
1209.5580;-59.5800;-54.4000;-5.1800
1209.7570;-59.5400;-54.3400;-5.2000
1209.9560;-59.4300;-54.2800;-5.1500
1210.1550;-59.3400;-54.2300;-5.1100
1210.3540;-59.2800;-54.1800;-5.1000
1210.5530;-59.2600;-54.1400;-5.1200
1210.7520;-59.1600;-54.0800;-5.0800
1210.9510;-59.0700;-54.0300;-5.0400
1211.1500;-59.0100;-54.0000;-5.0100
1211.3500;-58.9300;-53.9500;-4.9800
1211.5490;-58.8900;-53.9200;-4.9700
1211.7480;-58.8000;-53.8800;-4.9200
1211.9470;-58.7300;-53.8400;-4.8900
1212.1460;-58.7100;-53.8200;-4.8900
1212.3450;-58.6700;-53.7700;-4.9000
1212.5440;-58.6200;-53.7600;-4.8600
1212.7430;-58.5600;-53.7200;-4.8400
1212.9430;-58.5300;-53.6800;-4.8500
1213.1420;-58.5400;-53.6700;-4.8700
1213.3410;-58.4800;-53.6300;-4.8500
1213.5400;-58.4500;-53.6100;-4.8400
1213.7390;-58.4400;-53.5700;-4.8700
1213.9380;-58.4500;-53.5300;-4.9200
1214.1370;-58.4100;-53.5100;-4.9000
1214.3360;-58.3700;-53.4600;-4.9100
1214.5350;-58.3900;-53.4400;-4.9500
1214.7350;-58.3900;-53.3900;-5.0000
1214.9340;-58.3500;-53.3400;-5.0100
1215.1330;-58.3200;-53.2900;-5.0300
1215.3320;-58.3000;-53.2400;-5.0600
1215.5310;-58.3100;-53.2000;-5.1100
1215.7300;-58.2700;-53.1400;-5.1300
1215.9290;-58.2300;-53.0800;-5.1500
1216.1280;-58.1900;-53.0300;-5.1600
1216.3270;-58.1700;-52.9600;-5.2100
1216.5270;-58.1700;-52.9200;-5.2500
1216.7260;-58.0900;-52.8600;-5.2300
1216.9250;-58.0500;-52.7900;-5.2600
1217.1240;-58.0400;-52.7400;-5.3000
1217.3230;-58.0100;-52.6700;-5.3400
1217.5220;-57.9700;-52.6300;-5.3400
1217.7210;-57.9300;-52.5700;-5.3600
1217.9200;-57.9300;-52.5200;-5.4100
1218.1200;-57.9100;-52.4800;-5.4300
1218.3190;-57.8600;-52.4200;-5.4400
1218.5180;-57.8600;-52.3900;-5.4700
1218.7170;-57.8600;-52.3400;-5.5200
1218.9160;-57.8500;-52.2900;-5.5600
1219.1150;-57.8300;-52.2600;-5.5700
1219.3140;-57.7900;-52.2100;-5.5800
1219.5130;-57.8300;-52.1900;-5.6400
1219.7120;-57.8400;-52.1500;-5.6900
1219.9120;-57.8300;-52.1100;-5.7200
1220.1110;-57.8200;-52.0700;-5.7500
1220.3100;-57.8000;-52.0300;-5.7700
1220.5090;-57.8300;-52.0000;-5.8300
1220.7080;-57.8000;-51.9500;-5.8500
1220.9070;-57.7800;-51.9100;-5.8700
1221.1060;-57.7400;-51.8500;-5.8900
1221.3050;-57.7400;-51.8000;-5.9400
1221.5040;-57.7300;-51.7500;-5.9800
1221.7040;-57.6600;-51.6800;-5.9800
1221.9030;-57.6400;-51.6300;-6.0100
1222.1020;-57.6200;-51.5700;-6.0500
1222.3010;-57.5700;-51.5000;-6.0700
1222.5000;-57.4900;-51.4300;-6.0600
1222.6990;-57.4500;-51.3600;-6.0900
1222.8980;-57.4200;-51.2900;-6.1300
1223.0970;-57.3400;-51.2200;-6.1200
1223.2970;-57.2700;-51.1500;-6.1200
1223.4960;-57.2300;-51.0800;-6.1500
1223.6950;-57.1700;-51.0000;-6.1700
1223.8940;-57.1100;-50.9400;-6.1700
1224.0930;-57.0200;-50.8700;-6.1500
1224.2920;-56.9500;-50.8000;-6.1500
1224.4910;-56.9100;-50.7400;-6.1700
1224.6900;-56.8400;-50.6700;-6.1700
1224.8890;-56.7600;-50.6000;-6.1600
1225.0890;-56.7200;-50.5500;-6.1700
1225.2880;-56.6700;-50.4800;-6.1900
1225.4870;-56.6100;-50.4300;-6.1800
1225.6860;-56.5400;-50.3700;-6.1700
1225.8850;-56.4900;-50.3200;-6.1700
1226.0840;-56.4400;-50.2700;-6.1700
1226.2830;-56.3800;-50.2100;-6.1700
1226.4820;-56.3100;-50.1600;-6.1500
1226.6810;-56.2400;-50.1100;-6.1300
1226.8810;-56.2000;-50.0600;-6.1400
1227.0800;-56.1300;-50.0000;-6.1300
1227.2790;-56.0400;-49.9500;-6.0900
1227.4780;-55.9700;-49.8900;-6.0800
1227.6770;-55.9000;-49.8300;-6.0700
1227.8760;-55.8100;-49.7700;-6.0400
1228.0750;-55.6700;-49.7100;-5.9600
1228.2740;-55.6000;-49.6400;-5.9600
1228.4740;-55.5100;-49.5700;-5.9400
1228.6730;-55.4000;-49.4900;-5.9100
1228.8720;-55.3000;-49.4200;-5.8800
1229.0710;-55.2000;-49.3500;-5.8500
1229.2700;-55.1000;-49.2600;-5.8400
1229.4690;-55.0000;-49.1900;-5.8100
1229.6680;-54.8900;-49.1000;-5.7900
1229.8670;-54.7900;-49.0100;-5.7800
1230.0660;-54.7000;-48.9500;-5.7500
1230.2660;-54.5900;-48.8500;-5.7400
1230.4650;-54.5000;-48.7700;-5.7300
1230.6640;-54.4200;-48.6900;-5.7300
1230.8630;-54.3600;-48.6200;-5.7400
1231.0620;-54.2700;-48.5500;-5.7200
1231.2610;-54.1900;-48.4800;-5.7100
1231.4600;-54.1500;-48.4300;-5.7200
1231.6590;-54.0800;-48.3500;-5.7300
1231.8580;-54.0100;-48.2800;-5.7300
1232.0580;-53.9400;-48.2300;-5.7100
1232.2570;-53.8800;-48.1600;-5.7200
1232.4560;-53.8200;-48.1200;-5.7000
1232.6550;-53.7300;-48.0400;-5.6900
1232.8540;-53.6700;-47.9800;-5.6900
1233.0530;-53.6100;-47.9300;-5.6800
1233.2520;-53.5200;-47.8600;-5.6600
1233.4510;-53.4400;-47.8100;-5.6300
1233.6500;-53.3700;-47.7400;-5.6300
1233.8500;-53.3000;-47.6800;-5.6200
1234.0490;-53.2100;-47.6200;-5.5900
1234.2480;-53.1100;-47.5400;-5.5700
1234.4470;-53.0300;-47.4800;-5.5500
1234.6460;-52.9500;-47.4000;-5.5500
1234.8450;-52.8700;-47.3300;-5.5400
1235.0440;-52.7600;-47.2400;-5.5200
1235.2430;-52.6800;-47.1600;-5.5200
1235.4430;-52.5900;-47.0800;-5.5100
1235.6420;-52.4900;-46.9800;-5.5100
1235.8410;-52.4000;-46.9000;-5.5000
1236.0400;-52.3100;-46.8100;-5.5000
1236.2390;-52.2200;-46.7100;-5.5100
1236.4380;-52.1100;-46.6200;-5.4900
1236.6370;-52.0200;-46.5300;-5.4900
1236.8360;-51.9400;-46.4400;-5.5000
1237.0350;-51.8400;-46.3400;-5.5000
1237.2350;-51.7500;-46.2500;-5.5000
1237.4340;-51.6500;-46.1600;-5.4900
1237.6330;-51.5700;-46.0700;-5.5000
1237.8320;-51.5100;-46.0000;-5.5100
1238.0310;-51.4000;-45.8900;-5.5100
1238.2300;-51.3300;-45.8300;-5.5000
1238.4290;-51.2500;-45.7300;-5.5200
1238.6280;-51.1800;-45.6600;-5.5200
1238.8270;-51.1100;-45.5800;-5.5300
1239.0270;-51.0400;-45.5000;-5.5400
1239.2260;-50.9800;-45.4200;-5.5600
1239.4250;-50.9100;-45.3300;-5.5800
1239.6240;-50.8500;-45.2500;-5.6000
1239.8230;-50.8000;-45.1600;-5.6400
1240.0220;-50.7500;-45.0700;-5.6800
1240.2210;-50.6900;-44.9900;-5.7000
1240.4200;-50.6300;-44.8800;-5.7500
1240.6200;-50.5900;-44.8000;-5.7900
1240.8190;-50.5500;-44.6900;-5.8600
1241.0180;-50.4700;-44.5700;-5.9000
1241.2170;-50.4200;-44.4700;-5.9500
1241.4160;-50.3500;-44.3500;-6.0000
1241.6150;-50.2800;-44.2300;-6.0500
1241.8140;-50.2100;-44.1100;-6.1000
1242.0130;-50.1400;-43.9900;-6.1500
1242.2120;-50.0800;-43.8800;-6.2000
1242.4120;-49.9900;-43.7400;-6.2500
1242.6110;-49.9000;-43.6100;-6.2900
1242.8100;-49.8300;-43.4900;-6.3400
1243.0090;-49.7300;-43.3500;-6.3800
1243.2080;-49.6500;-43.2300;-6.4200
1243.4070;-49.5600;-43.0900;-6.4700
1243.6060;-49.4500;-42.9700;-6.4800
1243.8050;-49.3700;-42.8400;-6.5300
1244.0040;-49.2600;-42.7100;-6.5500
1244.2040;-49.1700;-42.6000;-6.5700
1244.4030;-49.0600;-42.4600;-6.6000
1244.6020;-48.9500;-42.3400;-6.6100
1244.8010;-48.8400;-42.2200;-6.6200
1245.0000;-48.7300;-42.0900;-6.6400
1245.1990;-48.6200;-41.9900;-6.6300
1245.3980;-48.4800;-41.8600;-6.6200
1245.5970;-48.3400;-41.7300;-6.6100
1245.7970;-48.2000;-41.6100;-6.5900
1245.9960;-48.0400;-41.4800;-6.5600
1246.1950;-47.8800;-41.3600;-6.5200
1246.3940;-47.7100;-41.2300;-6.4800
1246.5930;-47.5200;-41.0900;-6.4300
1246.7920;-47.3300;-40.9600;-6.3700
1246.9910;-47.1100;-40.8100;-6.3000
1247.1900;-46.9200;-40.6900;-6.2300
1247.3890;-46.7000;-40.5400;-6.1600
1247.5890;-46.4600;-40.3900;-6.0700
1247.7880;-46.2400;-40.2500;-5.9900
1247.9870;-46.0000;-40.0900;-5.9100
1248.1860;-45.7400;-39.9500;-5.7900
1248.3850;-45.5400;-39.7900;-5.7500
1248.5840;-45.3200;-39.6300;-5.6900
1248.7830;-45.0800;-39.4900;-5.5900
1248.9820;-44.8500;-39.3300;-5.5200
1249.1810;-44.6300;-39.1900;-5.4400
1249.3810;-44.4100;-39.0300;-5.3800
1249.5800;-44.1900;-38.8700;-5.3200
1249.7790;-43.9700;-38.7300;-5.2400
1249.9780;-43.7600;-38.5600;-5.2000
1250.1770;-43.5600;-38.4300;-5.1300
1250.3760;-43.3600;-38.2700;-5.0900
1250.5750;-43.1800;-38.1200;-5.0600
1250.7740;-42.9900;-37.9800;-5.0100
1250.9740;-42.8200;-37.8500;-4.9700
1251.1730;-42.6600;-37.7200;-4.9400
1251.3720;-42.4900;-37.5600;-4.9300
1251.5710;-42.3600;-37.4400;-4.9200
1251.7700;-42.2000;-37.2900;-4.9100
1251.9690;-42.0600;-37.1500;-4.9100
1252.1680;-41.9300;-37.0100;-4.9200
1252.3670;-41.8000;-36.8600;-4.9400
1252.5660;-41.7000;-36.7300;-4.9700
1252.7660;-41.5800;-36.5700;-5.0100
1252.9650;-41.4900;-36.4300;-5.0600
1253.1640;-41.4000;-36.2900;-5.1100
1253.3630;-41.3200;-36.1200;-5.2000
1253.5620;-41.2800;-35.9900;-5.2900
1253.7610;-41.2000;-35.8000;-5.4000
1253.9600;-41.1700;-35.6800;-5.4900
1254.1590;-41.1300;-35.5100;-5.6200
1254.3580;-41.1100;-35.3500;-5.7600
1254.5580;-41.1200;-35.2100;-5.9100
1254.7570;-41.1100;-35.0400;-6.0700
1254.9560;-41.1300;-34.8900;-6.2400
1255.1550;-41.1600;-34.7300;-6.4300
1255.3540;-41.2100;-34.5700;-6.6400
1255.5530;-41.2800;-34.4300;-6.8500
1255.7520;-41.3500;-34.2700;-7.0800
1255.9510;-41.4400;-34.1300;-7.3100
1256.1500;-41.5500;-33.9700;-7.5800
1256.3500;-41.6600;-33.8400;-7.8200
1256.5490;-41.8100;-33.7100;-8.1000
1256.7480;-41.9500;-33.5600;-8.3900
1256.9470;-42.1200;-33.4300;-8.6900
1257.1460;-42.2900;-33.2900;-9.0000
1257.3450;-42.4800;-33.1500;-9.3300
1257.5440;-42.7000;-33.0300;-9.6700
1257.7430;-42.9100;-32.8800;-10.0300
1257.9430;-43.1500;-32.7500;-10.4000
1258.1420;-43.3800;-32.6100;-10.7700
1258.3410;-43.6100;-32.4700;-11.1400
1258.5400;-43.8500;-32.3500;-11.5000
1258.7390;-44.0700;-32.2000;-11.8700
1258.9380;-44.2700;-32.0700;-12.2000
1259.1370;-44.4400;-31.9200;-12.5200
1259.3360;-44.5600;-31.7800;-12.7800
1259.5350;-44.6500;-31.6400;-13.0100
1259.7350;-44.6600;-31.4900;-13.1700
1259.9340;-44.6200;-31.3500;-13.2700
1260.1330;-44.4900;-31.2000;-13.2900
1260.3320;-44.3000;-31.0600;-13.2400
1260.5310;-44.0400;-30.9200;-13.1200
1260.7300;-43.7200;-30.7700;-12.9500
1260.9290;-43.3800;-30.6400;-12.7400
1261.1280;-42.9700;-30.4900;-12.4800
1261.3270;-42.5400;-30.3600;-12.1800
1261.5270;-42.1200;-30.2300;-11.8900
1261.7260;-41.6700;-30.1000;-11.5700
1261.9250;-41.2400;-29.9700;-11.2700
1262.1240;-40.7900;-29.8300;-10.9600
1262.3230;-40.3700;-29.7100;-10.6600
1262.5220;-39.9500;-29.5900;-10.3600
1262.7210;-39.5400;-29.4600;-10.0800
1262.9200;-39.1700;-29.3500;-9.8200
1263.1200;-38.7800;-29.2200;-9.5600
1263.3190;-38.4300;-29.1000;-9.3300
1263.5180;-38.0900;-28.9800;-9.1100
1263.7170;-37.7600;-28.8600;-8.9000
1263.9160;-37.4600;-28.7400;-8.7200
1264.1150;-37.1600;-28.6000;-8.5600
1264.3140;-36.8900;-28.4800;-8.4100
1264.5130;-36.6400;-28.3500;-8.2900
1264.7120;-36.3900;-28.2200;-8.1700
1264.9120;-36.1800;-28.1000;-8.0800
1265.1110;-35.9400;-27.9600;-7.9800
1265.3100;-35.8000;-27.8300;-7.9700
1265.5090;-35.6300;-27.7000;-7.9300
1265.7080;-35.5100;-27.5700;-7.9400
1265.9070;-35.3700;-27.4400;-7.9300
1266.1060;-35.2700;-27.3000;-7.9700
1266.3050;-35.1900;-27.1800;-8.0100
1266.5040;-35.1400;-27.0500;-8.0900
1266.7040;-35.1100;-26.9300;-8.1800
1266.9030;-35.0900;-26.8000;-8.2900
1267.1020;-35.0900;-26.6700;-8.4200
1267.3010;-35.1200;-26.5600;-8.5600
1267.5000;-35.1800;-26.4300;-8.7500
1267.6990;-35.2600;-26.3200;-8.9400
1267.8980;-35.3400;-26.2000;-9.1400
1268.0970;-35.4600;-26.0700;-9.3900
1268.2970;-35.6000;-25.9700;-9.6300
1268.4960;-35.7600;-25.8600;-9.9000
1268.6950;-35.9300;-25.7500;-10.1800
1268.8940;-36.1100;-25.6200;-10.4900
1269.0930;-36.2900;-25.5100;-10.7800
1269.2920;-36.5000;-25.3900;-11.1100
1269.4910;-36.7100;-25.2800;-11.4300
1269.6900;-36.9200;-25.1700;-11.7500
1269.8890;-37.1000;-25.0400;-12.0600
1270.0890;-37.2600;-24.9200;-12.3400
1270.2880;-37.3900;-24.8000;-12.5900
1270.4870;-37.4700;-24.6900;-12.7800
1270.6860;-37.5000;-24.5700;-12.9300
1270.8850;-37.4100;-24.4400;-12.9700
1271.0840;-37.2700;-24.3200;-12.9500
1271.2830;-37.0300;-24.2000;-12.8300
1271.4820;-36.7200;-24.0800;-12.6400
1271.6810;-36.3500;-23.9700;-12.3800
1271.8810;-35.8900;-23.8300;-12.0600
1272.0800;-35.4000;-23.7300;-11.6700
1272.2790;-34.8800;-23.6100;-11.2700
1272.4780;-34.3300;-23.4900;-10.8400
1272.6770;-33.7900;-23.3900;-10.4000
1272.8760;-33.2300;-23.2700;-9.9600
1273.0750;-32.6800;-23.1700;-9.5100
1273.2740;-32.1300;-23.0600;-9.0700
1273.4740;-31.5900;-22.9500;-8.6400
1273.6730;-31.0800;-22.8600;-8.2200
1273.8720;-30.5700;-22.7500;-7.8200
1274.0710;-30.1000;-22.6600;-7.4400
1274.2700;-29.6100;-22.5500;-7.0600
1274.4690;-29.1600;-22.4500;-6.7100
1274.6680;-28.7200;-22.3600;-6.3600
1274.8670;-28.3000;-22.2500;-6.0500
1275.0660;-27.9100;-22.1700;-5.7400
1275.2660;-27.5100;-22.0600;-5.4500
1275.4650;-27.1500;-21.9600;-5.1900
1275.6640;-26.8000;-21.8700;-4.9300
1275.8630;-26.4600;-21.7700;-4.6900
1276.0620;-26.1600;-21.6800;-4.4800
1276.2610;-25.7900;-21.5800;-4.2100
1276.4600;-25.5700;-21.4800;-4.0900
1276.6590;-25.2900;-21.3800;-3.9100
1276.8580;-25.0400;-21.2800;-3.7600
1277.0580;-24.7900;-21.2000;-3.5900
1277.2570;-24.5700;-21.0900;-3.4800
1277.4560;-24.3800;-21.0100;-3.3700
1277.6550;-24.1800;-20.9200;-3.2600
1277.8540;-24.0100;-20.8300;-3.1800
1278.0530;-23.8400;-20.7500;-3.0900
1278.2520;-23.6800;-20.6600;-3.0200
1278.4510;-23.5600;-20.5800;-2.9800
1278.6500;-23.4300;-20.4900;-2.9400
1278.8500;-23.3300;-20.4100;-2.9200
1279.0490;-23.2200;-20.3400;-2.8800
1279.2480;-23.1400;-20.2500;-2.8900
1279.4470;-23.0800;-20.1900;-2.8900
1279.6460;-23.0200;-20.1000;-2.9200
1279.8450;-22.9800;-20.0200;-2.9600
1280.0440;-22.9400;-19.9500;-2.9900
1280.2430;-22.9300;-19.8700;-3.0600
1280.4430;-22.9200;-19.8100;-3.1100
1280.6420;-22.9300;-19.7200;-3.2100
1280.8410;-22.9700;-19.6400;-3.3300
1281.0400;-23.0000;-19.5700;-3.4300
1281.2390;-23.0700;-19.4900;-3.5800
1281.4380;-23.1400;-19.4200;-3.7200
1281.6370;-23.2300;-19.3300;-3.9000
1281.8360;-23.3600;-19.2500;-4.1100
1282.0350;-23.4800;-19.1700;-4.3100
1282.2350;-23.6500;-19.0800;-4.5700
1282.4340;-23.8200;-19.0200;-4.8000
1282.6330;-24.0300;-18.9400;-5.0900
1282.8320;-24.2600;-18.8600;-5.4000
1283.0310;-24.5100;-18.7800;-5.7300
1283.2300;-24.8000;-18.7000;-6.1000
1283.4290;-25.1000;-18.6400;-6.4600
1283.6280;-25.4500;-18.5500;-6.9000
1283.8270;-25.8400;-18.4900;-7.3500
1284.0270;-26.2500;-18.4100;-7.8400
1284.2260;-26.7300;-18.3300;-8.4000
1284.4250;-27.2200;-18.2800;-8.9400
1284.6240;-27.7700;-18.2000;-9.5700
1284.8230;-28.5100;-18.1300;-10.3800
1285.0220;-29.0600;-18.0500;-11.0100
1285.2210;-29.7800;-17.9800;-11.8000
1285.4200;-30.5400;-17.9200;-12.6200
1285.6200;-31.3500;-17.8400;-13.5100
1285.8190;-32.1600;-17.7800;-14.3800
1286.0180;-32.9300;-17.7000;-15.2300
1286.2170;-33.5900;-17.6300;-15.9600
1286.4160;-33.9900;-17.5700;-16.4200
1286.6150;-34.0800;-17.5000;-16.5800
1286.8140;-33.7500;-17.4400;-16.3100
1287.0130;-33.1100;-17.3600;-15.7500
1287.2120;-32.2600;-17.2900;-14.9700
1287.4120;-31.2900;-17.2200;-14.0700
1287.6110;-30.3200;-17.1500;-13.1700
1287.8100;-29.3400;-17.1000;-12.2400
1288.0090;-28.4200;-17.0200;-11.4000
1288.2080;-27.5500;-16.9600;-10.5900
1288.4070;-26.7400;-16.9000;-9.8400
1288.6060;-25.8500;-16.8300;-9.0200
1288.8050;-25.2700;-16.7800;-8.4900
1289.0040;-24.6300;-16.7100;-7.9200
1289.2040;-24.0000;-16.6600;-7.3400
1289.4030;-23.4400;-16.6000;-6.8400
1289.6020;-22.8900;-16.5500;-6.3400
1289.8010;-22.3900;-16.5000;-5.8900
1290.0000;-21.9300;-16.4300;-5.5000
1290.1990;-21.4800;-16.3900;-5.0900
1290.3980;-21.0700;-16.3300;-4.7400
1290.5970;-20.6800;-16.2900;-4.3900
1290.7970;-20.3000;-16.2500;-4.0500
1290.9960;-19.9500;-16.1800;-3.7700
1291.1950;-19.6000;-16.1400;-3.4600
1291.3940;-19.3000;-16.0800;-3.2200
1291.5930;-18.9900;-16.0400;-2.9500
1291.7920;-18.7100;-15.9800;-2.7300
1291.9910;-18.4600;-15.9400;-2.5200
1292.1900;-18.2100;-15.8900;-2.3200
1292.3890;-17.9900;-15.8500;-2.1400
1292.5890;-17.7500;-15.8000;-1.9500
1292.7880;-17.5600;-15.7500;-1.8100
1292.9870;-17.3700;-15.7100;-1.6600
1293.1860;-17.1900;-15.6600;-1.5300
1293.3850;-17.0400;-15.6200;-1.4200
1293.5840;-16.8700;-15.5800;-1.2900
1293.7830;-16.7300;-15.5300;-1.2000
1293.9820;-16.6000;-15.5000;-1.1000
1294.1810;-16.4700;-15.4500;-1.0200
1294.3810;-16.3700;-15.4200;-0.9500
1294.5800;-16.2400;-15.3800;-0.8600
1294.7790;-16.1600;-15.3400;-0.8200
1294.9780;-16.0500;-15.3100;-0.7400
1295.1770;-15.9800;-15.2700;-0.7100
1295.3760;-15.9200;-15.2400;-0.6800
1295.5750;-15.8300;-15.2000;-0.6300
1295.7740;-15.7800;-15.1600;-0.6200
1295.9740;-15.7000;-15.1300;-0.5700
1296.1730;-15.6500;-15.0800;-0.5700
1296.3720;-15.6100;-15.0600;-0.5500
1296.5710;-15.5500;-15.0200;-0.5300
1296.7700;-15.5200;-14.9800;-0.5400
1296.9690;-15.4800;-14.9600;-0.5200
1297.1680;-15.4500;-14.9300;-0.5200
1297.3670;-15.4200;-14.9000;-0.5200
1297.5660;-15.3800;-14.8500;-0.5300
1297.7660;-15.3700;-14.8200;-0.5500
1297.9650;-15.3400;-14.8000;-0.5400
1298.1640;-15.3300;-14.7600;-0.5700
1298.3630;-15.3100;-14.7400;-0.5700
1298.5620;-15.2800;-14.7000;-0.5800
1298.7610;-15.2800;-14.6700;-0.6100
1298.9600;-15.2600;-14.6500;-0.6100
1299.1590;-15.2700;-14.6200;-0.6500
1299.3580;-15.2500;-14.6000;-0.6500
1299.5580;-15.2300;-14.5600;-0.6700
1299.7570;-15.2300;-14.5400;-0.6900
1299.9560;-15.2200;-14.5200;-0.7000
1300.1550;-15.2300;-14.4900;-0.7400
1300.3540;-15.2100;-14.4800;-0.7300
1300.5530;-15.2000;-14.4300;-0.7700
1300.7520;-15.2000;-14.4100;-0.7900
1300.9510;-15.1900;-14.3900;-0.8000
1301.1500;-15.2100;-14.3800;-0.8300
1301.3500;-15.2000;-14.3700;-0.8300
1301.5490;-15.2100;-14.3500;-0.8600
1301.7480;-15.2100;-14.3400;-0.8700
1301.9470;-15.2100;-14.3200;-0.8900
1302.1460;-15.2400;-14.3100;-0.9300
1302.3450;-15.2400;-14.3000;-0.9400
1302.5440;-15.2700;-14.2800;-0.9900
1302.7430;-15.2700;-14.2800;-0.9900
1302.9430;-15.2900;-14.2600;-1.0300
1303.1420;-15.3300;-14.2500;-1.0800
1303.3410;-15.3500;-14.2400;-1.1100
1303.5400;-15.4000;-14.2400;-1.1600
1303.7390;-15.4300;-14.2400;-1.1900
1303.9380;-15.4700;-14.2100;-1.2600
1304.1370;-15.5300;-14.2200;-1.3100
1304.3360;-15.5900;-14.2100;-1.3800
1304.5350;-15.6600;-14.2100;-1.4500
1304.7350;-15.7200;-14.2200;-1.5000
1304.9340;-15.7900;-14.2100;-1.5800
1305.1330;-15.8800;-14.2200;-1.6600
1305.3320;-15.9600;-14.2100;-1.7500
1305.5310;-16.0700;-14.2200;-1.8500
1305.7300;-16.1600;-14.2300;-1.9300
1305.9290;-16.2800;-14.2200;-2.0600
1306.1280;-16.4000;-14.2400;-2.1600
1306.3270;-16.5100;-14.2400;-2.2700
1306.5270;-16.6700;-14.2500;-2.4200
1306.7260;-16.8000;-14.2600;-2.5400
1306.9250;-16.9600;-14.2600;-2.7000
1307.1240;-17.1200;-14.2800;-2.8400
1307.3230;-17.2800;-14.2800;-3.0000
1307.5220;-17.4900;-14.3000;-3.1900
1307.7210;-17.6700;-14.3100;-3.3600
1307.9200;-17.8800;-14.3100;-3.5700
1308.1200;-18.0900;-14.3500;-3.7400
1308.3190;-18.3800;-14.3500;-4.0300
1308.5180;-18.5700;-14.3700;-4.2000
1308.7170;-18.8100;-14.3800;-4.4300
1308.9160;-19.0600;-14.3900;-4.6700
1309.1150;-19.3200;-14.4300;-4.8900
1309.3140;-19.6000;-14.4300;-5.1700
1309.5130;-19.8600;-14.4700;-5.3900
1309.7120;-20.1400;-14.4800;-5.6600
1309.9120;-20.4000;-14.5000;-5.9000
1310.1110;-20.6800;-14.5400;-6.1400
1310.3100;-20.9500;-14.5500;-6.4000
1310.5090;-21.2000;-14.5900;-6.6100
1310.7080;-21.4500;-14.6000;-6.8500
1310.9070;-21.6700;-14.6200;-7.0500
1311.1060;-21.8800;-14.6600;-7.2200
1311.3050;-22.0700;-14.6700;-7.4000
1311.5040;-22.2200;-14.7200;-7.5000
1311.7040;-22.3400;-14.7300;-7.6100
1311.9030;-22.4100;-14.7700;-7.6400
1312.1020;-22.4400;-14.7900;-7.6500
1312.3010;-22.4500;-14.8200;-7.6300
1312.5000;-22.4100;-14.8700;-7.5400
1312.6990;-22.3400;-14.9000;-7.4400
1312.8980;-22.2100;-14.9400;-7.2700
1313.0970;-22.0800;-14.9600;-7.1200
1313.2970;-21.9100;-15.0000;-6.9100
1313.4960;-21.7300;-15.0500;-6.6800
1313.6950;-21.5400;-15.0800;-6.4600
1313.8940;-21.3100;-15.1300;-6.1800
1314.0930;-21.1000;-15.1600;-5.9400
1314.2920;-20.8700;-15.2100;-5.6600
1314.4910;-20.6500;-15.2600;-5.3900
1314.6900;-20.4400;-15.3000;-5.1400
1314.8890;-20.2100;-15.3500;-4.8600
1315.0890;-20.0000;-15.3800;-4.6200
1315.2880;-19.7900;-15.4400;-4.3500
1315.4870;-19.6000;-15.4800;-4.1200
1315.6860;-19.4200;-15.5300;-3.8900
1315.8850;-19.2300;-15.5800;-3.6500
1316.0840;-19.0800;-15.6300;-3.4500
1316.2830;-18.9100;-15.6900;-3.2200
1316.4820;-18.7800;-15.7400;-3.0400
1316.6810;-18.6500;-15.7900;-2.8600
1316.8810;-18.5300;-15.8500;-2.6800
1317.0800;-18.4400;-15.9100;-2.5300
1317.2790;-18.3400;-15.9800;-2.3600
1317.4780;-18.2600;-16.0400;-2.2200
1317.6770;-18.1800;-16.1100;-2.0700
1317.8760;-18.1200;-16.1600;-1.9600
1318.0750;-18.0700;-16.2200;-1.8500
1318.2740;-18.0200;-16.2900;-1.7300
1318.4740;-18.0000;-16.3500;-1.6500
1318.6730;-17.9800;-16.4500;-1.5300
1318.8720;-17.9600;-16.5000;-1.4600
1319.0710;-17.9700;-16.5800;-1.3900
1319.2700;-17.9800;-16.6500;-1.3300
1319.4690;-18.0100;-16.7200;-1.2900
1319.6680;-18.0300;-16.8100;-1.2200
1319.8670;-18.0700;-16.8800;-1.1900
1320.0660;-18.1200;-16.9600;-1.1600
1320.2660;-18.1700;-17.0300;-1.1400
1320.4650;-18.2400;-17.1100;-1.1300
1320.6640;-18.3100;-17.2100;-1.1000
1320.8630;-18.4000;-17.2900;-1.1100
1321.0620;-18.4800;-17.3800;-1.1000
1321.2610;-18.5700;-17.4500;-1.1200
1321.4600;-18.6900;-17.5500;-1.1400
1321.6590;-18.7900;-17.6300;-1.1600
1321.8580;-18.9100;-17.7100;-1.2000
1322.0580;-19.0300;-17.8200;-1.2100
1322.2570;-19.1600;-17.9000;-1.2600
1322.4560;-19.3000;-18.0100;-1.2900
1322.6550;-19.4300;-18.0900;-1.3400
1322.8540;-19.5900;-18.1900;-1.4000
1323.0530;-19.7300;-18.2900;-1.4400
1323.2520;-19.9000;-18.3900;-1.5100
1323.4510;-20.0600;-18.5100;-1.5500
1323.6500;-20.2100;-18.5900;-1.6200
1323.8500;-20.3900;-18.7000;-1.6900
1324.0490;-20.5500;-18.8000;-1.7500
1324.2480;-20.7400;-18.9100;-1.8300
1324.4470;-20.9000;-19.0200;-1.8800
1324.6460;-21.0800;-19.1200;-1.9600
1324.8450;-21.2600;-19.2400;-2.0200
1325.0440;-21.4300;-19.3400;-2.0900
1325.2430;-21.6200;-19.4600;-2.1600
1325.4430;-21.7800;-19.5700;-2.2100
1325.6420;-21.9700;-19.6900;-2.2800
1325.8410;-22.1500;-19.8100;-2.3400
1326.0400;-22.3200;-19.9200;-2.4000
1326.2390;-22.5000;-20.0500;-2.4500
1326.4380;-22.6600;-20.1600;-2.5000
1326.6370;-22.8300;-20.2800;-2.5500
1326.8360;-22.9900;-20.4000;-2.5900
1327.0350;-23.1400;-20.5200;-2.6200
1327.2350;-23.3100;-20.6600;-2.6500
1327.4340;-23.4600;-20.7700;-2.6900
1327.6330;-23.6200;-20.9000;-2.7200
1327.8320;-23.7600;-21.0200;-2.7400
1328.0310;-23.9100;-21.1500;-2.7600
1328.2300;-24.0600;-21.2900;-2.7700
1328.4290;-24.2000;-21.4100;-2.7900
1328.6280;-24.3500;-21.5600;-2.7900
1328.8270;-24.4800;-21.6800;-2.8000
1329.0270;-24.6300;-21.8100;-2.8200
1329.2260;-24.7600;-21.9600;-2.8000
1329.4250;-24.8900;-22.0800;-2.8100
1329.6240;-25.0300;-22.2300;-2.8000
1329.8230;-25.1500;-22.3500;-2.8000
1330.0220;-25.2800;-22.4900;-2.7900
1330.2210;-25.4000;-22.6400;-2.7600
1330.4200;-25.5300;-22.7700;-2.7600
1330.6200;-25.6700;-22.9200;-2.7500
1330.8190;-25.7900;-23.0600;-2.7300
1331.0180;-25.9400;-23.2100;-2.7300
1331.2170;-26.0600;-23.3500;-2.7100
1331.4160;-26.2000;-23.5000;-2.7000
1331.6150;-26.3300;-23.6500;-2.6800
1331.8140;-26.4500;-23.7900;-2.6600
1332.0130;-26.6000;-23.9600;-2.6400
1332.2120;-26.7200;-24.0900;-2.6300
1332.4120;-26.8700;-24.2500;-2.6200
1332.6110;-27.0000;-24.4100;-2.5900
1332.8100;-27.1400;-24.5600;-2.5800
1333.0090;-27.2800;-24.7300;-2.5500
1333.2080;-27.4000;-24.8700;-2.5300
1333.4070;-27.5500;-25.0300;-2.5200
1333.6060;-27.6800;-25.1800;-2.5000
1333.8050;-27.8200;-25.3400;-2.4800
1334.0040;-27.9500;-25.5100;-2.4400
1334.2040;-28.0900;-25.6600;-2.4300
1334.4030;-28.2200;-25.8300;-2.3900
1334.6020;-28.3500;-25.9800;-2.3700
1334.8010;-28.5200;-26.1400;-2.3800
1335.0000;-28.6200;-26.3100;-2.3100
1335.1990;-28.7600;-26.4600;-2.3000
1335.3980;-28.8800;-26.6400;-2.2400
1335.5970;-29.0100;-26.7900;-2.2200
1335.7970;-29.1400;-26.9600;-2.1800
1335.9960;-29.2600;-27.1300;-2.1300
1336.1950;-29.4000;-27.2900;-2.1100
1336.3940;-29.5100;-27.4500;-2.0600
1336.5930;-29.6400;-27.6100;-2.0300
1336.7920;-29.7400;-27.7900;-1.9500
1336.9910;-29.8600;-27.9400;-1.9200
1337.1900;-29.9800;-28.1100;-1.8700
1337.3890;-30.0900;-28.2800;-1.8100
1337.5890;-30.2200;-28.4400;-1.7800
1337.7880;-30.3200;-28.6500;-1.6700
1337.9870;-30.4500;-28.7900;-1.6600
1338.1860;-30.5600;-28.9600;-1.6000
1338.3850;-30.6700;-29.1300;-1.5400
1338.5840;-30.8000;-29.3100;-1.4900
1338.7830;-30.9100;-29.4700;-1.4400
1338.9820;-31.0400;-29.6400;-1.4000
1339.1810;-31.1500;-29.8200;-1.3300
1339.3810;-31.2800;-29.9900;-1.2900
1339.5800;-31.4100;-30.1700;-1.2400
1339.7790;-31.5300;-30.3300;-1.2000
1339.9780;-31.6800;-30.5200;-1.1600
1340.1770;-31.8100;-30.6900;-1.1200
1340.3760;-31.9600;-30.8600;-1.1000
1340.5750;-32.1200;-31.0600;-1.0600
1340.7740;-32.2600;-31.2200;-1.0400
1340.9740;-32.4200;-31.4000;-1.0200
1341.1730;-32.5800;-31.5700;-1.0100
1341.3720;-32.7500;-31.7400;-1.0100
1341.5710;-32.9100;-31.9200;-0.9900
1341.7700;-33.0900;-32.0900;-1.0000
1341.9690;-33.2800;-32.2800;-1.0000
1342.1680;-33.4600;-32.4400;-1.0200
1342.3670;-33.6700;-32.6200;-1.0500
1342.5660;-33.8600;-32.7900;-1.0700
1342.7660;-34.0800;-32.9700;-1.1100
1342.9650;-34.2900;-33.1600;-1.1300
1343.1640;-34.5200;-33.3300;-1.1900
1343.3630;-34.7700;-33.5100;-1.2600
1343.5620;-35.0000;-33.6800;-1.3200
1343.7610;-35.2600;-33.8500;-1.4100
1343.9600;-35.5200;-34.0500;-1.4700
1344.1590;-35.7900;-34.2200;-1.5700
1344.3580;-36.0700;-34.4100;-1.6600
1344.5580;-36.3700;-34.5800;-1.7900
1344.7570;-36.6700;-34.7700;-1.9000
1344.9560;-36.9600;-34.9400;-2.0200
1345.1550;-37.2800;-35.1000;-2.1800
1345.3540;-37.6000;-35.2800;-2.3200
1345.5530;-37.9200;-35.4400;-2.4800
1345.7520;-38.2800;-35.6300;-2.6500
1345.9510;-38.7100;-35.8000;-2.9100
1346.1500;-39.0200;-35.9700;-3.0500
1346.3500;-39.3900;-36.1600;-3.2300
1346.5490;-39.8000;-36.3400;-3.4600
1346.7480;-40.1900;-36.5100;-3.6800
1346.9470;-40.6100;-36.6800;-3.9300
1347.1460;-41.0400;-36.8500;-4.1900
1347.3450;-41.4600;-37.0000;-4.4600
1347.5440;-41.9600;-37.2100;-4.7500
1347.7430;-42.4500;-37.4400;-5.0100
1347.9430;-42.9700;-37.6300;-5.3400
1348.1420;-43.4700;-37.8000;-5.6700
1348.3410;-43.9800;-37.9800;-6.0000
1348.5400;-44.4900;-38.1100;-6.3800
1348.7390;-44.9800;-38.2700;-6.7100
1348.9380;-45.5200;-38.4600;-7.0600
1349.1370;-46.0500;-38.5900;-7.4600
1349.3360;-46.5800;-38.7200;-7.8600
1349.5350;-47.1400;-38.8700;-8.2700
1349.7350;-47.6700;-39.0200;-8.6500
1349.9340;-48.2500;-39.1900;-9.0600
1350.1330;-48.9300;-39.3900;-9.5400
1350.3320;-49.4200;-39.6100;-9.8100
1350.5310;-49.9700;-39.8100;-10.1600
1350.7300;-50.4900;-39.9700;-10.5200
1350.9290;-50.9400;-40.1100;-10.8300
1351.1280;-51.3100;-40.2200;-11.0900
1351.3270;-51.6500;-40.3600;-11.2900
1351.5270;-51.9400;-40.5400;-11.4000
1351.7260;-52.2300;-40.7500;-11.4800
1351.9250;-52.4100;-40.9200;-11.4900
1352.1240;-52.5000;-41.0900;-11.4100
1352.3230;-52.5400;-41.2500;-11.2900
1352.5220;-52.5800;-41.4500;-11.1300
1352.7210;-52.5200;-41.5800;-10.9400
1352.9200;-52.4200;-41.7300;-10.6900
1353.1200;-52.4000;-41.9800;-10.4200
1353.3190;-52.2300;-42.0700;-10.1600
1353.5180;-52.1000;-42.2300;-9.8700
1353.7170;-52.0000;-42.4000;-9.6000
1353.9160;-51.8300;-42.4900;-9.3400
1354.1150;-51.7000;-42.6200;-9.0800
1354.3140;-51.6400;-42.8400;-8.8000
1354.5130;-51.5700;-43.0200;-8.5500
1354.7120;-51.6500;-43.3100;-8.3400
1354.9120;-51.6800;-43.6000;-8.0800
1355.1110;-51.6900;-43.7500;-7.9400
1355.3100;-51.5900;-43.8800;-7.7100
1355.5090;-51.4500;-43.8500;-7.6000
1355.7080;-51.4900;-44.1100;-7.3800
1355.9070;-51.6400;-44.3700;-7.2700
1356.1060;-51.6800;-44.5200;-7.1600
1356.3050;-51.6600;-44.6000;-7.0600
1356.5040;-51.6700;-44.6800;-6.9900
1356.7040;-51.5100;-44.6000;-6.9100
1356.9030;-51.5500;-44.7300;-6.8200
1357.1020;-51.8500;-45.0900;-6.7600
1357.3010;-52.0400;-45.3100;-6.7300
1357.5000;-52.2200;-45.4700;-6.7500
1357.6990;-52.3500;-45.6500;-6.7000
1357.8980;-52.4800;-45.6800;-6.8000
1358.0970;-52.5200;-45.7300;-6.7900
1358.2970;-52.7200;-45.9000;-6.8200
1358.4960;-53.0200;-46.1200;-6.9000
1358.6950;-53.2100;-46.2500;-6.9600
1358.8940;-53.4700;-46.3800;-7.0900
1359.0930;-53.6900;-46.5200;-7.1700
1359.2920;-53.8500;-46.5500;-7.3000
1359.4910;-54.2600;-46.9100;-7.3500
1359.6900;-54.7000;-47.2000;-7.5000
1359.8890;-55.0600;-47.3800;-7.6800
1360.0890;-55.2800;-47.4300;-7.8500
1360.2880;-55.4900;-47.4300;-8.0600
1360.4870;-55.6200;-47.4100;-8.2100
1360.6860;-55.8900;-47.5600;-8.3300
1360.8850;-56.3800;-47.8900;-8.4900
1361.0840;-56.8300;-48.1900;-8.6400
1361.2830;-57.1900;-48.3400;-8.8500
1361.4820;-57.4700;-48.5500;-8.9200
1361.6810;-57.8000;-48.6800;-9.1200
1361.8810;-58.0400;-48.8200;-9.2200
1362.0800;-58.3500;-49.0200;-9.3300
1362.2790;-58.8200;-49.4200;-9.4000
1362.4780;-59.1100;-49.6600;-9.4500
1362.6770;-59.1800;-49.7700;-9.4100
1362.8760;-59.0600;-49.6400;-9.4200
1363.0750;-58.9300;-49.5500;-9.3800
1363.2740;-58.5400;-49.3200;-9.2200
1363.4740;-58.4500;-49.3700;-9.0800
1363.6730;-58.3200;-49.4500;-8.8700
1363.8720;-58.2400;-49.5900;-8.6500
1364.0710;-58.1700;-49.7800;-8.3900
1364.2700;-58.1200;-49.9800;-8.1400
1364.4690;-58.1000;-50.2700;-7.8300
1364.6680;-58.3400;-50.7700;-7.5700
1364.8670;-58.2800;-50.9700;-7.3100
1365.0660;-57.9600;-50.9300;-7.0300
1365.2660;-57.7600;-51.0900;-6.6700
1365.4650;-57.4600;-51.0100;-6.4500
1365.6640;-57.2300;-51.0800;-6.1500
1365.8630;-56.9800;-51.1000;-5.8800
1366.0620;-56.7000;-51.0800;-5.6200
1366.2610;-56.4500;-51.0600;-5.3900
1366.4600;-56.2000;-51.1100;-5.0900
1366.6590;-56.1300;-51.2800;-4.8500
1366.8580;-56.1400;-51.4900;-4.6500
1367.0580;-56.0500;-51.6200;-4.4300
1367.2570;-55.9400;-51.7100;-4.2300
1367.4560;-55.9600;-51.9700;-3.9900
1367.6550;-55.9500;-52.1500;-3.8000
1367.8540;-56.0500;-52.4000;-3.6500
1368.0530;-55.9700;-52.5200;-3.4500
1368.2520;-55.8300;-52.4700;-3.3600
1368.4510;-55.9300;-52.8100;-3.1200
1368.6500;-55.9400;-52.8800;-3.0600
1368.8500;-55.8800;-52.9700;-2.9100
1369.0490;-55.7300;-52.9500;-2.7800
1369.2480;-55.6200;-52.8900;-2.7300
1369.4470;-55.4000;-52.8200;-2.5800
1369.6460;-55.4000;-52.9000;-2.5000
1369.8450;-55.5800;-53.2300;-2.3500
1370.0440;-55.7300;-53.4100;-2.3200
1370.2430;-55.7700;-53.5300;-2.2400
1370.4430;-55.7400;-53.5800;-2.1600
1370.6420;-55.7200;-53.5900;-2.1300
1370.8410;-55.9000;-53.9000;-2.0000
1371.0400;-56.1500;-54.1600;-1.9900
1371.2390;-56.2900;-54.3300;-1.9600
1371.4380;-56.2600;-54.3500;-1.9100
1371.6370;-56.2500;-54.2900;-1.9600
1371.8360;-56.1400;-54.2800;-1.8600
1372.0350;-56.3000;-54.4500;-1.8500
1372.2350;-56.4800;-54.6600;-1.8200
1372.4340;-56.6000;-54.7400;-1.8600
1372.6330;-56.6600;-54.8200;-1.8400
1372.8320;-56.7000;-54.8500;-1.8500
1373.0310;-56.7400;-54.8700;-1.8700
1373.2300;-56.8400;-55.0200;-1.8200
1373.4290;-57.0200;-55.1400;-1.8800
1373.6280;-57.1400;-55.2600;-1.8800
1373.8270;-57.2600;-55.3300;-1.9300
1374.0270;-57.3800;-55.4400;-1.9400
1374.2260;-57.4900;-55.5300;-1.9600
1374.4250;-57.6600;-55.6700;-1.9900
1374.6240;-57.8100;-55.8100;-2.0000
1374.8230;-58.0200;-55.9900;-2.0300
1375.0220;-58.2200;-56.1700;-2.0500
1375.2210;-58.3500;-56.2400;-2.1100
1375.4200;-58.4700;-56.3000;-2.1700
1375.6200;-58.6000;-56.3800;-2.2200
1375.8190;-58.7100;-56.4800;-2.2300
1376.0180;-58.9000;-56.6300;-2.2700
1376.2170;-59.0700;-56.7700;-2.3000
1376.4160;-59.2100;-56.8700;-2.3400
1376.6150;-59.3500;-56.9600;-2.3900
1376.8140;-59.5100;-57.1100;-2.4000
1377.0130;-59.7900;-57.3400;-2.4500
1377.2120;-60.0300;-57.5100;-2.5200
1377.4120;-60.1200;-57.6000;-2.5200
1377.6110;-60.2500;-57.6400;-2.6100
1377.8100;-60.2300;-57.6100;-2.6200
1378.0090;-60.3400;-57.6600;-2.6800
1378.2080;-60.4400;-57.7600;-2.6800
1378.4070;-60.6300;-57.9300;-2.7000
1378.6060;-60.9000;-58.1800;-2.7200
1378.8050;-61.2100;-58.5400;-2.6700
1379.0040;-61.4100;-58.6100;-2.8000
1379.2040;-61.5100;-58.6600;-2.8500
1379.4030;-61.5400;-58.6400;-2.9000
1379.6020;-61.5100;-58.6200;-2.8900
1379.8010;-61.5700;-58.6300;-2.9400
1380.0000;-61.7200;-58.7700;-2.9500
1380.1990;-61.9200;-58.9500;-2.9700
1380.3980;-62.1300;-59.1500;-2.9800
1380.5970;-62.6500;-59.7300;-2.9200
1380.7970;-63.1700;-60.1400;-3.0300
1380.9960;-63.3600;-60.3000;-3.0600
1381.1950;-63.4000;-60.2900;-3.1100
1381.3940;-63.2400;-60.0000;-3.2400
1381.5930;-62.9600;-59.7500;-3.2100
1381.7920;-63.0600;-59.8000;-3.2600
1381.9910;-63.1400;-59.8400;-3.3000
1382.1900;-63.2300;-59.9400;-3.2900
1382.3890;-63.5900;-60.2600;-3.3300
1382.5890;-64.0800;-60.8000;-3.2800
1382.7880;-64.6000;-61.2900;-3.3100
1382.9870;-64.9200;-61.5000;-3.4200
1383.1860;-64.7700;-61.2600;-3.5100
1383.3850;-64.5700;-60.9800;-3.5900
1383.5840;-64.3800;-60.7700;-3.6100
1383.7830;-64.5300;-60.9300;-3.6000
1383.9820;-64.6900;-61.0300;-3.6600
1384.1810;-64.7700;-61.0800;-3.6900
1384.3810;-64.8000;-61.1100;-3.6900
1384.5800;-64.7900;-61.0400;-3.7500
1384.7790;-64.8500;-61.1700;-3.6800
1384.9780;-65.1400;-61.4200;-3.7200
1385.1770;-65.3900;-61.6400;-3.7500
1385.3760;-65.5200;-61.7600;-3.7600
1385.5750;-65.5300;-61.7100;-3.8200
1385.7740;-65.6500;-61.7400;-3.9100
1385.9740;-65.6000;-61.7300;-3.8700
1386.1730;-65.6500;-61.7700;-3.8800
1386.3720;-65.7300;-61.8800;-3.8500
1386.5710;-65.8300;-61.9200;-3.9100
1386.7700;-65.8500;-61.9700;-3.8800
1386.9690;-65.8800;-62.0000;-3.8800
1387.1680;-65.8000;-62.0200;-3.7800
1387.3670;-65.8600;-62.0900;-3.7700
1387.5660;-65.8800;-62.1500;-3.7300
1387.7660;-66.1200;-62.4300;-3.6900
1387.9650;-66.3600;-62.6800;-3.6800
1388.1640;-66.5200;-62.9600;-3.5600
1388.3630;-66.7000;-63.0600;-3.6400
1388.5620;-66.5800;-63.0100;-3.5700
1388.7610;-66.4100;-62.8800;-3.5300
1388.9600;-66.2800;-62.8300;-3.4500
1389.1590;-66.1500;-62.8000;-3.3500
1389.3580;-66.1500;-62.8100;-3.3400
1389.5580;-66.1700;-62.8600;-3.3100
1389.7570;-66.2000;-62.9900;-3.2100
1389.9560;-66.3200;-63.1700;-3.1500
1390.1550;-66.3000;-63.2200;-3.0800
1390.3540;-66.3700;-63.2400;-3.1300
1390.5530;-66.3000;-63.3300;-2.9700
1390.7520;-66.2500;-63.2800;-2.9700
1390.9510;-66.3000;-63.4100;-2.8900
1391.1500;-66.3700;-63.4500;-2.9200
1391.3500;-66.2900;-63.4900;-2.8000
1391.5490;-66.3400;-63.5400;-2.8000
1391.7480;-66.4100;-63.6500;-2.7600
1391.9470;-66.4100;-63.7600;-2.6500
1392.1460;-66.5700;-63.9200;-2.6500
1392.3450;-66.7700;-64.1600;-2.6100
1392.5440;-67.1300;-64.5900;-2.5400
1392.7430;-67.3200;-64.7100;-2.6100
1392.9430;-67.2500;-64.6200;-2.6300
1393.1420;-67.1200;-64.4800;-2.6400
1393.3410;-66.9400;-64.3000;-2.6400
1393.5400;-66.9200;-64.2800;-2.6400
1393.7390;-67.0100;-64.3700;-2.6400
1393.9380;-67.1000;-64.4100;-2.6900
1394.1370;-67.1600;-64.4900;-2.6700
1394.3360;-67.2400;-64.5700;-2.6700
1394.5350;-67.4200;-64.6100;-2.8100
1394.7350;-67.4900;-64.7500;-2.7400
1394.9340;-67.8300;-65.0500;-2.7800
1395.1330;-68.1800;-65.2200;-2.9600
1395.3320;-68.3700;-65.3800;-2.9900
1395.5310;-68.6000;-65.4700;-3.1300
1395.7300;-68.7600;-65.5200;-3.2400
1395.9290;-68.7900;-65.3900;-3.4000
1396.1280;-68.8700;-65.5200;-3.3500
1396.3270;-68.9400;-65.6300;-3.3100
1396.5270;-69.2800;-65.9200;-3.3600
1396.7260;-69.6100;-66.0500;-3.5600
1396.9250;-69.6600;-66.0900;-3.5700
1397.1240;-69.6600;-65.8900;-3.7700
1397.3230;-69.7300;-65.7800;-3.9500
1397.5220;-69.9100;-65.7400;-4.1700
1397.7210;-70.0200;-65.7900;-4.2300
1397.9200;-70.1100;-65.8800;-4.2300
1398.1200;-70.3200;-65.8800;-4.4400
1398.3190;-70.5000;-66.0000;-4.5000
1398.5180;-70.8500;-66.1100;-4.7400
1398.7170;-71.0500;-66.1700;-4.8800
1398.9160;-71.1900;-66.2900;-4.9000
1399.1150;-71.2400;-66.2800;-4.9600
1399.3140;-71.5500;-66.4200;-5.1300
1399.5130;-71.7000;-66.7000;-5.0000
1399.7120;-72.1800;-66.8100;-5.3700
1399.9120;-72.4300;-67.0200;-5.4100
1400.1110;-72.4800;-67.1500;-5.3300
1400.3100;-72.4200;-67.1100;-5.3100
1400.5090;-72.2900;-67.1900;-5.1000
1400.7080;-72.7100;-67.5300;-5.1800
1400.9070;-73.1400;-67.6500;-5.4900
1401.1060;-72.8800;-67.6900;-5.1900
1401.3050;-72.6800;-67.7200;-4.9600
1401.5040;-72.9000;-67.6200;-5.2800
1401.7040;-72.9100;-67.6400;-5.2700
1401.9030;-72.9500;-67.7600;-5.1900
1402.1020;-72.5700;-67.7900;-4.7800
1402.3010;-72.5200;-67.6900;-4.8300
1402.5000;-72.5900;-67.7000;-4.8900
1402.6990;-72.3800;-67.7100;-4.6700
1402.8980;-72.2800;-67.8800;-4.4000
1403.0970;-72.5200;-68.0500;-4.4700
1403.2970;-72.4300;-68.1100;-4.3200
1403.4960;-72.4600;-68.1700;-4.2900
1403.6950;-72.1000;-68.2600;-3.8400
1403.8940;-72.3500;-68.3500;-4.0000
1404.0930;-72.3300;-68.5100;-3.8200
1404.2920;-72.4400;-68.6300;-3.8100
1404.4910;-72.2200;-68.7700;-3.4500
1404.6900;-72.2100;-68.7800;-3.4300
1404.8890;-72.4400;-69.4100;-3.0300
1405.0890;-72.7700;-69.7100;-3.0600
1405.2880;-72.7900;-69.4600;-3.3300
1405.4870;-72.5900;-69.4900;-3.1000
1405.6860;-72.3100;-69.3300;-2.9800
1405.8850;-72.0900;-69.2700;-2.8200
1406.0840;-72.0300;-69.2100;-2.8200
1406.2830;-72.0700;-69.3500;-2.7200
1406.4820;-72.2900;-69.4400;-2.8500
1406.6810;-72.6100;-69.5200;-3.0900
1406.8810;-72.4200;-69.7600;-2.6600
1407.0800;-72.3800;-69.9600;-2.4200
1407.2790;-72.7200;-70.2200;-2.5000
1407.4780;-72.8300;-70.0900;-2.7400
1407.6770;-72.6800;-70.2200;-2.4600
1407.8760;-72.8900;-70.0600;-2.8300
1408.0750;-73.0700;-70.1900;-2.8800
1408.2740;-72.9400;-70.2100;-2.7300
1408.4740;-72.9600;-70.1200;-2.8400
1408.6730;-73.0200;-70.1800;-2.8400
1408.8720;-73.4500;-70.4900;-2.9600
1409.0710;-73.4000;-70.6800;-2.7200
1409.2700;-73.5000;-70.8900;-2.6100
1409.4690;-73.7500;-71.2300;-2.5200
1409.6680;-74.2800;-71.1900;-3.0900
1409.8670;-74.0800;-71.2700;-2.8100
1410.0660;-74.1700;-71.1100;-3.0600
1410.2660;-74.2500;-71.1000;-3.1500
1410.4650;-74.5700;-71.0700;-3.5000
1410.6640;-74.5400;-71.2000;-3.3400
1410.8630;-74.5500;-71.1200;-3.4300
1411.0620;-75.0300;-71.2800;-3.7500
1411.2610;-75.1600;-71.3000;-3.8600
1411.4600;-74.9100;-71.6000;-3.3100
1411.6590;-75.1100;-71.6000;-3.5100
1411.8580;-75.0600;-71.6200;-3.4400
1412.0580;-75.5900;-71.7900;-3.8000
1412.2570;-76.3400;-71.9500;-4.3900
1412.4560;-76.1500;-71.7900;-4.3600
1412.6550;-76.0300;-71.8300;-4.2000
1412.8540;-76.0700;-72.1500;-3.9200
1413.0530;-75.7500;-72.0000;-3.7500
1413.2520;-75.6500;-72.1600;-3.4900
1413.4510;-76.0400;-72.1300;-3.9100
1413.6500;-76.2500;-72.4800;-3.7700
1413.8500;-76.8700;-72.4300;-4.4400
1414.0490;-76.6700;-72.5400;-4.1300
1414.2480;-76.3800;-72.4400;-3.9400
1414.4470;-77.1400;-72.8500;-4.2900
1414.6460;-76.6700;-73.2100;-3.4600
1414.8450;-76.7600;-72.8100;-3.9500
1415.0440;-76.8900;-73.0500;-3.8400
1415.2430;-77.7700;-73.0900;-4.6800
1415.4430;-77.3800;-73.1300;-4.2500
1415.6420;-76.7300;-72.5800;-4.1500
1415.8410;-76.5200;-72.7100;-3.8100
1416.0400;-76.4300;-72.9000;-3.5300
1416.2390;-76.3500;-73.2100;-3.1400
1416.4380;-76.8000;-73.1500;-3.6500
1416.6370;-77.0200;-73.1400;-3.8800
1416.8360;-76.1700;-73.2800;-2.8900
1417.0350;-76.5200;-73.0000;-3.5200
1417.2350;-76.8000;-72.9100;-3.8900
1417.4340;-77.4200;-73.7100;-3.7100
1417.6330;-76.8500;-73.8100;-3.0400
1417.8320;-77.0600;-73.4800;-3.5800
1418.0310;-77.2300;-72.9200;-4.3100
1418.2300;-77.8300;-73.4100;-4.4200
1418.4290;-76.9400;-73.6400;-3.3000
1418.6280;-76.9800;-73.6000;-3.3800
1418.8270;-76.6900;-73.6100;-3.0800
1419.0270;-76.6200;-73.8200;-2.8000
1419.2260;-76.9400;-74.0100;-2.9300
1419.4250;-77.0600;-74.1500;-2.9100
1419.6240;-77.0000;-74.2400;-2.7600
1419.8230;-77.0200;-73.9900;-3.0300
1420.0220;-76.5000;-74.0900;-2.4100
1420.2210;-77.7700;-74.0900;-3.6800
1420.4200;-77.3000;-73.7000;-3.6000
1420.6200;-77.1600;-74.3100;-2.8500
1420.8190;-76.8500;-74.0400;-2.8100
1421.0180;-78.2200;-74.4300;-3.7900
1421.2170;-78.0000;-74.2900;-3.7100
1421.4160;-77.4000;-74.3600;-3.0400
1421.6150;-77.3100;-73.9900;-3.3200
1421.8140;-78.2300;-74.3600;-3.8700
1422.0130;-77.8700;-74.1700;-3.7000
1422.2120;-77.3700;-74.4400;-2.9300
1422.4120;-77.5600;-74.4600;-3.1000
1422.6110;-77.3900;-74.2300;-3.1600
1422.8100;-76.8100;-74.0100;-2.8000
1423.0090;-77.1700;-74.4400;-2.7300
1423.2080;-77.1900;-74.0500;-3.1400
1423.4070;-77.6900;-74.1000;-3.5900
1423.6060;-77.5600;-74.1300;-3.4300
1423.8050;-77.7500;-74.3800;-3.3700
1424.0040;-78.1100;-74.1000;-4.0100
1424.2040;-78.1500;-74.6700;-3.4800
1424.4030;-77.5600;-74.3300;-3.2300
1424.6020;-78.2000;-74.1300;-4.0700
1424.8010;-77.3300;-74.0600;-3.2700
1425.0000;-77.4100;-74.1700;-3.2400
