Wavelength;Intensity_Meas;Intensity_Ref;Difference_dB
1200.0000;-60.9300;-56.1700;-4.7600
1200.1990;-60.8800;-56.1300;-4.7500
1200.3980;-60.8500;-56.1000;-4.7500
1200.5970;-60.8600;-56.0800;-4.7800
1200.7970;-60.8400;-56.0500;-4.7900
1200.9960;-60.8100;-56.0200;-4.7900
1201.1950;-60.7800;-55.9700;-4.8100
1201.3940;-60.7500;-55.9300;-4.8200
1201.5930;-60.6800;-55.9000;-4.7800
1201.7920;-60.6500;-55.8500;-4.8000
1201.9910;-60.6300;-55.8100;-4.8200
1202.1900;-60.5600;-55.7500;-4.8100
1202.3890;-60.4800;-55.7000;-4.7800
1202.5890;-60.4700;-55.6600;-4.8100
1202.7880;-60.4700;-55.5900;-4.8800
1202.9870;-60.4500;-55.5400;-4.9100
1203.1860;-60.3600;-55.4800;-4.8800
1203.3850;-60.3000;-55.4400;-4.8600
1203.5840;-60.3700;-55.4200;-4.9500
1203.7830;-60.3500;-55.3500;-5.0000
1203.9820;-60.2700;-55.3200;-4.9500
1204.1810;-60.2400;-55.2800;-4.9600
1204.3810;-60.2600;-55.2400;-5.0200
1204.5800;-60.3000;-55.2300;-5.0700
1204.7790;-60.2400;-55.1800;-5.0600
1204.9780;-60.2200;-55.1500;-5.0700
1205.1770;-60.2600;-55.1200;-5.1400
1205.3760;-60.2400;-55.0900;-5.1500
1205.5750;-60.2400;-55.0900;-5.1500
1205.7740;-60.2100;-55.0500;-5.1600
1205.9740;-60.1800;-55.0400;-5.1400
1206.1730;-60.1700;-55.0200;-5.1500
1206.3720;-60.1900;-54.9900;-5.2000
1206.5710;-60.1700;-54.9800;-5.1900
1206.7700;-60.1000;-54.9500;-5.1500
1206.9690;-60.0900;-54.9300;-5.1600
1207.1680;-60.1000;-54.9000;-5.2000
1207.3670;-60.0400;-54.8600;-5.1800
1207.5660;-60.0000;-54.8500;-5.1500
1207.7660;-59.9700;-54.8000;-5.1700
1207.9650;-59.9700;-54.7700;-5.2000
1208.1640;-59.9400;-54.7200;-5.2200
1208.3630;-59.8800;-54.6800;-5.2000
1208.5620;-59.8400;-54.6500;-5.1900
1208.7610;-59.8400;-54.5800;-5.2600
1208.9600;-59.7900;-54.5400;-5.2500
1209.1590;-59.7300;-54.4900;-5.2400
1209.3580;-59.6500;-54.4300;-5.2200
1209.5580;-59.6300;-54.4000;-5.2300
1209.7570;-59.6200;-54.3400;-5.2800
1209.9560;-59.5500;-54.2800;-5.2700
1210.1550;-59.4900;-54.2300;-5.2600
1210.3540;-59.4500;-54.1800;-5.2700
1210.5530;-59.4200;-54.1400;-5.2800
1210.7520;-59.3500;-54.0800;-5.2700
1210.9510;-59.2700;-54.0300;-5.2400
1211.1500;-59.2600;-54.0000;-5.2600
1211.3500;-59.2100;-53.9500;-5.2600
1211.5490;-59.2000;-53.9200;-5.2800
1211.7480;-59.1100;-53.8800;-5.2300
1211.9470;-59.0800;-53.8400;-5.2400
1212.1460;-59.0800;-53.8200;-5.2600
1212.3450;-59.0600;-53.7700;-5.2900
1212.5440;-59.0100;-53.7600;-5.2500
1212.7430;-58.9900;-53.7200;-5.2700
1212.9430;-59.0000;-53.6800;-5.3200
1213.1420;-59.0100;-53.6700;-5.3400
1213.3410;-58.9900;-53.6300;-5.3600
1213.5400;-58.9700;-53.6100;-5.3600
1213.7390;-59.0100;-53.5700;-5.4400
1213.9380;-59.0300;-53.5300;-5.5000
1214.1370;-59.0200;-53.5100;-5.5100
1214.3360;-58.9800;-53.4600;-5.5200
1214.5350;-59.0200;-53.4400;-5.5800
1214.7350;-59.0500;-53.3900;-5.6600
1214.9340;-59.0000;-53.3400;-5.6600
1215.1330;-58.9900;-53.2900;-5.7000
1215.3320;-59.0000;-53.2400;-5.7600
1215.5310;-59.0200;-53.2000;-5.8200
1215.7300;-58.9700;-53.1400;-5.8300
1215.9290;-58.9100;-53.0800;-5.8300
1216.1280;-58.9000;-53.0300;-5.8700
1216.3270;-58.8800;-52.9600;-5.9200
1216.5270;-58.8700;-52.9200;-5.9500
1216.7260;-58.7900;-52.8600;-5.9300
1216.9250;-58.7600;-52.7900;-5.9700
1217.1240;-58.7400;-52.7400;-6.0000
1217.3230;-58.7000;-52.6700;-6.0300
1217.5220;-58.6500;-52.6300;-6.0200
1217.7210;-58.5900;-52.5700;-6.0200
1217.9200;-58.5800;-52.5200;-6.0600
1218.1200;-58.5600;-52.4800;-6.0800
1218.3190;-58.4800;-52.4200;-6.0600
1218.5180;-58.4400;-52.3900;-6.0500
1218.7170;-58.4500;-52.3400;-6.1100
1218.9160;-58.4200;-52.2900;-6.1300
1219.1150;-58.3600;-52.2600;-6.1000
1219.3140;-58.3000;-52.2100;-6.0900
1219.5130;-58.3000;-52.1900;-6.1100
1219.7120;-58.2500;-52.1500;-6.1000
1219.9120;-58.2000;-52.1100;-6.0900
1220.1110;-58.1400;-52.0700;-6.0700
1220.3100;-58.1100;-52.0300;-6.0800
1220.5090;-58.0600;-52.0000;-6.0600
1220.7080;-57.9900;-51.9500;-6.0400
1220.9070;-57.9100;-51.9100;-6.0000
1221.1060;-57.8400;-51.8500;-5.9900
1221.3050;-57.7900;-51.8000;-5.9900
1221.5040;-57.6900;-51.7500;-5.9400
1221.7040;-57.5800;-51.6800;-5.9000
1221.9030;-57.5000;-51.6300;-5.8700
1222.1020;-57.4300;-51.5700;-5.8600
1222.3010;-57.3100;-51.5000;-5.8100
1222.5000;-57.1700;-51.4300;-5.7400
1222.6990;-57.0900;-51.3600;-5.7300
1222.8980;-57.0000;-51.2900;-5.7100
1223.0970;-56.8800;-51.2200;-5.6600
1223.2970;-56.7600;-51.1500;-5.6100
1223.4960;-56.6500;-51.0800;-5.5700
1223.6950;-56.5500;-51.0000;-5.5500
1223.8940;-56.4400;-50.9400;-5.5000
1224.0930;-56.3300;-50.8700;-5.4600
1224.2920;-56.2300;-50.8000;-5.4300
1224.4910;-56.1500;-50.7400;-5.4100
1224.6900;-56.0400;-50.6700;-5.3700
1224.8890;-55.9300;-50.6000;-5.3300
1225.0890;-55.8700;-50.5500;-5.3200
1225.2880;-55.7600;-50.4800;-5.2800
1225.4870;-55.6900;-50.4300;-5.2600
1225.6860;-55.6100;-50.3700;-5.2400
1225.8850;-55.5600;-50.3200;-5.2400
1226.0840;-55.4800;-50.2700;-5.2100
1226.2830;-55.4200;-50.2100;-5.2100
1226.4820;-55.3400;-50.1600;-5.1800
1226.6810;-55.2800;-50.1100;-5.1700
1226.8810;-55.2400;-50.0600;-5.1800
1227.0800;-55.1600;-50.0000;-5.1600
1227.2790;-55.0800;-49.9500;-5.1300
1227.4780;-55.0300;-49.8900;-5.1400
1227.6770;-54.9700;-49.8300;-5.1400
1227.8760;-54.9000;-49.7700;-5.1300
1228.0750;-54.8200;-49.7100;-5.1100
1228.2740;-54.7500;-49.6400;-5.1100
1228.4740;-54.7000;-49.5700;-5.1300
1228.6730;-54.6200;-49.4900;-5.1300
1228.8720;-54.5500;-49.4200;-5.1300
1229.0710;-54.4900;-49.3500;-5.1400
1229.2700;-54.4400;-49.2600;-5.1800
1229.4690;-54.3800;-49.1900;-5.1900
1229.6680;-54.3000;-49.1000;-5.2000
1229.8670;-54.2700;-49.0100;-5.2600
1230.0660;-54.2300;-48.9500;-5.2800
1230.2660;-54.1700;-48.8500;-5.3200
1230.4650;-54.1300;-48.7700;-5.3600
1230.6640;-54.1000;-48.6900;-5.4100
1230.8630;-54.1000;-48.6200;-5.4800
1231.0620;-54.0700;-48.5500;-5.5200
1231.2610;-54.0600;-48.4800;-5.5800
1231.4600;-54.0800;-48.4300;-5.6500
1231.6590;-54.0700;-48.3500;-5.7200
1231.8580;-54.0500;-48.2800;-5.7700
1232.0580;-54.0600;-48.2300;-5.8300
1232.2570;-54.0600;-48.1600;-5.9000
1232.4560;-54.0700;-48.1200;-5.9500
1232.6550;-54.0600;-48.0400;-6.0200
1232.8540;-54.0500;-47.9800;-6.0700
1233.0530;-54.0500;-47.9300;-6.1200
1233.2520;-54.0300;-47.8600;-6.1700
1233.4510;-54.0100;-47.8100;-6.2000
1233.6500;-53.9900;-47.7400;-6.2500
1233.8500;-53.9700;-47.6800;-6.2900
1234.0490;-53.9400;-47.6200;-6.3200
1234.2480;-53.8900;-47.5400;-6.3500
1234.4470;-53.8600;-47.4800;-6.3800
1234.6460;-53.8100;-47.4000;-6.4100
1234.8450;-53.7700;-47.3300;-6.4400
1235.0440;-53.6900;-47.2400;-6.4500
1235.2430;-53.6400;-47.1600;-6.4800
1235.4430;-53.5800;-47.0800;-6.5000
1235.6420;-53.5000;-46.9800;-6.5200
1235.8410;-53.4200;-46.9000;-6.5200
1236.0400;-53.3400;-46.8100;-6.5300
1236.2390;-53.2500;-46.7100;-6.5400
1236.4380;-53.1600;-46.6200;-6.5400
1236.6370;-53.0700;-46.5300;-6.5400
1236.8360;-52.9700;-46.4400;-6.5300
1237.0350;-52.8700;-46.3400;-6.5300
1237.2350;-52.7600;-46.2500;-6.5100
1237.4340;-52.6600;-46.1600;-6.5000
1237.6330;-52.5500;-46.0700;-6.4800
1237.8320;-52.4600;-46.0000;-6.4600
1238.0310;-52.3300;-45.8900;-6.4400
1238.2300;-52.2200;-45.8300;-6.3900
1238.4290;-52.1200;-45.7300;-6.3900
1238.6280;-52.0100;-45.6600;-6.3500
1238.8270;-51.9000;-45.5800;-6.3200
1239.0270;-51.7900;-45.5000;-6.2900
1239.2260;-51.6900;-45.4200;-6.2700
1239.4250;-51.5800;-45.3300;-6.2500
1239.6240;-51.4800;-45.2500;-6.2300
1239.8230;-51.3800;-45.1600;-6.2200
1240.0220;-51.2700;-45.0700;-6.2000
1240.2210;-51.1600;-44.9900;-6.1700
1240.4200;-51.0600;-44.8800;-6.1800
1240.6200;-50.9500;-44.8000;-6.1500
1240.8190;-50.8600;-44.6900;-6.1700
1241.0180;-50.7200;-44.5700;-6.1500
1241.2170;-50.6100;-44.4700;-6.1400
1241.4160;-50.5000;-44.3500;-6.1500
1241.6150;-50.3600;-44.2300;-6.1300
1241.8140;-50.2500;-44.1100;-6.1400
1242.0130;-50.1100;-43.9900;-6.1200
1242.2120;-49.9900;-43.8800;-6.1100
1242.4120;-49.8600;-43.7400;-6.1200
1242.6110;-49.7100;-43.6100;-6.1000
1242.8100;-49.5900;-43.4900;-6.1000
1243.0090;-49.4400;-43.3500;-6.0900
1243.2080;-49.3100;-43.2300;-6.0800
1243.4070;-49.1700;-43.0900;-6.0800
1243.6060;-49.0300;-42.9700;-6.0600
1243.8050;-48.9000;-42.8400;-6.0600
1244.0040;-48.7400;-42.7100;-6.0300
1244.2040;-48.6100;-42.6000;-6.0100
1244.4030;-48.4800;-42.4600;-6.0200
1244.6020;-48.3300;-42.3400;-5.9900
1244.8010;-48.2000;-42.2200;-5.9800
1245.0000;-48.0400;-42.0900;-5.9500
1245.1990;-47.9000;-41.9900;-5.9100
1245.3980;-47.7500;-41.8600;-5.8900
1245.5970;-47.5700;-41.7300;-5.8400
1245.7970;-47.4200;-41.6100;-5.8100
1245.9960;-47.2300;-41.4800;-5.7500
1246.1950;-47.0400;-41.3600;-5.6800
1246.3940;-46.8500;-41.2300;-5.6200
1246.5930;-46.6300;-41.0900;-5.5400
1246.7920;-46.4300;-40.9600;-5.4700
1246.9910;-46.1800;-40.8100;-5.3700
1247.1900;-45.9600;-40.6900;-5.2700
1247.3890;-45.6800;-40.5400;-5.1400
1247.5890;-45.4700;-40.3900;-5.0800
1247.7880;-45.2200;-40.2500;-4.9700
1247.9870;-44.9600;-40.0900;-4.8700
1248.1860;-44.7100;-39.9500;-4.7600
1248.3850;-44.4500;-39.7900;-4.6600
1248.5840;-44.1900;-39.6300;-4.5600
1248.7830;-43.9400;-39.4900;-4.4500
1248.9820;-43.6800;-39.3300;-4.3500
1249.1810;-43.4500;-39.1900;-4.2600
1249.3810;-43.2000;-39.0300;-4.1700
1249.5800;-42.9500;-38.8700;-4.0800
1249.7790;-42.7100;-38.7300;-3.9800
1249.9780;-42.4700;-38.5600;-3.9100
1250.1770;-42.2500;-38.4300;-3.8200
1250.3760;-42.0200;-38.2700;-3.7500
1250.5750;-41.7900;-38.1200;-3.6700
1250.7740;-41.5800;-37.9800;-3.6000
1250.9740;-41.3700;-37.8500;-3.5200
1251.1730;-41.1800;-37.7200;-3.4600
1251.3720;-40.9700;-37.5600;-3.4100
1251.5710;-40.7900;-37.4400;-3.3500
1251.7700;-40.5900;-37.2900;-3.3000
1251.9690;-40.4000;-37.1500;-3.2500
1252.1680;-40.2300;-37.0100;-3.2200
1252.3670;-40.0500;-36.8600;-3.1900
1252.5660;-39.9000;-36.7300;-3.1700
1252.7660;-39.7400;-36.5700;-3.1700
1252.9650;-39.6000;-36.4300;-3.1700
1253.1640;-39.4700;-36.2900;-3.1800
1253.3630;-39.3300;-36.1200;-3.2100
1253.5620;-39.2200;-35.9900;-3.2300
1253.7610;-39.0900;-35.8000;-3.2900
1253.9600;-38.9900;-35.6800;-3.3100
1254.1590;-38.9100;-35.5100;-3.4000
1254.3580;-38.8000;-35.3500;-3.4500
1254.5580;-38.7400;-35.2100;-3.5300
1254.7570;-38.6500;-35.0400;-3.6100
1254.9560;-38.5800;-34.8900;-3.6900
1255.1550;-38.5300;-34.7300;-3.8000
1255.3540;-38.4600;-34.5700;-3.8900
1255.5530;-38.4300;-34.4300;-4.0000
1255.7520;-38.3700;-34.2700;-4.1000
1255.9510;-38.3200;-34.1300;-4.1900
1256.1500;-38.2900;-33.9700;-4.3200
1256.3500;-38.2500;-33.8400;-4.4100
1256.5490;-38.2400;-33.7100;-4.5300
1256.7480;-38.1900;-33.5600;-4.6300
1256.9470;-38.1700;-33.4300;-4.7400
1257.1460;-38.1400;-33.2900;-4.8500
1257.3450;-38.1100;-33.1500;-4.9600
1257.5440;-38.1000;-33.0300;-5.0700
1257.7430;-38.0500;-32.8800;-5.1700
1257.9430;-38.0100;-32.7500;-5.2600
1258.1420;-37.9700;-32.6100;-5.3600
1258.3410;-37.9000;-32.4700;-5.4300
1258.5400;-37.8500;-32.3500;-5.5000
1258.7390;-37.7400;-32.2000;-5.5400
1258.9380;-37.6300;-32.0700;-5.5600
1259.1370;-37.5000;-31.9200;-5.5800
1259.3360;-37.3300;-31.7800;-5.5500
1259.5350;-37.1800;-31.6400;-5.5400
1259.7350;-36.9600;-31.4900;-5.4700
1259.9340;-36.7500;-31.3500;-5.4000
1260.1330;-36.5100;-31.2000;-5.3100
1260.3320;-36.2500;-31.0600;-5.1900
1260.5310;-35.9400;-30.9200;-5.0200
1260.7300;-35.7000;-30.7700;-4.9300
1260.9290;-35.4300;-30.6400;-4.7900
1261.1280;-35.1200;-30.4900;-4.6300
1261.3270;-34.8300;-30.3600;-4.4700
1261.5270;-34.5400;-30.2300;-4.3100
1261.7260;-34.2300;-30.1000;-4.1300
1261.9250;-33.9500;-29.9700;-3.9800
1262.1240;-33.6400;-29.8300;-3.8100
1262.3230;-33.3500;-29.7100;-3.6400
1262.5220;-33.0700;-29.5900;-3.4800
1262.7210;-32.7800;-29.4600;-3.3200
1262.9200;-32.5100;-29.3500;-3.1600
1263.1200;-32.2300;-29.2200;-3.0100
1263.3190;-31.9700;-29.1000;-2.8700
1263.5180;-31.7100;-28.9800;-2.7300
1263.7170;-31.4600;-28.8600;-2.6000
1263.9160;-31.2300;-28.7400;-2.4900
1264.1150;-30.9800;-28.6000;-2.3800
1264.3140;-30.7600;-28.4800;-2.2800
1264.5130;-30.5400;-28.3500;-2.1900
1264.7120;-30.3300;-28.2200;-2.1100
1264.9120;-30.1400;-28.1000;-2.0400
1265.1110;-29.9400;-27.9600;-1.9800
1265.3100;-29.7700;-27.8300;-1.9400
1265.5090;-29.6000;-27.7000;-1.9000
1265.7080;-29.4500;-27.5700;-1.8800
1265.9070;-29.3200;-27.4400;-1.8800
1266.1060;-29.1800;-27.3000;-1.8800
1266.3050;-29.0700;-27.1800;-1.8900
1266.5040;-28.9700;-27.0500;-1.9200
1266.7040;-28.8800;-26.9300;-1.9500
1266.9030;-28.8200;-26.8000;-2.0200
1267.1020;-28.7500;-26.6700;-2.0800
1267.3010;-28.7100;-26.5600;-2.1500
1267.5000;-28.6800;-26.4300;-2.2500
1267.6990;-28.6600;-26.3200;-2.3400
1267.8980;-28.6600;-26.2000;-2.4600
1268.0970;-28.6700;-26.0700;-2.6000
1268.2970;-28.7000;-25.9700;-2.7300
1268.4960;-28.7400;-25.8600;-2.8800
1268.6950;-28.7900;-25.7500;-3.0400
1268.8940;-28.8600;-25.6200;-3.2400
1269.0930;-28.9300;-25.5100;-3.4200
1269.2920;-29.0400;-25.3900;-3.6500
1269.4910;-29.1400;-25.2800;-3.8600
1269.6900;-29.2600;-25.1700;-4.0900
1269.8890;-29.4000;-25.0400;-4.3600
1270.0890;-29.5300;-24.9200;-4.6100
1270.2880;-29.6900;-24.8000;-4.8900
1270.4870;-29.8500;-24.6900;-5.1600
1270.6860;-30.0100;-24.5700;-5.4400
1270.8850;-30.1800;-24.4400;-5.7400
1271.0840;-30.3300;-24.3200;-6.0100
1271.2830;-30.5000;-24.2000;-6.3000
1271.4820;-30.6300;-24.0800;-6.5500
1271.6810;-30.7600;-23.9700;-6.7900
1271.8810;-30.8600;-23.8300;-7.0300
1272.0800;-30.9300;-23.7300;-7.2000
1272.2790;-30.9800;-23.6100;-7.3700
1272.4780;-30.9600;-23.4900;-7.4700
1272.6770;-30.9300;-23.3900;-7.5400
1272.8760;-30.8300;-23.2700;-7.5600
1273.0750;-30.6900;-23.1700;-7.5200
1273.2740;-30.5200;-23.0600;-7.4600
1273.4740;-30.2800;-22.9500;-7.3300
1273.6730;-30.0100;-22.8600;-7.1500
1273.8720;-29.7000;-22.7500;-6.9500
1274.0710;-29.3600;-22.6600;-6.7000
1274.2700;-29.0100;-22.5500;-6.4600
1274.4690;-28.6200;-22.4500;-6.1700
1274.6680;-28.2300;-22.3600;-5.8700
1274.8670;-27.8100;-22.2500;-5.5600
1275.0660;-27.4000;-22.1700;-5.2300
1275.2660;-26.9900;-22.0600;-4.9300
1275.4650;-26.5800;-21.9600;-4.6200
1275.6640;-26.1900;-21.8700;-4.3200
1275.8630;-25.7200;-21.7700;-3.9500
1276.0620;-25.4200;-21.6800;-3.7400
1276.2610;-25.0400;-21.5800;-3.4600
1276.4600;-24.6700;-21.4800;-3.1900
1276.6590;-24.3200;-21.3800;-2.9400
1276.8580;-23.9900;-21.2800;-2.7100
1277.0580;-23.6800;-21.2000;-2.4800
1277.2570;-23.3700;-21.0900;-2.2800
1277.4560;-23.0900;-21.0100;-2.0800
1277.6550;-22.8100;-20.9200;-1.8900
1277.8540;-22.5500;-20.8300;-1.7200
1278.0530;-22.3200;-20.7500;-1.5700
1278.2520;-22.0700;-20.6600;-1.4100
1278.4510;-21.8600;-20.5800;-1.2800
1278.6500;-21.6400;-20.4900;-1.1500
1278.8500;-21.4400;-20.4100;-1.0300
1279.0490;-21.2700;-20.3400;-0.9300
1279.2480;-21.0800;-20.2500;-0.8300
1279.4470;-20.9200;-20.1900;-0.7300
1279.6460;-20.7600;-20.1000;-0.6600
1279.8450;-20.6100;-20.0200;-0.5900
1280.0440;-20.4900;-19.9500;-0.5400
1280.2430;-20.3600;-19.8700;-0.4900
1280.4430;-20.2600;-19.8100;-0.4500
1280.6420;-20.1400;-19.7200;-0.4200
1280.8410;-20.0500;-19.6400;-0.4100
1281.0400;-19.9800;-19.5700;-0.4100
1281.2390;-19.9100;-19.4900;-0.4200
1281.4380;-19.8600;-19.4200;-0.4400
1281.6370;-19.8000;-19.3300;-0.4700
1281.8360;-19.7700;-19.2500;-0.5200
1282.0350;-19.7400;-19.1700;-0.5700
1282.2350;-19.7300;-19.0800;-0.6500
1282.4340;-19.7400;-19.0200;-0.7200
1282.6330;-19.7400;-18.9400;-0.8000
1282.8320;-19.7600;-18.8600;-0.9000
1283.0310;-19.7900;-18.7800;-1.0100
1283.2300;-19.8300;-18.7000;-1.1300
1283.4290;-19.8900;-18.6400;-1.2500
1283.6280;-19.9300;-18.5500;-1.3800
1283.8270;-20.0100;-18.4900;-1.5200
1284.0270;-20.0800;-18.4100;-1.6700
1284.2260;-20.1600;-18.3300;-1.8300
1284.4250;-20.2700;-18.2800;-1.9900
1284.6240;-20.3500;-18.2000;-2.1500
1284.8230;-20.4600;-18.1300;-2.3300
1285.0220;-20.5600;-18.0500;-2.5100
1285.2210;-20.6700;-17.9800;-2.6900
1285.4200;-20.7900;-17.9200;-2.8700
1285.6200;-20.8900;-17.8400;-3.0500
1285.8190;-21.0100;-17.7800;-3.2300
1286.0180;-21.1000;-17.7000;-3.4000
1286.2170;-21.2000;-17.6300;-3.5700
1286.4160;-21.3000;-17.5700;-3.7300
1286.6150;-21.3800;-17.5000;-3.8800
1286.8140;-21.4600;-17.4400;-4.0200
1287.0130;-21.5000;-17.3600;-4.1400
1287.2120;-21.5300;-17.2900;-4.2400
1287.4120;-21.5600;-17.2200;-4.3400
1287.6110;-21.5500;-17.1500;-4.4000
1287.8100;-21.5400;-17.1000;-4.4400
1288.0090;-21.4800;-17.0200;-4.4600
1288.2080;-21.4200;-16.9600;-4.4600
1288.4070;-21.3300;-16.9000;-4.4300
1288.6060;-21.2300;-16.8300;-4.4000
1288.8050;-21.1200;-16.7800;-4.3400
1289.0040;-20.9800;-16.7100;-4.2700
1289.2040;-20.8300;-16.6600;-4.1700
1289.4030;-20.6700;-16.6000;-4.0700
1289.6020;-20.5000;-16.5500;-3.9500
1289.8010;-20.3400;-16.5000;-3.8400
1290.0000;-20.1500;-16.4300;-3.7200
1290.1990;-19.9700;-16.3900;-3.5800
1290.3980;-19.7900;-16.3300;-3.4600
1290.5970;-19.6100;-16.2900;-3.3200
1290.7970;-19.4400;-16.2500;-3.1900
1290.9960;-19.2400;-16.1800;-3.0600
1291.1950;-19.0800;-16.1400;-2.9400
1291.3940;-18.9000;-16.0800;-2.8200
1291.5930;-18.7300;-16.0400;-2.6900
1291.7920;-18.5800;-15.9800;-2.6000
1291.9910;-18.4400;-15.9400;-2.5000
1292.1900;-18.3100;-15.8900;-2.4200
1292.3890;-18.1800;-15.8500;-2.3300
1292.5890;-18.0500;-15.8000;-2.2500
1292.7880;-17.9400;-15.7500;-2.1900
1292.9870;-17.8400;-15.7100;-2.1300
1293.1860;-17.7700;-15.6600;-2.1100
1293.3850;-17.6800;-15.6200;-2.0600
1293.5840;-17.6100;-15.5800;-2.0300
1293.7830;-17.5500;-15.5300;-2.0200
1293.9820;-17.4900;-15.5000;-1.9900
1294.1810;-17.4600;-15.4500;-2.0100
1294.3810;-17.4200;-15.4200;-2.0000
1294.5800;-17.4000;-15.3800;-2.0200
1294.7790;-17.3700;-15.3400;-2.0300
1294.9780;-17.3600;-15.3100;-2.0500
1295.1770;-17.3600;-15.2700;-2.0900
1295.3760;-17.3600;-15.2400;-2.1200
1295.5750;-17.3700;-15.2000;-2.1700
1295.7740;-17.3700;-15.1600;-2.2100
1295.9740;-17.3800;-15.1300;-2.2500
1296.1730;-17.3900;-15.0800;-2.3100
1296.3720;-17.4100;-15.0600;-2.3500
1296.5710;-17.4400;-15.0200;-2.4200
1296.7700;-17.4500;-14.9800;-2.4700
1296.9690;-17.4800;-14.9600;-2.5200
1297.1680;-17.4900;-14.9300;-2.5600
1297.3670;-17.5100;-14.9000;-2.6100
1297.5660;-17.5200;-14.8500;-2.6700
1297.7660;-17.5200;-14.8200;-2.7000
1297.9650;-17.5400;-14.8000;-2.7400
1298.1640;-17.5200;-14.7600;-2.7600
1298.3630;-17.5200;-14.7400;-2.7800
1298.5620;-17.4900;-14.7000;-2.7900
1298.7610;-17.4600;-14.6700;-2.7900
1298.9600;-17.4400;-14.6500;-2.7900
1299.1590;-17.3800;-14.6200;-2.7600
1299.3580;-17.3400;-14.6000;-2.7400
1299.5580;-17.2600;-14.5600;-2.7000
1299.7570;-17.1900;-14.5400;-2.6500
1299.9560;-17.1200;-14.5200;-2.6000
1300.1550;-17.0300;-14.4900;-2.5400
1300.3540;-16.9400;-14.4800;-2.4600
1300.5530;-16.8200;-14.4300;-2.3900
1300.7520;-16.7100;-14.4100;-2.3000
1300.9510;-16.6000;-14.3900;-2.2100
1301.1500;-16.4900;-14.3800;-2.1100
1301.3500;-16.3800;-14.3700;-2.0100
1301.5490;-16.2600;-14.3500;-1.9100
1301.7480;-16.1500;-14.3400;-1.8100
1301.9470;-16.0000;-14.3200;-1.6800
1302.1460;-15.9100;-14.3100;-1.6000
1302.3450;-15.8000;-14.3000;-1.5000
1302.5440;-15.6900;-14.2800;-1.4100
1302.7430;-15.6000;-14.2800;-1.3200
1302.9430;-15.4900;-14.2600;-1.2300
1303.1420;-15.4100;-14.2500;-1.1600
1303.3410;-15.3200;-14.2400;-1.0800
1303.5400;-15.2400;-14.2400;-1.0000
1303.7390;-15.1800;-14.2400;-0.9400
1303.9380;-15.1100;-14.2100;-0.9000
1304.1370;-15.0700;-14.2200;-0.8500
1304.3360;-15.0100;-14.2100;-0.8000
1304.5350;-14.9800;-14.2100;-0.7700
1304.7350;-14.9500;-14.2200;-0.7300
1304.9340;-14.9300;-14.2100;-0.7200
1305.1330;-14.9300;-14.2200;-0.7100
1305.3320;-14.9200;-14.2100;-0.7100
1305.5310;-14.9300;-14.2200;-0.7100
1305.7300;-14.9500;-14.2300;-0.7200
1305.9290;-14.9800;-14.2200;-0.7600
1306.1280;-15.0400;-14.2400;-0.8000
1306.3270;-15.0800;-14.2400;-0.8400
1306.5270;-15.1500;-14.2500;-0.9000
1306.7260;-15.2300;-14.2600;-0.9700
1306.9250;-15.3200;-14.2600;-1.0600
1307.1240;-15.4400;-14.2800;-1.1600
1307.3230;-15.5500;-14.2800;-1.2700
1307.5220;-15.6900;-14.3000;-1.3900
1307.7210;-15.8400;-14.3100;-1.5300
1307.9200;-16.0000;-14.3100;-1.6900
1308.1200;-16.1900;-14.3500;-1.8400
1308.3190;-16.3800;-14.3500;-2.0300
1308.5180;-16.6000;-14.3700;-2.2300
1308.7170;-16.8200;-14.3800;-2.4400
1308.9160;-17.0600;-14.3900;-2.6700
1309.1150;-17.3200;-14.4300;-2.8900
1309.3140;-17.6100;-14.4300;-3.1800
1309.5130;-17.9200;-14.4700;-3.4500
1309.7120;-18.2200;-14.4800;-3.7400
1309.9120;-18.6300;-14.5000;-4.1300
1310.1110;-18.9300;-14.5400;-4.3900
1310.3100;-19.3000;-14.5500;-4.7500
1310.5090;-19.7100;-14.5900;-5.1200
1310.7080;-20.1400;-14.6000;-5.5400
1310.9070;-20.6000;-14.6200;-5.9800
1311.1060;-21.0800;-14.6600;-6.4200
1311.3050;-21.5800;-14.6700;-6.9100
1311.5040;-22.1200;-14.7200;-7.4000
1311.7040;-22.6600;-14.7300;-7.9300
1311.9030;-23.2400;-14.7700;-8.4700
1312.1020;-23.8100;-14.7900;-9.0200
1312.3010;-24.3900;-14.8200;-9.5700
1312.5000;-24.9600;-14.8700;-10.0900
1312.6990;-25.4900;-14.9000;-10.5900
1312.8980;-25.9900;-14.9400;-11.0500
1313.0970;-26.3900;-14.9600;-11.4300
1313.2970;-26.7000;-15.0000;-11.7000
1313.4960;-26.8900;-15.0500;-11.8400
1313.6950;-26.9500;-15.0800;-11.8700
1313.8940;-26.8900;-15.1300;-11.7600
1314.0930;-26.7000;-15.1600;-11.5400
1314.2920;-26.4400;-15.2100;-11.2300
1314.4910;-26.0900;-15.2600;-10.8300
1314.6900;-25.7100;-15.3000;-10.4100
1314.8890;-25.3000;-15.3500;-9.9500
1315.0890;-24.8800;-15.3800;-9.5000
1315.2880;-24.4800;-15.4400;-9.0400
1315.4870;-24.0800;-15.4800;-8.6000
1315.6860;-23.7000;-15.5300;-8.1700
1315.8850;-23.3400;-15.5800;-7.7600
1316.0840;-23.0000;-15.6300;-7.3700
1316.2830;-22.7100;-15.6900;-7.0200
1316.4820;-22.4400;-15.7400;-6.7000
1316.6810;-22.2000;-15.7900;-6.4100
1316.8810;-21.9600;-15.8500;-6.1100
1317.0800;-21.7700;-15.9100;-5.8600
1317.2790;-21.6000;-15.9800;-5.6200
1317.4780;-21.4500;-16.0400;-5.4100
1317.6770;-21.3300;-16.1100;-5.2200
1317.8760;-21.2100;-16.1600;-5.0500
1318.0750;-21.1300;-16.2200;-4.9100
1318.2740;-21.0600;-16.2900;-4.7700
1318.4740;-21.0100;-16.3500;-4.6600
1318.6730;-21.0100;-16.4500;-4.5600
1318.8720;-20.9900;-16.5000;-4.4900
1319.0710;-21.0200;-16.5800;-4.4400
1319.2700;-21.0400;-16.6500;-4.3900
1319.4690;-21.0900;-16.7200;-4.3700
1319.6680;-21.1700;-16.8100;-4.3600
1319.8670;-21.2500;-16.8800;-4.3700
1320.0660;-21.3700;-16.9600;-4.4100
1320.2660;-21.4800;-17.0300;-4.4500
1320.4650;-21.6200;-17.1100;-4.5100
1320.6640;-21.7800;-17.2100;-4.5700
1320.8630;-21.9300;-17.2900;-4.6400
1321.0620;-22.1300;-17.3800;-4.7500
1321.2610;-22.3200;-17.4500;-4.8700
1321.4600;-22.5300;-17.5500;-4.9800
1321.6590;-22.7500;-17.6300;-5.1200
1321.8580;-22.9800;-17.7100;-5.2700
1322.0580;-23.2300;-17.8200;-5.4100
1322.2570;-23.4600;-17.9000;-5.5600
1322.4560;-23.7300;-18.0100;-5.7200
1322.6550;-23.9700;-18.0900;-5.8800
1322.8540;-24.2200;-18.1900;-6.0300
1323.0530;-24.4800;-18.2900;-6.1900
1323.2520;-24.7300;-18.3900;-6.3400
1323.4510;-24.9700;-18.5100;-6.4600
1323.6500;-25.1800;-18.5900;-6.5900
1323.8500;-25.3800;-18.7000;-6.6800
1324.0490;-25.5600;-18.8000;-6.7600
1324.2480;-25.7100;-18.9100;-6.8000
1324.4470;-25.8400;-19.0200;-6.8200
1324.6460;-25.9200;-19.1200;-6.8000
1324.8450;-25.9900;-19.2400;-6.7500
1325.0440;-26.0000;-19.3400;-6.6600
1325.2430;-26.0000;-19.4600;-6.5400
1325.4430;-25.9700;-19.5700;-6.4000
1325.6420;-25.9200;-19.6900;-6.2300
1325.8410;-25.8400;-19.8100;-6.0300
1326.0400;-25.7300;-19.9200;-5.8100
1326.2390;-25.6200;-20.0500;-5.5700
1326.4380;-25.5000;-20.1600;-5.3400
1326.6370;-25.3600;-20.2800;-5.0800
1326.8360;-25.2500;-20.4000;-4.8500
1327.0350;-25.1000;-20.5200;-4.5800
1327.2350;-24.9800;-20.6600;-4.3200
1327.4340;-24.8500;-20.7700;-4.0800
1327.6330;-24.7300;-20.9000;-3.8300
1327.8320;-24.6300;-21.0200;-3.6100
1328.0310;-24.5200;-21.1500;-3.3700
1328.2300;-24.4300;-21.2900;-3.1400
1328.4290;-24.3400;-21.4100;-2.9300
1328.6280;-24.2700;-21.5600;-2.7100
1328.8270;-24.2200;-21.6800;-2.5400
1329.0270;-24.1700;-21.8100;-2.3600
1329.2260;-24.1500;-21.9600;-2.1900
1329.4250;-24.1100;-22.0800;-2.0300
1329.6240;-24.1000;-22.2300;-1.8700
1329.8230;-24.1100;-22.3500;-1.7600
1330.0220;-24.1200;-22.4900;-1.6300
1330.2210;-24.1600;-22.6400;-1.5200
1330.4200;-24.1900;-22.7700;-1.4200
1330.6200;-24.2500;-22.9200;-1.3300
1330.8190;-24.3100;-23.0600;-1.2500
1331.0180;-24.3900;-23.2100;-1.1800
1331.2170;-24.4900;-23.3500;-1.1400
1331.4160;-24.5900;-23.5000;-1.0900
1331.6150;-24.7200;-23.6500;-1.0700
1331.8140;-24.8400;-23.7900;-1.0500
1332.0130;-24.9900;-23.9600;-1.0300
1332.2120;-25.1500;-24.0900;-1.0600
1332.4120;-25.3200;-24.2500;-1.0700
1332.6110;-25.5200;-24.4100;-1.1100
1332.8100;-25.7100;-24.5600;-1.1500
1333.0090;-25.9300;-24.7300;-1.2000
1333.2080;-26.1400;-24.8700;-1.2700
1333.4070;-26.3700;-25.0300;-1.3400
1333.6060;-26.6300;-25.1800;-1.4500
1333.8050;-26.8800;-25.3400;-1.5400
1334.0040;-27.1700;-25.5100;-1.6600
1334.2040;-27.4400;-25.6600;-1.7800
1334.4030;-27.7500;-25.8300;-1.9200
1334.6020;-28.0600;-25.9800;-2.0800
1334.8010;-28.3700;-26.1400;-2.2300
1335.0000;-28.7900;-26.3100;-2.4800
1335.1990;-29.0700;-26.4600;-2.6100
1335.3980;-29.4300;-26.6400;-2.7900
1335.5970;-29.7900;-26.7900;-3.0000
1335.7970;-30.1800;-26.9600;-3.2200
1335.9960;-30.5600;-27.1300;-3.4300
1336.1950;-30.9600;-27.2900;-3.6700
1336.3940;-31.3500;-27.4500;-3.9000
1336.5930;-31.7400;-27.6100;-4.1300
1336.7920;-32.1400;-27.7900;-4.3500
1336.9910;-32.5300;-27.9400;-4.5900
1337.1900;-32.9300;-28.1100;-4.8200
1337.3890;-33.3000;-28.2800;-5.0200
1337.5890;-33.6700;-28.4400;-5.2300
1337.7880;-34.0200;-28.6500;-5.3700
1337.9870;-34.3400;-28.7900;-5.5500
1338.1860;-34.6500;-28.9600;-5.6900
1338.3850;-34.9100;-29.1300;-5.7800
1338.5840;-35.1500;-29.3100;-5.8400
1338.7830;-35.3500;-29.4700;-5.8800
1338.9820;-35.5200;-29.6400;-5.8800
1339.1810;-35.6700;-29.8200;-5.8500
1339.3810;-35.7600;-29.9900;-5.7700
1339.5800;-35.8300;-30.1700;-5.6600
1339.7790;-35.8700;-30.3300;-5.5400
1339.9780;-35.8900;-30.5200;-5.3700
1340.1770;-35.9100;-30.6900;-5.2200
1340.3760;-35.8900;-30.8600;-5.0300
1340.5750;-35.8900;-31.0600;-4.8300
1340.7740;-35.8600;-31.2200;-4.6400
1340.9740;-35.8200;-31.4000;-4.4200
1341.1730;-35.7900;-31.5700;-4.2200
1341.3720;-35.7500;-31.7400;-4.0100
1341.5710;-35.7400;-31.9200;-3.8200
1341.7700;-35.7100;-32.0900;-3.6200
1341.9690;-35.7100;-32.2800;-3.4300
1342.1680;-35.7000;-32.4400;-3.2600
1342.3670;-35.6900;-32.6200;-3.0700
1342.5660;-35.7300;-32.7900;-2.9400
1342.7660;-35.7500;-32.9700;-2.7800
1342.9650;-35.8000;-33.1600;-2.6400
1343.1640;-35.8500;-33.3300;-2.5200
1343.3630;-35.9200;-33.5100;-2.4100
1343.5620;-36.0100;-33.6800;-2.3300
1343.7610;-36.1000;-33.8500;-2.2500
1343.9600;-36.2300;-34.0500;-2.1800
1344.1590;-36.3500;-34.2200;-2.1300
1344.3580;-36.5000;-34.4100;-2.0900
1344.5580;-36.6600;-34.5800;-2.0800
1344.7570;-36.8200;-34.7700;-2.0500
1344.9560;-37.0100;-34.9400;-2.0700
1345.1550;-37.1900;-35.1000;-2.0900
1345.3540;-37.4000;-35.2800;-2.1200
1345.5530;-37.6200;-35.4400;-2.1800
1345.7520;-37.8500;-35.6300;-2.2200
1345.9510;-38.1100;-35.8000;-2.3100
1346.1500;-38.3700;-35.9700;-2.4000
1346.3500;-38.7300;-36.1600;-2.5700
1346.5490;-38.9900;-36.3400;-2.6500
1346.7480;-39.3100;-36.5100;-2.8000
1346.9470;-39.6200;-36.6800;-2.9400
1347.1460;-39.9700;-36.8500;-3.1200
1347.3450;-40.3100;-37.0000;-3.3100
1347.5440;-40.7200;-37.2100;-3.5100
1347.7430;-41.1600;-37.4400;-3.7200
1347.9430;-41.5800;-37.6300;-3.9500
1348.1420;-42.0200;-37.8000;-4.2200
1348.3410;-42.4500;-37.9800;-4.4700
1348.5400;-42.8700;-38.1100;-4.7600
1348.7390;-43.3100;-38.2700;-5.0400
1348.9380;-43.7500;-38.4600;-5.2900
1349.1370;-44.2300;-38.5900;-5.6400
1349.3360;-44.6600;-38.7200;-5.9400
1349.5350;-45.1400;-38.8700;-6.2700
1349.7350;-45.5800;-39.0200;-6.5600
1349.9340;-46.0400;-39.1900;-6.8500
1350.1330;-46.5100;-39.3900;-7.1200
1350.3320;-46.9800;-39.6100;-7.3700
1350.5310;-47.4200;-39.8100;-7.6100
1350.7300;-47.7800;-39.9700;-7.8100
1350.9290;-48.0600;-40.1100;-7.9500
1351.1280;-48.2800;-40.2200;-8.0600
1351.3270;-48.4800;-40.3600;-8.1200
1351.5270;-48.5900;-40.5400;-8.0500
1351.7260;-48.7100;-40.7500;-7.9600
1351.9250;-48.7500;-40.9200;-7.8300
1352.1240;-48.7000;-41.0900;-7.6100
1352.3230;-48.6200;-41.2500;-7.3700
1352.5220;-48.5600;-41.4500;-7.1100
1352.7210;-48.4000;-41.5800;-6.8200
1352.9200;-48.2400;-41.7300;-6.5100
1353.1200;-48.1600;-41.9800;-6.1800
1353.3190;-47.9500;-42.0700;-5.8800
1353.5180;-47.7600;-42.2300;-5.5300
1353.7170;-47.6100;-42.4000;-5.2100
1353.9160;-47.4000;-42.4900;-4.9100
1354.1150;-47.2400;-42.6200;-4.6200
1354.3140;-47.1700;-42.8400;-4.3300
1354.5130;-47.0600;-43.0200;-4.0400
1354.7120;-47.1100;-43.3100;-3.8000
1354.9120;-47.1100;-43.6000;-3.5100
1355.1110;-47.0700;-43.7500;-3.3200
1355.3100;-46.9600;-43.8800;-3.0800
1355.5090;-46.7700;-43.8500;-2.9200
1355.7080;-46.8200;-44.1100;-2.7100
1355.9070;-46.9200;-44.3700;-2.5500
1356.1060;-46.9100;-44.5200;-2.3900
1356.3050;-46.8600;-44.6000;-2.2600
1356.5040;-46.8300;-44.6800;-2.1500
1356.7040;-46.6500;-44.6000;-2.0500
1356.9030;-46.6600;-44.7300;-1.9300
1357.1020;-46.9400;-45.0900;-1.8500
1357.3010;-47.0900;-45.3100;-1.7800
1357.5000;-47.2100;-45.4700;-1.7400
1357.6990;-47.3300;-45.6500;-1.6800
1357.8980;-47.4000;-45.6800;-1.7200
1358.0970;-47.4300;-45.7300;-1.7000
1358.2970;-47.5900;-45.9000;-1.6900
1358.4960;-47.8600;-46.1200;-1.7400
1358.6950;-48.0100;-46.2500;-1.7600
1358.8940;-48.2300;-46.3800;-1.8500
1359.0930;-48.4500;-46.5200;-1.9300
1359.2920;-48.5600;-46.5500;-2.0100
1359.4910;-48.9900;-46.9100;-2.0800
1359.6900;-49.4000;-47.2000;-2.2000
1359.8890;-49.7500;-47.3800;-2.3700
1360.0890;-49.9700;-47.4300;-2.5400
1360.2880;-50.2000;-47.4300;-2.7700
1360.4870;-50.3600;-47.4100;-2.9500
1360.6860;-50.6700;-47.5600;-3.1100
1360.8850;-51.2300;-47.8900;-3.3400
1361.0840;-51.7600;-48.1900;-3.5700
1361.2830;-52.2400;-48.3400;-3.9000
1361.4820;-52.6900;-48.5500;-4.1400
1361.6810;-53.1700;-48.6800;-4.4900
1361.8810;-53.6500;-48.8200;-4.8300
1362.0800;-54.2300;-49.0200;-5.2100
1362.2790;-54.9200;-49.4200;-5.5000
1362.4780;-55.6200;-49.6600;-5.9600
1362.6770;-56.1800;-49.7700;-6.4100
1362.8760;-56.5800;-49.6400;-6.9400
1363.0750;-57.0200;-49.5500;-7.4700
1363.2740;-57.1500;-49.3200;-7.8300
1363.4740;-57.6400;-49.3700;-8.2700
1363.6730;-58.1400;-49.4500;-8.6900
1363.8720;-58.8100;-49.5900;-9.2200
1364.0710;-59.2600;-49.7800;-9.4800
1364.2700;-59.7600;-49.9800;-9.7800
1364.4690;-60.2300;-50.2700;-9.9600
1364.6680;-60.9100;-50.7700;-10.1400
1364.8670;-61.2000;-50.9700;-10.2300
1365.0660;-61.1800;-50.9300;-10.2500
1365.2660;-61.1500;-51.0900;-10.0600
1365.4650;-60.8900;-51.0100;-9.8800
1365.6640;-60.6600;-51.0800;-9.5800
1365.8630;-60.3400;-51.1000;-9.2400
1366.0620;-59.9900;-51.0800;-8.9100
1366.2610;-59.6000;-51.0600;-8.5400
1366.4600;-59.2700;-51.1100;-8.1600
1366.6590;-59.0200;-51.2800;-7.7400
1366.8580;-58.8800;-51.4900;-7.3900
1367.0580;-58.6300;-51.6200;-7.0100
1367.2570;-58.3900;-51.7100;-6.6800
1367.4560;-58.2900;-51.9700;-6.3200
1367.6550;-58.1700;-52.1500;-6.0200
1367.8540;-58.1600;-52.4000;-5.7600
1368.0530;-57.9600;-52.5200;-5.4400
1368.2520;-57.7200;-52.4700;-5.2500
1368.4510;-57.7800;-52.8100;-4.9700
1368.6500;-57.6800;-52.8800;-4.8000
1368.8500;-57.5900;-52.9700;-4.6200
1369.0490;-57.3700;-52.9500;-4.4200
1369.2480;-57.2300;-52.8900;-4.3400
1369.4470;-57.0000;-52.8200;-4.1800
1369.6460;-56.9700;-52.9000;-4.0700
1369.8450;-57.1700;-53.2300;-3.9400
1370.0440;-57.2900;-53.4100;-3.8800
1370.2430;-57.3700;-53.5300;-3.8400
1370.4430;-57.3400;-53.5800;-3.7600
1370.6420;-57.3500;-53.5900;-3.7600
1370.8410;-57.5900;-53.9000;-3.6900
1371.0400;-57.8700;-54.1600;-3.7100
1371.2390;-58.0900;-54.3300;-3.7600
1371.4380;-58.1300;-54.3500;-3.7800
1371.6370;-58.2000;-54.2900;-3.9100
1371.8360;-58.1800;-54.2800;-3.9000
1372.0350;-58.4400;-54.4500;-3.9900
1372.2350;-58.7300;-54.6600;-4.0700
1372.4340;-58.9500;-54.7400;-4.2100
1372.6330;-59.1500;-54.8200;-4.3300
1372.8320;-59.3200;-54.8500;-4.4700
1373.0310;-59.5300;-54.8700;-4.6600
1373.2300;-59.7800;-55.0200;-4.7600
1373.4290;-60.1100;-55.1400;-4.9700
1373.6280;-60.4300;-55.2600;-5.1700
1373.8270;-60.7100;-55.3300;-5.3800
1374.0270;-61.0300;-55.4400;-5.5900
1374.2260;-61.3200;-55.5300;-5.7900
1374.4250;-61.6900;-55.6700;-6.0200
1374.6240;-62.0400;-55.8100;-6.2300
1374.8230;-62.4500;-55.9900;-6.4600
1375.0220;-62.8300;-56.1700;-6.6600
1375.2210;-63.1500;-56.2400;-6.9100
1375.4200;-63.3700;-56.3000;-7.0700
1375.6200;-63.6500;-56.3800;-7.2700
1375.8190;-63.8900;-56.4800;-7.4100
1376.0180;-64.1100;-56.6300;-7.4800
1376.2170;-64.3100;-56.7700;-7.5400
1376.4160;-64.5300;-56.8700;-7.6600
1376.6150;-64.6200;-56.9600;-7.6600
1376.8140;-64.6600;-57.1100;-7.5500
1377.0130;-64.8200;-57.3400;-7.4800
1377.2120;-64.9100;-57.5100;-7.4000
1377.4120;-64.7800;-57.6000;-7.1800
1377.6110;-64.6000;-57.6400;-6.9600
1377.8100;-64.3900;-57.6100;-6.7800
1378.0090;-64.1800;-57.6600;-6.5200
1378.2080;-64.0700;-57.7600;-6.3100
1378.4070;-63.9600;-57.9300;-6.0300
1378.6060;-63.9100;-58.1800;-5.7300
1378.8050;-63.9000;-58.5400;-5.3600
1379.0040;-63.7700;-58.6100;-5.1600
1379.2040;-63.5500;-58.6600;-4.8900
1379.4030;-63.2500;-58.6400;-4.6100
1379.6020;-62.9600;-58.6200;-4.3400
1379.8010;-62.7700;-58.6300;-4.1400
1380.0000;-62.6300;-58.7700;-3.8600
1380.1990;-62.5900;-58.9500;-3.6400
1380.3980;-62.5400;-59.1500;-3.3900
1380.5970;-62.8900;-59.7300;-3.1600
1380.7970;-63.2000;-60.1400;-3.0600
1380.9960;-63.1300;-60.3000;-2.8300
1381.1950;-62.9800;-60.2900;-2.6900
1381.3940;-62.6000;-60.0000;-2.6000
1381.5930;-62.2000;-59.7500;-2.4500
1381.7920;-62.1200;-59.8000;-2.3200
1381.9910;-62.0600;-59.8400;-2.2200
1382.1900;-62.0600;-59.9400;-2.1200
1382.3890;-62.2900;-60.2600;-2.0300
1382.5890;-62.7200;-60.8000;-1.9200
1382.7880;-63.1600;-61.2900;-1.8700
1382.9870;-63.3800;-61.5000;-1.8800
1383.1860;-63.2100;-61.2600;-1.9500
1383.3850;-62.9600;-60.9800;-1.9800
1383.5840;-62.7200;-60.7700;-1.9500
1383.7830;-62.8500;-60.9300;-1.9200
1383.9820;-63.0300;-61.0300;-2.0000
1384.1810;-63.1700;-61.0800;-2.0900
1384.3810;-63.2600;-61.1100;-2.1500
1384.5800;-63.3400;-61.0400;-2.3000
1384.7790;-63.4900;-61.1700;-2.3200
1384.9780;-63.8500;-61.4200;-2.4300
1385.1770;-64.2200;-61.6400;-2.5800
1385.3760;-64.5100;-61.7600;-2.7500
1385.5750;-64.6600;-61.7100;-2.9500
1385.7740;-64.9000;-61.7400;-3.1600
1385.9740;-65.0700;-61.7300;-3.3400
1386.1730;-65.3700;-61.7700;-3.6000
1386.3720;-65.7900;-61.8800;-3.9100
1386.5710;-66.0400;-61.9200;-4.1200
1386.7700;-66.4400;-61.9700;-4.4700
1386.9690;-66.7000;-62.0000;-4.7000
1387.1680;-67.0000;-62.0200;-4.9800
1387.3670;-67.4900;-62.0900;-5.4000
1387.5660;-67.9100;-62.1500;-5.7600
1387.7660;-68.4000;-62.4300;-5.9700
1387.9650;-69.0200;-62.6800;-6.3400
1388.1640;-69.6300;-62.9600;-6.6700
1388.3630;-70.1300;-63.0600;-7.0700
1388.5620;-70.7200;-63.0100;-7.7100
1388.7610;-71.0400;-62.8800;-8.1600
1388.9600;-71.3000;-62.8300;-8.4700
1389.1590;-71.6100;-62.8000;-8.8100
1389.3580;-71.9000;-62.8100;-9.0900
1389.5580;-71.9500;-62.8600;-9.0900
1389.7570;-72.5300;-62.9900;-9.5400
1389.9560;-72.6600;-63.1700;-9.4900
1390.1550;-72.7600;-63.2200;-9.5400
1390.3540;-72.8500;-63.2400;-9.6100
1390.5530;-72.9100;-63.3300;-9.5800
1390.7520;-72.5200;-63.2800;-9.2400
1390.9510;-72.2600;-63.4100;-8.8500
1391.1500;-72.0300;-63.4500;-8.5800
1391.3500;-71.6900;-63.4900;-8.2000
1391.5490;-71.7700;-63.5400;-8.2300
1391.7480;-71.4200;-63.6500;-7.7700
1391.9470;-71.0500;-63.7600;-7.2900
1392.1460;-70.6500;-63.9200;-6.7300
1392.3450;-70.5200;-64.1600;-6.3600
1392.5440;-70.6700;-64.5900;-6.0800
1392.7430;-70.2700;-64.7100;-5.5600
1392.9430;-69.9200;-64.6200;-5.3000
1393.1420;-69.5500;-64.4800;-5.0700
1393.3410;-69.0300;-64.3000;-4.7300
1393.5400;-68.6900;-64.2800;-4.4100
1393.7390;-68.4100;-64.3700;-4.0400
1393.9380;-68.2200;-64.4100;-3.8100
1394.1370;-68.0900;-64.4900;-3.6000
1394.3360;-67.9300;-64.5700;-3.3600
1394.5350;-67.8600;-64.6100;-3.2500
1394.7350;-67.8400;-64.7500;-3.0900
1394.9340;-67.9000;-65.0500;-2.8500
1395.1330;-68.0800;-65.2200;-2.8600
1395.3320;-68.0300;-65.3800;-2.6500
1395.5310;-67.9500;-65.4700;-2.4800
1395.7300;-67.8000;-65.5200;-2.2800
1395.9290;-67.6800;-65.3900;-2.2900
1396.1280;-67.6000;-65.5200;-2.0800
1396.3270;-67.7000;-65.6300;-2.0700
1396.5270;-67.8700;-65.9200;-1.9500
1396.7260;-68.1000;-66.0500;-2.0500
1396.9250;-68.0300;-66.0900;-1.9400
1397.1240;-67.9000;-65.8900;-2.0100
1397.3230;-67.9100;-65.7800;-2.1300
1397.5220;-67.8700;-65.7400;-2.1300
1397.7210;-67.9400;-65.7900;-2.1500
1397.9200;-68.0400;-65.8800;-2.1600
1398.1200;-68.1200;-65.8800;-2.2400
1398.3190;-68.2800;-66.0000;-2.2800
1398.5180;-68.5700;-66.1100;-2.4600
1398.7170;-68.8100;-66.1700;-2.6400
1398.9160;-68.9900;-66.2900;-2.7000
1399.1150;-69.2400;-66.2800;-2.9600
1399.3140;-69.4500;-66.4200;-3.0300
1399.5130;-69.7600;-66.7000;-3.0600
1399.7120;-70.1300;-66.8100;-3.3200
1399.9120;-70.4000;-67.0200;-3.3800
1400.1110;-70.8100;-67.1500;-3.6600
1400.3100;-71.0200;-67.1100;-3.9100
1400.5090;-71.1500;-67.1900;-3.9600
1400.7080;-71.7000;-67.5300;-4.1700
1400.9070;-72.3700;-67.6500;-4.7200
1401.1060;-72.6800;-67.6900;-4.9900
1401.3050;-73.0200;-67.7200;-5.3000
1401.5040;-73.1000;-67.6200;-5.4800
1401.7040;-73.0700;-67.6400;-5.4300
1401.9030;-73.4000;-67.7600;-5.6400
1402.1020;-73.7500;-67.7900;-5.9600
1402.3010;-74.2500;-67.6900;-6.5600
1402.5000;-74.6900;-67.7000;-6.9900
1402.6990;-74.4100;-67.7100;-6.7000
1402.8980;-75.0500;-67.8800;-7.1700
1403.0970;-75.6200;-68.0500;-7.5700
1403.2970;-75.3500;-68.1100;-7.2400
1403.4960;-75.6700;-68.1700;-7.5000
1403.6950;-75.8200;-68.2600;-7.5600
1403.8940;-76.4600;-68.3500;-8.1100
1404.0930;-76.7400;-68.5100;-8.2300
1404.2920;-76.1100;-68.6300;-7.4800
1404.4910;-76.5000;-68.7700;-7.7300
1404.6900;-76.7100;-68.7800;-7.9300
1404.8890;-77.0600;-69.4100;-7.6500
1405.0890;-77.0800;-69.7100;-7.3700
1405.2880;-77.1400;-69.4600;-7.6800
1405.4870;-77.0400;-69.4900;-7.5500
1405.6860;-76.6000;-69.3300;-7.2700
1405.8850;-75.6900;-69.2700;-6.4200
1406.0840;-75.9000;-69.2100;-6.6900
1406.2830;-75.8200;-69.3500;-6.4700
1406.4820;-75.4700;-69.4400;-6.0300
1406.6810;-75.7900;-69.5200;-6.2700
1406.8810;-76.0700;-69.7600;-6.3100
1407.0800;-76.6600;-69.9600;-6.7000
1407.2790;-75.9400;-70.2200;-5.7200
1407.4780;-76.1200;-70.0900;-6.0300
1407.6770;-75.8500;-70.2200;-5.6300
1407.8760;-76.0900;-70.0600;-6.0300
1408.0750;-75.9400;-70.1900;-5.7500
1408.2740;-75.9100;-70.2100;-5.7000
1408.4740;-76.1800;-70.1200;-6.0600
1408.6730;-75.7300;-70.1800;-5.5500
1408.8720;-76.2800;-70.4900;-5.7900
1409.0710;-76.6300;-70.6800;-5.9500
1409.2700;-76.6300;-70.8900;-5.7400
1409.4690;-76.1800;-71.2300;-4.9500
1409.6680;-76.2100;-71.1900;-5.0200
1409.8670;-76.7200;-71.2700;-5.4500
1410.0660;-77.4100;-71.1100;-6.3000
1410.2660;-76.9200;-71.1000;-5.8200
1410.4650;-76.8100;-71.0700;-5.7400
1410.6640;-76.7900;-71.2000;-5.5900
1410.8630;-76.7300;-71.1200;-5.6100
1411.0620;-77.3900;-71.2800;-6.1100
1411.2610;-77.2200;-71.3000;-5.9200
1411.4600;-76.8600;-71.6000;-5.2600
1411.6590;-77.6200;-71.6000;-6.0200
1411.8580;-78.3600;-71.6200;-6.7400
1412.0580;-77.8900;-71.7900;-6.1000
1412.2570;-77.8500;-71.9500;-5.9000
1412.4560;-78.6900;-71.7900;-6.9000
1412.6550;-78.2300;-71.8300;-6.4000
1412.8540;-77.6400;-72.1500;-5.4900
1413.0530;-76.9300;-72.0000;-4.9300
1413.2520;-79.3200;-72.1600;-7.1600
1413.4510;-78.2300;-72.1300;-6.1000
1413.6500;-77.7700;-72.4800;-5.2900
1413.8500;-77.6500;-72.4300;-5.2200
1414.0490;-77.7700;-72.5400;-5.2300
1414.2480;-77.8800;-72.4400;-5.4400
1414.4470;-78.2400;-72.8500;-5.3900
1414.6460;-78.4000;-73.2100;-5.1900
1414.8450;-78.8400;-72.8100;-6.0300
1415.0440;-77.8600;-73.0500;-4.8100
1415.2430;-78.0200;-73.0900;-4.9300
1415.4430;-77.1900;-73.1300;-4.0600
1415.6420;-77.3200;-72.5800;-4.7400
1415.8410;-77.5000;-72.7100;-4.7900
1416.0400;-77.7200;-72.9000;-4.8200
1416.2390;-78.0500;-73.2100;-4.8400
1416.4380;-77.6500;-73.1500;-4.5000
1416.6370;-77.1000;-73.1400;-3.9600
1416.8360;-77.4200;-73.2800;-4.1400
1417.0350;-77.2300;-73.0000;-4.2300
1417.2350;-77.6100;-72.9100;-4.7000
1417.4340;-77.3200;-73.7100;-3.6100
1417.6330;-77.6500;-73.8100;-3.8400
1417.8320;-77.5700;-73.4800;-4.0900
1418.0310;-77.2800;-72.9200;-4.3600
1418.2300;-78.2200;-73.4100;-4.8100
1418.4290;-76.9400;-73.6400;-3.3000
1418.6280;-76.9100;-73.6000;-3.3100
1418.8270;-77.4200;-73.6100;-3.8100
1419.0270;-78.5600;-73.8200;-4.7400
1419.2260;-76.9800;-74.0100;-2.9700
1419.4250;-77.3400;-74.1500;-3.1900
1419.6240;-77.7700;-74.2400;-3.5300
1419.8230;-77.0200;-73.9900;-3.0300
1420.0220;-77.1800;-74.0900;-3.0900
1420.2210;-77.3200;-74.0900;-3.2300
1420.4200;-77.1600;-73.7000;-3.4600
1420.6200;-77.0600;-74.3100;-2.7500
1420.8190;-76.4000;-74.0400;-2.3600
1421.0180;-77.0600;-74.4300;-2.6300
1421.2170;-76.6200;-74.2900;-2.3300
1421.4160;-76.9800;-74.3600;-2.6200
1421.6150;-77.4100;-73.9900;-3.4200
1421.8140;-77.2200;-74.3600;-2.8600
1422.0130;-76.5100;-74.1700;-2.3400
1422.2120;-77.1100;-74.4400;-2.6700
1422.4120;-76.9400;-74.4600;-2.4800
1422.6110;-77.6600;-74.2300;-3.4300
1422.8100;-76.9000;-74.0100;-2.8900
1423.0090;-77.6000;-74.4400;-3.1600
1423.2080;-77.0700;-74.0500;-3.0200
1423.4070;-77.2000;-74.1000;-3.1000
1423.6060;-77.1100;-74.1300;-2.9800
1423.8050;-77.5600;-74.3800;-3.1800
1424.0040;-77.1700;-74.1000;-3.0700
1424.2040;-77.4700;-74.6700;-2.8000
1424.4030;-77.2600;-74.3300;-2.9300
1424.6020;-77.3500;-74.1300;-3.2200
1424.8010;-77.2400;-74.0600;-3.1800
1425.0000;-77.0700;-74.1700;-2.9000
