Wavelength;Intensity_Meas;Intensity_Ref;Difference_dB
1200.0000;-61.0200;-56.1700;-4.8500
1200.1990;-60.9700;-56.1300;-4.8400
1200.3980;-60.9200;-56.1000;-4.8200
1200.5970;-60.9500;-56.0800;-4.8700
1200.7970;-60.9200;-56.0500;-4.8700
1200.9960;-60.9000;-56.0200;-4.8800
1201.1950;-60.8700;-55.9700;-4.9000
1201.3940;-60.8700;-55.9300;-4.9400
1201.5930;-60.7900;-55.9000;-4.8900
1201.7920;-60.7500;-55.8500;-4.9000
1201.9910;-60.7700;-55.8100;-4.9600
1202.1900;-60.7300;-55.7500;-4.9800
1202.3890;-60.6600;-55.7000;-4.9600
1202.5890;-60.6200;-55.6600;-4.9600
1202.7880;-60.6200;-55.5900;-5.0300
1202.9870;-60.6200;-55.5400;-5.0800
1203.1860;-60.5300;-55.4800;-5.0500
1203.3850;-60.5100;-55.4400;-5.0700
1203.5840;-60.5300;-55.4200;-5.1100
1203.7830;-60.5400;-55.3500;-5.1900
1203.9820;-60.5000;-55.3200;-5.1800
1204.1810;-60.4600;-55.2800;-5.1800
1204.3810;-60.5300;-55.2400;-5.2900
1204.5800;-60.5300;-55.2300;-5.3000
1204.7790;-60.4500;-55.1800;-5.2700
1204.9780;-60.4700;-55.1500;-5.3200
1205.1770;-60.4900;-55.1200;-5.3700
1205.3760;-60.4900;-55.0900;-5.4000
1205.5750;-60.4800;-55.0900;-5.3900
1205.7740;-60.4400;-55.0500;-5.3900
1205.9740;-60.4500;-55.0400;-5.4100
1206.1730;-60.4400;-55.0200;-5.4200
1206.3720;-60.4100;-54.9900;-5.4200
1206.5710;-60.3700;-54.9800;-5.3900
1206.7700;-60.3100;-54.9500;-5.3600
1206.9690;-60.3200;-54.9300;-5.3900
1207.1680;-60.2800;-54.9000;-5.3800
1207.3670;-60.2300;-54.8600;-5.3700
1207.5660;-60.1700;-54.8500;-5.3200
1207.7660;-60.1200;-54.8000;-5.3200
1207.9650;-60.1300;-54.7700;-5.3600
1208.1640;-60.0700;-54.7200;-5.3500
1208.3630;-59.9800;-54.6800;-5.3000
1208.5620;-59.9500;-54.6500;-5.3000
1208.7610;-59.9000;-54.5800;-5.3200
1208.9600;-59.8600;-54.5400;-5.3200
1209.1590;-59.7600;-54.4900;-5.2700
1209.3580;-59.6800;-54.4300;-5.2500
1209.5580;-59.6500;-54.4000;-5.2500
1209.7570;-59.6000;-54.3400;-5.2600
1209.9560;-59.5100;-54.2800;-5.2300
1210.1550;-59.4100;-54.2300;-5.1800
1210.3540;-59.3700;-54.1800;-5.1900
1210.5530;-59.3400;-54.1400;-5.2000
1210.7520;-59.2300;-54.0800;-5.1500
1210.9510;-59.1500;-54.0300;-5.1200
1211.1500;-59.1000;-54.0000;-5.1000
1211.3500;-59.0500;-53.9500;-5.1000
1211.5490;-58.9700;-53.9200;-5.0500
1211.7480;-58.8900;-53.8800;-5.0100
1211.9470;-58.8400;-53.8400;-5.0000
1212.1460;-58.8000;-53.8200;-4.9800
1212.3450;-58.7500;-53.7700;-4.9800
1212.5440;-58.7000;-53.7600;-4.9400
1212.7430;-58.6500;-53.7200;-4.9300
1212.9430;-58.6400;-53.6800;-4.9600
1213.1420;-58.6200;-53.6700;-4.9500
1213.3410;-58.5700;-53.6300;-4.9400
1213.5400;-58.5300;-53.6100;-4.9200
1213.7390;-58.5400;-53.5700;-4.9700
1213.9380;-58.5500;-53.5300;-5.0200
1214.1370;-58.5000;-53.5100;-4.9900
1214.3360;-58.4700;-53.4600;-5.0100
1214.5350;-58.4900;-53.4400;-5.0500
1214.7350;-58.5100;-53.3900;-5.1200
1214.9340;-58.4700;-53.3400;-5.1300
1215.1330;-58.4200;-53.2900;-5.1300
1215.3320;-58.4300;-53.2400;-5.1900
1215.5310;-58.4200;-53.2000;-5.2200
1215.7300;-58.3700;-53.1400;-5.2300
1215.9290;-58.3700;-53.0800;-5.2900
1216.1280;-58.3200;-53.0300;-5.2900
1216.3270;-58.3100;-52.9600;-5.3500
1216.5270;-58.2800;-52.9200;-5.3600
1216.7260;-58.2300;-52.8600;-5.3700
1216.9250;-58.2200;-52.7900;-5.4300
1217.1240;-58.1900;-52.7400;-5.4500
1217.3230;-58.1600;-52.6700;-5.4900
1217.5220;-58.1200;-52.6300;-5.4900
1217.7210;-58.0900;-52.5700;-5.5200
1217.9200;-58.0900;-52.5200;-5.5700
1218.1200;-58.0700;-52.4800;-5.5900
1218.3190;-58.0300;-52.4200;-5.6100
1218.5180;-58.0200;-52.3900;-5.6300
1218.7170;-58.0200;-52.3400;-5.6800
1218.9160;-58.0300;-52.2900;-5.7400
1219.1150;-57.9900;-52.2600;-5.7300
1219.3140;-58.0000;-52.2100;-5.7900
1219.5130;-58.0100;-52.1900;-5.8200
1219.7120;-58.0100;-52.1500;-5.8600
1219.9120;-57.9900;-52.1100;-5.8800
1220.1110;-57.9600;-52.0700;-5.8900
1220.3100;-57.9700;-52.0300;-5.9400
1220.5090;-57.9700;-52.0000;-5.9700
1220.7080;-57.9400;-51.9500;-5.9900
1220.9070;-57.9000;-51.9100;-5.9900
1221.1060;-57.8800;-51.8500;-6.0300
1221.3050;-57.8700;-51.8000;-6.0700
1221.5040;-57.8200;-51.7500;-6.0700
1221.7040;-57.7500;-51.6800;-6.0700
1221.9030;-57.7400;-51.6300;-6.1100
1222.1020;-57.6900;-51.5700;-6.1200
1222.3010;-57.6300;-51.5000;-6.1300
1222.5000;-57.5300;-51.4300;-6.1000
1222.6990;-57.4900;-51.3600;-6.1300
1222.8980;-57.4400;-51.2900;-6.1500
1223.0970;-57.3500;-51.2200;-6.1300
1223.2970;-57.2600;-51.1500;-6.1100
1223.4960;-57.1900;-51.0800;-6.1100
1223.6950;-57.1200;-51.0000;-6.1200
1223.8940;-57.0500;-50.9400;-6.1100
1224.0930;-56.9500;-50.8700;-6.0800
1224.2920;-56.8700;-50.8000;-6.0700
1224.4910;-56.8100;-50.7400;-6.0700
1224.6900;-56.7300;-50.6700;-6.0600
1224.8890;-56.6400;-50.6000;-6.0400
1225.0890;-56.5800;-50.5500;-6.0300
1225.2880;-56.5400;-50.4800;-6.0600
1225.4870;-56.4500;-50.4300;-6.0200
1225.6860;-56.3700;-50.3700;-6.0000
1225.8850;-56.3200;-50.3200;-6.0000
1226.0840;-56.2600;-50.2700;-5.9900
1226.2830;-56.1900;-50.2100;-5.9800
1226.4820;-56.1000;-50.1600;-5.9400
1226.6810;-56.0400;-50.1100;-5.9300
1226.8810;-56.0100;-50.0600;-5.9500
1227.0800;-55.8900;-50.0000;-5.8900
1227.2790;-55.8200;-49.9500;-5.8700
1227.4780;-55.7200;-49.8900;-5.8300
1227.6770;-55.6600;-49.8300;-5.8300
1227.8760;-55.5700;-49.7700;-5.8000
1228.0750;-55.4600;-49.7100;-5.7500
1228.2740;-55.3900;-49.6400;-5.7500
1228.4740;-55.2900;-49.5700;-5.7200
1228.6730;-55.1900;-49.4900;-5.7000
1228.8720;-55.0900;-49.4200;-5.6700
1229.0710;-54.9900;-49.3500;-5.6400
1229.2700;-54.9200;-49.2600;-5.6600
1229.4690;-54.8000;-49.1900;-5.6100
1229.6680;-54.7000;-49.1000;-5.6000
1229.8670;-54.6200;-49.0100;-5.6100
1230.0660;-54.5400;-48.9500;-5.5900
1230.2660;-54.4500;-48.8500;-5.6000
1230.4650;-54.3500;-48.7700;-5.5800
1230.6640;-54.2900;-48.6900;-5.6000
1230.8630;-54.2500;-48.6200;-5.6300
1231.0620;-54.1600;-48.5500;-5.6100
1231.2610;-54.1200;-48.4800;-5.6400
1231.4600;-54.0600;-48.4300;-5.6300
1231.6590;-54.0100;-48.3500;-5.6600
1231.8580;-53.9500;-48.2800;-5.6700
1232.0580;-53.9000;-48.2300;-5.6700
1232.2570;-53.8600;-48.1600;-5.7000
1232.4560;-53.8000;-48.1200;-5.6800
1232.6550;-53.7300;-48.0400;-5.6900
1232.8540;-53.6700;-47.9800;-5.6900
1233.0530;-53.6200;-47.9300;-5.6900
1233.2520;-53.5700;-47.8600;-5.7100
1233.4510;-53.4800;-47.8100;-5.6700
1233.6500;-53.4300;-47.7400;-5.6900
1233.8500;-53.3600;-47.6800;-5.6800
1234.0490;-53.2900;-47.6200;-5.6700
1234.2480;-53.2200;-47.5400;-5.6800
1234.4470;-53.1300;-47.4800;-5.6500
1234.6460;-53.0700;-47.4000;-5.6700
1234.8450;-52.9800;-47.3300;-5.6500
1235.0440;-52.8900;-47.2400;-5.6500
1235.2430;-52.8400;-47.1600;-5.6800
1235.4430;-52.7400;-47.0800;-5.6600
1235.6420;-52.6600;-46.9800;-5.6800
1235.8410;-52.5600;-46.9000;-5.6600
1236.0400;-52.4800;-46.8100;-5.6700
1236.2390;-52.3900;-46.7100;-5.6800
1236.4380;-52.2900;-46.6200;-5.6700
1236.6370;-52.2000;-46.5300;-5.6700
1236.8360;-52.1100;-46.4400;-5.6700
1237.0350;-52.0200;-46.3400;-5.6800
1237.2350;-51.9200;-46.2500;-5.6700
1237.4340;-51.8200;-46.1600;-5.6600
1237.6330;-51.7500;-46.0700;-5.6800
1237.8320;-51.6500;-46.0000;-5.6500
1238.0310;-51.5500;-45.8900;-5.6600
1238.2300;-51.4800;-45.8300;-5.6500
1238.4290;-51.3900;-45.7300;-5.6600
1238.6280;-51.3200;-45.6600;-5.6600
1238.8270;-51.2300;-45.5800;-5.6500
1239.0270;-51.1600;-45.5000;-5.6600
1239.2260;-51.0900;-45.4200;-5.6700
1239.4250;-51.0100;-45.3300;-5.6800
1239.6240;-50.9500;-45.2500;-5.7000
1239.8230;-50.8800;-45.1600;-5.7200
1240.0220;-50.8200;-45.0700;-5.7500
1240.2210;-50.7600;-44.9900;-5.7700
1240.4200;-50.6900;-44.8800;-5.8100
1240.6200;-50.6500;-44.8000;-5.8500
1240.8190;-50.5800;-44.6900;-5.8900
1241.0180;-50.5000;-44.5700;-5.9300
1241.2170;-50.4500;-44.4700;-5.9800
1241.4160;-50.3800;-44.3500;-6.0300
1241.6150;-50.3100;-44.2300;-6.0800
1241.8140;-50.2300;-44.1100;-6.1200
1242.0130;-50.1500;-43.9900;-6.1600
1242.2120;-50.0800;-43.8800;-6.2000
1242.4120;-49.9900;-43.7400;-6.2500
1242.6110;-49.9100;-43.6100;-6.3000
1242.8100;-49.8100;-43.4900;-6.3200
1243.0090;-49.7100;-43.3500;-6.3600
1243.2080;-49.6200;-43.2300;-6.3900
1243.4070;-49.5200;-43.0900;-6.4300
1243.6060;-49.4200;-42.9700;-6.4500
1243.8050;-49.3100;-42.8400;-6.4700
1244.0040;-49.1900;-42.7100;-6.4800
1244.2040;-49.0900;-42.6000;-6.4900
1244.4030;-48.9700;-42.4600;-6.5100
1244.6020;-48.8600;-42.3400;-6.5200
1244.8010;-48.7300;-42.2200;-6.5100
1245.0000;-48.6100;-42.0900;-6.5200
1245.1990;-48.4800;-41.9900;-6.4900
1245.3980;-48.3300;-41.8600;-6.4700
1245.5970;-48.1800;-41.7300;-6.4500
1245.7970;-48.0200;-41.6100;-6.4100
1245.9960;-47.8400;-41.4800;-6.3600
1246.1950;-47.6700;-41.3600;-6.3100
1246.3940;-47.4700;-41.2300;-6.2400
1246.5930;-47.2800;-41.0900;-6.1900
1246.7920;-47.0600;-40.9600;-6.1000
1246.9910;-46.8300;-40.8100;-6.0200
1247.1900;-46.6100;-40.6900;-5.9200
1247.3890;-46.3800;-40.5400;-5.8400
1247.5890;-46.1400;-40.3900;-5.7500
1247.7880;-45.8800;-40.2500;-5.6300
1247.9870;-45.6100;-40.0900;-5.5200
1248.1860;-45.3900;-39.9500;-5.4400
1248.3850;-45.1400;-39.7900;-5.3500
1248.5840;-44.8800;-39.6300;-5.2500
1248.7830;-44.6300;-39.4900;-5.1400
1248.9820;-44.4000;-39.3300;-5.0700
1249.1810;-44.1400;-39.1900;-4.9500
1249.3810;-43.9100;-39.0300;-4.8800
1249.5800;-43.6700;-38.8700;-4.8000
1249.7790;-43.4300;-38.7300;-4.7000
1249.9780;-43.2100;-38.5600;-4.6500
1250.1770;-42.9900;-38.4300;-4.5600
1250.3760;-42.7800;-38.2700;-4.5100
1250.5750;-42.5700;-38.1200;-4.4500
1250.7740;-42.3700;-37.9800;-4.3900
1250.9740;-42.2000;-37.8500;-4.3500
1251.1730;-42.0000;-37.7200;-4.2800
1251.3720;-41.8200;-37.5600;-4.2600
1251.5710;-41.6600;-37.4400;-4.2200
1251.7700;-41.4900;-37.2900;-4.2000
1251.9690;-41.3500;-37.1500;-4.2000
1252.1680;-41.1900;-37.0100;-4.1800
1252.3670;-41.0500;-36.8600;-4.1900
1252.5660;-40.9300;-36.7300;-4.2000
1252.7660;-40.8000;-36.5700;-4.2300
1252.9650;-40.7100;-36.4300;-4.2800
1253.1640;-40.6000;-36.2900;-4.3100
1253.3630;-40.5100;-36.1200;-4.3900
1253.5620;-40.4300;-35.9900;-4.4400
1253.7610;-40.3600;-35.8000;-4.5600
1253.9600;-40.3300;-35.6800;-4.6500
1254.1590;-40.2700;-35.5100;-4.7600
1254.3580;-40.2500;-35.3500;-4.9000
1254.5580;-40.2400;-35.2100;-5.0300
1254.7570;-40.2300;-35.0400;-5.1900
1254.9560;-40.2500;-34.8900;-5.3600
1255.1550;-40.2700;-34.7300;-5.5400
1255.3540;-40.3200;-34.5700;-5.7500
1255.5530;-40.3800;-34.4300;-5.9500
1255.7520;-40.4400;-34.2700;-6.1700
1255.9510;-40.5400;-34.1300;-6.4100
1256.1500;-40.6400;-33.9700;-6.6700
1256.3500;-40.7600;-33.8400;-6.9200
1256.5490;-40.8900;-33.7100;-7.1800
1256.7480;-41.0300;-33.5600;-7.4700
1256.9470;-41.1900;-33.4300;-7.7600
1257.1460;-41.3600;-33.2900;-8.0700
1257.3450;-41.5500;-33.1500;-8.4000
1257.5440;-41.7500;-33.0300;-8.7200
1257.7430;-41.9600;-32.8800;-9.0800
1257.9430;-42.1800;-32.7500;-9.4300
1258.1420;-42.4100;-32.6100;-9.8000
1258.3410;-42.6400;-32.4700;-10.1700
1258.5400;-42.8600;-32.3500;-10.5100
1258.7390;-43.0600;-32.2000;-10.8600
1258.9380;-43.2500;-32.0700;-11.1800
1259.1370;-43.4100;-31.9200;-11.4900
1259.3360;-43.5200;-31.7800;-11.7400
1259.5350;-43.5700;-31.6400;-11.9300
1259.7350;-43.5500;-31.4900;-12.0600
1259.9340;-43.4600;-31.3500;-12.1100
1260.1330;-43.3000;-31.2000;-12.1000
1260.3320;-43.0700;-31.0600;-12.0100
1260.5310;-42.7600;-30.9200;-11.8400
1260.7300;-42.4000;-30.7700;-11.6300
1260.9290;-41.9900;-30.6400;-11.3500
1261.1280;-41.5400;-30.4900;-11.0500
1261.3270;-41.0900;-30.3600;-10.7300
1261.5270;-40.6200;-30.2300;-10.3900
1261.7260;-40.1300;-30.1000;-10.0300
1261.9250;-39.6600;-29.9700;-9.6900
1262.1240;-39.1900;-29.8300;-9.3600
1262.3230;-38.7500;-29.7100;-9.0400
1262.5220;-38.3000;-29.5900;-8.7100
1262.7210;-37.8800;-29.4600;-8.4200
1262.9200;-37.4600;-29.3500;-8.1100
1263.1200;-37.0700;-29.2200;-7.8500
1263.3190;-36.7000;-29.1000;-7.6000
1263.5180;-36.3400;-28.9800;-7.3600
1263.7170;-35.9500;-28.8600;-7.0900
1263.9160;-35.6800;-28.7400;-6.9400
1264.1150;-35.3900;-28.6000;-6.7900
1264.3140;-35.1000;-28.4800;-6.6200
1264.5130;-34.8300;-28.3500;-6.4800
1264.7120;-34.5900;-28.2200;-6.3700
1264.9120;-34.3500;-28.1000;-6.2500
1265.1110;-34.1500;-27.9600;-6.1900
1265.3100;-33.9400;-27.8300;-6.1100
1265.5090;-33.7800;-27.7000;-6.0800
1265.7080;-33.6300;-27.5700;-6.0600
1265.9070;-33.4900;-27.4400;-6.0500
1266.1060;-33.3900;-27.3000;-6.0900
1266.3050;-33.2800;-27.1800;-6.1000
1266.5040;-33.2200;-27.0500;-6.1700
1266.7040;-33.1900;-26.9300;-6.2600
1266.9030;-33.1600;-26.8000;-6.3600
1267.1020;-33.1700;-26.6700;-6.5000
1267.3010;-33.1800;-26.5600;-6.6200
1267.5000;-33.2300;-26.4300;-6.8000
1267.6990;-33.3100;-26.3200;-6.9900
1267.8980;-33.4000;-26.2000;-7.2000
1268.0970;-33.5500;-26.0700;-7.4800
1268.2970;-33.6900;-25.9700;-7.7200
1268.4960;-33.8800;-25.8600;-8.0200
1268.6950;-34.0900;-25.7500;-8.3400
1268.8940;-34.3300;-25.6200;-8.7100
1269.0930;-34.6200;-25.5100;-9.1100
1269.2920;-34.9200;-25.3900;-9.5300
1269.4910;-35.2800;-25.2800;-10.0000
1269.6900;-35.6800;-25.1700;-10.5100
1269.8890;-36.1000;-25.0400;-11.0600
1270.0890;-36.5800;-24.9200;-11.6600
1270.2880;-37.0800;-24.8000;-12.2800
1270.4870;-37.6300;-24.6900;-12.9400
1270.6860;-38.3100;-24.5700;-13.7400
1270.8850;-38.7700;-24.4400;-14.3300
1271.0840;-39.2900;-24.3200;-14.9700
1271.2830;-39.7100;-24.2000;-15.5100
1271.4820;-39.9800;-24.0800;-15.9000
1271.6810;-40.0000;-23.9700;-16.0300
1271.8810;-39.7700;-23.8300;-15.9400
1272.0800;-39.3000;-23.7300;-15.5700
1272.2790;-38.6300;-23.6100;-15.0200
1272.4780;-37.8600;-23.4900;-14.3700
1272.6770;-36.9900;-23.3900;-13.6000
1272.8760;-36.1300;-23.2700;-12.8600
1273.0750;-35.1200;-23.1700;-11.9500
1273.2740;-34.4300;-23.0600;-11.3700
1273.4740;-33.6200;-22.9500;-10.6700
1273.6730;-32.8400;-22.8600;-9.9800
1273.8720;-32.1300;-22.7500;-9.3800
1274.0710;-31.4300;-22.6600;-8.7700
1274.2700;-30.7800;-22.5500;-8.2300
1274.4690;-30.1500;-22.4500;-7.7000
1274.6680;-29.5700;-22.3600;-7.2100
1274.8670;-29.0100;-22.2500;-6.7600
1275.0660;-28.4800;-22.1700;-6.3100
1275.2660;-27.9800;-22.0600;-5.9200
1275.4650;-27.5000;-21.9600;-5.5400
1275.6640;-27.0500;-21.8700;-5.1800
1275.8630;-26.6300;-21.7700;-4.8600
1276.0620;-26.2200;-21.6800;-4.5400
1276.2610;-25.7900;-21.5800;-4.2100
1276.4600;-25.4800;-21.4800;-4.0000
1276.6590;-25.1600;-21.3800;-3.7800
1276.8580;-24.8300;-21.2800;-3.5500
1277.0580;-24.5400;-21.2000;-3.3400
1277.2570;-24.2500;-21.0900;-3.1600
1277.4560;-23.9900;-21.0100;-2.9800
1277.6550;-23.7600;-20.9200;-2.8400
1277.8540;-23.5300;-20.8300;-2.7000
1278.0530;-23.3200;-20.7500;-2.5700
1278.2520;-23.1200;-20.6600;-2.4600
1278.4510;-22.9400;-20.5800;-2.3600
1278.6500;-22.7900;-20.4900;-2.3000
1278.8500;-22.6300;-20.4100;-2.2200
1279.0490;-22.5000;-20.3400;-2.1600
1279.2480;-22.3700;-20.2500;-2.1200
1279.4470;-22.2600;-20.1900;-2.0700
1279.6460;-22.1700;-20.1000;-2.0700
1279.8450;-22.0800;-20.0200;-2.0600
1280.0440;-22.0200;-19.9500;-2.0700
1280.2430;-21.9600;-19.8700;-2.0900
1280.4430;-21.9200;-19.8100;-2.1100
1280.6420;-21.9000;-19.7200;-2.1800
1280.8410;-21.8800;-19.6400;-2.2400
1281.0400;-21.9000;-19.5700;-2.3300
1281.2390;-21.9000;-19.4900;-2.4100
1281.4380;-21.9400;-19.4200;-2.5200
1281.6370;-22.0000;-19.3300;-2.6700
1281.8360;-22.0600;-19.2500;-2.8100
1282.0350;-22.1600;-19.1700;-2.9900
1282.2350;-22.2600;-19.0800;-3.1800
1282.4340;-22.3900;-19.0200;-3.3700
1282.6330;-22.5500;-18.9400;-3.6100
1282.8320;-22.7100;-18.8600;-3.8500
1283.0310;-22.9200;-18.7800;-4.1400
1283.2300;-23.1200;-18.7000;-4.4200
1283.4290;-23.3700;-18.6400;-4.7300
1283.6280;-23.6300;-18.5500;-5.0800
1283.8270;-23.9200;-18.4900;-5.4300
1284.0270;-24.2500;-18.4100;-5.8400
1284.2260;-24.6000;-18.3300;-6.2700
1284.4250;-24.9800;-18.2800;-6.7000
1284.6240;-25.4000;-18.2000;-7.2000
1284.8230;-25.8400;-18.1300;-7.7100
1285.0220;-26.3300;-18.0500;-8.2800
1285.2210;-26.8500;-17.9800;-8.8700
1285.4200;-27.4000;-17.9200;-9.4800
1285.6200;-27.9700;-17.8400;-10.1300
1285.8190;-28.6800;-17.7800;-10.9000
1286.0180;-29.1700;-17.7000;-11.4700
1286.2170;-29.7300;-17.6300;-12.1000
1286.4160;-30.2400;-17.5700;-12.6700
1286.6150;-30.6300;-17.5000;-13.1300
1286.8140;-30.8500;-17.4400;-13.4100
1287.0130;-30.8600;-17.3600;-13.5000
1287.2120;-30.6400;-17.2900;-13.3500
1287.4120;-30.2300;-17.2200;-13.0100
1287.6110;-29.6500;-17.1500;-12.5000
1287.8100;-28.9800;-17.1000;-11.8800
1288.0090;-28.2500;-17.0200;-11.2300
1288.2080;-27.5000;-16.9600;-10.5400
1288.4070;-26.7800;-16.9000;-9.8800
1288.6060;-25.9200;-16.8300;-9.0900
1288.8050;-25.3700;-16.7800;-8.5900
1289.0040;-24.7100;-16.7100;-8.0000
1289.2040;-24.0900;-16.6600;-7.4300
1289.4030;-23.5000;-16.6000;-6.9000
1289.6020;-22.9500;-16.5500;-6.4000
1289.8010;-22.4400;-16.5000;-5.9400
1290.0000;-21.9500;-16.4300;-5.5200
1290.1990;-21.4900;-16.3900;-5.1000
1290.3980;-21.0600;-16.3300;-4.7300
1290.5970;-20.6500;-16.2900;-4.3600
1290.7970;-20.2800;-16.2500;-4.0300
1290.9960;-19.9000;-16.1800;-3.7200
1291.1950;-19.5600;-16.1400;-3.4200
1291.3940;-19.2300;-16.0800;-3.1500
1291.5930;-18.9200;-16.0400;-2.8800
1291.7920;-18.6400;-15.9800;-2.6600
1291.9910;-18.3700;-15.9400;-2.4300
1292.1900;-18.1300;-15.8900;-2.2400
1292.3890;-17.8900;-15.8500;-2.0400
1292.5890;-17.6700;-15.8000;-1.8700
1292.7880;-17.4700;-15.7500;-1.7200
1292.9870;-17.2700;-15.7100;-1.5600
1293.1860;-17.1100;-15.6600;-1.4500
1293.3850;-16.9400;-15.6200;-1.3200
1293.5840;-16.7900;-15.5800;-1.2100
1293.7830;-16.6500;-15.5300;-1.1200
1293.9820;-16.5200;-15.5000;-1.0200
1294.1810;-16.4200;-15.4500;-0.9700
1294.3810;-16.3100;-15.4200;-0.8900
1294.5800;-16.2000;-15.3800;-0.8200
1294.7790;-16.1000;-15.3400;-0.7600
1294.9780;-16.0500;-15.3100;-0.7400
1295.1770;-15.9700;-15.2700;-0.7000
1295.3760;-15.9000;-15.2400;-0.6600
1295.5750;-15.8400;-15.2000;-0.6400
1295.7740;-15.7900;-15.1600;-0.6300
1295.9740;-15.7400;-15.1300;-0.6100
1296.1730;-15.6900;-15.0800;-0.6100
1296.3720;-15.6600;-15.0600;-0.6000
1296.5710;-15.6200;-15.0200;-0.6000
1296.7700;-15.5800;-14.9800;-0.6000
1296.9690;-15.5700;-14.9600;-0.6100
1297.1680;-15.5400;-14.9300;-0.6100
1297.3670;-15.5300;-14.9000;-0.6300
1297.5660;-15.5000;-14.8500;-0.6500
1297.7660;-15.4700;-14.8200;-0.6500
1297.9650;-15.4700;-14.8000;-0.6700
1298.1640;-15.4500;-14.7600;-0.6900
1298.3630;-15.4400;-14.7400;-0.7000
1298.5620;-15.4100;-14.7000;-0.7100
1298.7610;-15.3900;-14.6700;-0.7200
1298.9600;-15.3900;-14.6500;-0.7400
1299.1590;-15.3700;-14.6200;-0.7500
1299.3580;-15.3600;-14.6000;-0.7600
1299.5580;-15.3200;-14.5600;-0.7600
1299.7570;-15.3100;-14.5400;-0.7700
1299.9560;-15.3000;-14.5200;-0.7800
1300.1550;-15.2700;-14.4900;-0.7800
1300.3540;-15.2600;-14.4800;-0.7800
1300.5530;-15.2100;-14.4300;-0.7800
1300.7520;-15.1800;-14.4100;-0.7700
1300.9510;-15.1600;-14.3900;-0.7700
1301.1500;-15.1300;-14.3800;-0.7500
1301.3500;-15.1200;-14.3700;-0.7500
1301.5490;-15.0800;-14.3500;-0.7300
1301.7480;-15.0600;-14.3400;-0.7200
1301.9470;-15.0300;-14.3200;-0.7100
1302.1460;-15.0100;-14.3100;-0.7000
1302.3450;-15.0000;-14.3000;-0.7000
1302.5440;-14.9800;-14.2800;-0.7000
1302.7430;-14.9700;-14.2800;-0.6900
1302.9430;-14.9400;-14.2600;-0.6800
1303.1420;-14.9400;-14.2500;-0.6900
1303.3410;-14.9500;-14.2400;-0.7100
1303.5400;-14.9500;-14.2400;-0.7100
1303.7390;-14.9600;-14.2400;-0.7200
1303.9380;-14.9700;-14.2100;-0.7600
1304.1370;-14.9900;-14.2200;-0.7700
1304.3360;-15.0200;-14.2100;-0.8100
1304.5350;-15.0600;-14.2100;-0.8500
1304.7350;-15.1100;-14.2200;-0.8900
1304.9340;-15.1400;-14.2100;-0.9300
1305.1330;-15.2100;-14.2200;-0.9900
1305.3320;-15.2700;-14.2100;-1.0600
1305.5310;-15.3400;-14.2200;-1.1200
1305.7300;-15.4300;-14.2300;-1.2000
1305.9290;-15.5200;-14.2200;-1.3000
1306.1280;-15.6300;-14.2400;-1.3900
1306.3270;-15.7300;-14.2400;-1.4900
1306.5270;-15.8600;-14.2500;-1.6100
1306.7260;-16.0100;-14.2600;-1.7500
1306.9250;-16.1500;-14.2600;-1.8900
1307.1240;-16.3200;-14.2800;-2.0400
1307.3230;-16.4800;-14.2800;-2.2000
1307.5220;-16.6900;-14.3000;-2.3900
1307.7210;-16.9000;-14.3100;-2.5900
1307.9200;-17.1100;-14.3100;-2.8000
1308.1200;-17.3700;-14.3500;-3.0200
1308.3190;-17.6100;-14.3500;-3.2600
1308.5180;-17.8900;-14.3700;-3.5200
1308.7170;-18.1800;-14.3800;-3.8000
1308.9160;-18.5500;-14.3900;-4.1600
1309.1150;-18.8300;-14.4300;-4.4000
1309.3140;-19.1700;-14.4300;-4.7400
1309.5130;-19.5600;-14.4700;-5.0900
1309.7120;-19.9300;-14.4800;-5.4500
1309.9120;-20.3500;-14.5000;-5.8500
1310.1110;-20.7800;-14.5400;-6.2400
1310.3100;-21.2200;-14.5500;-6.6700
1310.5090;-21.7100;-14.5900;-7.1200
1310.7080;-22.1800;-14.6000;-7.5800
1310.9070;-22.6800;-14.6200;-8.0600
1311.1060;-23.1900;-14.6600;-8.5300
1311.3050;-23.7000;-14.6700;-9.0300
1311.5040;-24.2200;-14.7200;-9.5000
1311.7040;-24.6800;-14.7300;-9.9500
1311.9030;-25.1200;-14.7700;-10.3500
1312.1020;-25.4700;-14.7900;-10.6800
1312.3010;-25.7500;-14.8200;-10.9300
1312.5000;-25.9300;-14.8700;-11.0600
1312.6990;-25.9800;-14.9000;-11.0800
1312.8980;-25.9300;-14.9400;-10.9900
1313.0970;-25.7500;-14.9600;-10.7900
1313.2970;-25.4800;-15.0000;-10.4800
1313.4960;-25.1400;-15.0500;-10.0900
1313.6950;-24.7500;-15.0800;-9.6700
1313.8940;-24.3400;-15.1300;-9.2100
1314.0930;-23.9000;-15.1600;-8.7400
1314.2920;-23.4700;-15.2100;-8.2600
1314.4910;-23.0300;-15.2600;-7.7700
1314.6900;-22.6200;-15.3000;-7.3200
1314.8890;-22.2100;-15.3500;-6.8600
1315.0890;-21.8200;-15.3800;-6.4400
1315.2880;-21.4700;-15.4400;-6.0300
1315.4870;-21.1200;-15.4800;-5.6400
1315.6860;-20.8100;-15.5300;-5.2800
1315.8850;-20.5100;-15.5800;-4.9300
1316.0840;-20.2300;-15.6300;-4.6000
1316.2830;-19.9900;-15.6900;-4.3000
1316.4820;-19.7600;-15.7400;-4.0200
1316.6810;-19.5600;-15.7900;-3.7700
1316.8810;-19.3600;-15.8500;-3.5100
1317.0800;-19.1900;-15.9100;-3.2800
1317.2790;-19.0500;-15.9800;-3.0700
1317.4780;-18.9100;-16.0400;-2.8700
1317.6770;-18.8000;-16.1100;-2.6900
1317.8760;-18.6900;-16.1600;-2.5300
1318.0750;-18.6000;-16.2200;-2.3800
1318.2740;-18.5300;-16.2900;-2.2400
1318.4740;-18.4600;-16.3500;-2.1100
1318.6730;-18.4400;-16.4500;-1.9900
1318.8720;-18.4000;-16.5000;-1.9000
1319.0710;-18.4000;-16.5800;-1.8200
1319.2700;-18.3900;-16.6500;-1.7400
1319.4690;-18.4000;-16.7200;-1.6800
1319.6680;-18.4400;-16.8100;-1.6300
1319.8670;-18.4600;-16.8800;-1.5800
1320.0660;-18.5100;-16.9600;-1.5500
1320.2660;-18.5600;-17.0300;-1.5300
1320.4650;-18.6300;-17.1100;-1.5200
1320.6640;-18.7300;-17.2100;-1.5200
1320.8630;-18.8100;-17.2900;-1.5200
1321.0620;-18.9200;-17.3800;-1.5400
1321.2610;-19.0200;-17.4500;-1.5700
1321.4600;-19.1400;-17.5500;-1.5900
1321.6590;-19.2600;-17.6300;-1.6300
1321.8580;-19.3900;-17.7100;-1.6800
1322.0580;-19.5500;-17.8200;-1.7300
1322.2570;-19.6800;-17.9000;-1.7800
1322.4560;-19.8500;-18.0100;-1.8400
1322.6550;-20.0000;-18.0900;-1.9100
1322.8540;-20.1600;-18.1900;-1.9700
1323.0530;-20.3400;-18.2900;-2.0500
1323.2520;-20.5100;-18.3900;-2.1200
1323.4510;-20.6900;-18.5100;-2.1800
1323.6500;-20.8600;-18.5900;-2.2700
1323.8500;-21.0400;-18.7000;-2.3400
1324.0490;-21.2300;-18.8000;-2.4300
1324.2480;-21.4100;-18.9100;-2.5000
1324.4470;-21.5900;-19.0200;-2.5700
1324.6460;-21.7600;-19.1200;-2.6400
1324.8450;-21.9300;-19.2400;-2.6900
1325.0440;-22.0900;-19.3400;-2.7500
1325.2430;-22.2500;-19.4600;-2.7900
1325.4430;-22.4200;-19.5700;-2.8500
1325.6420;-22.5700;-19.6900;-2.8800
1325.8410;-22.7100;-19.8100;-2.9000
1326.0400;-22.8400;-19.9200;-2.9200
1326.2390;-22.9600;-20.0500;-2.9100
1326.4380;-23.0900;-20.1600;-2.9300
1326.6370;-23.1900;-20.2800;-2.9100
1326.8360;-23.3100;-20.4000;-2.9100
1327.0350;-23.4000;-20.5200;-2.8800
1327.2350;-23.4900;-20.6600;-2.8300
1327.4340;-23.5800;-20.7700;-2.8100
1327.6330;-23.6600;-20.9000;-2.7600
1327.8320;-23.7500;-21.0200;-2.7300
1328.0310;-23.8100;-21.1500;-2.6600
1328.2300;-23.8900;-21.2900;-2.6000
1328.4290;-23.9600;-21.4100;-2.5500
1328.6280;-24.0300;-21.5600;-2.4700
1328.8270;-24.1100;-21.6800;-2.4300
1329.0270;-24.1700;-21.8100;-2.3600
1329.2260;-24.2500;-21.9600;-2.2900
1329.4250;-24.3200;-22.0800;-2.2400
1329.6240;-24.3900;-22.2300;-2.1600
1329.8230;-24.4700;-22.3500;-2.1200
1330.0220;-24.5500;-22.4900;-2.0600
1330.2210;-24.6500;-22.6400;-2.0100
1330.4200;-24.7300;-22.7700;-1.9600
1330.6200;-24.8200;-22.9200;-1.9000
1330.8190;-24.9300;-23.0600;-1.8700
1331.0180;-25.0300;-23.2100;-1.8200
1331.2170;-25.1600;-23.3500;-1.8100
1331.4160;-25.2700;-23.5000;-1.7700
1331.6150;-25.4000;-23.6500;-1.7500
1331.8140;-25.5200;-23.7900;-1.7300
1332.0130;-25.6600;-23.9600;-1.7000
1332.2120;-25.8100;-24.0900;-1.7200
1332.4120;-25.9600;-24.2500;-1.7100
1332.6110;-26.1300;-24.4100;-1.7200
1332.8100;-26.2800;-24.5600;-1.7200
1333.0090;-26.4500;-24.7300;-1.7200
1333.2080;-26.6200;-24.8700;-1.7500
1333.4070;-26.7900;-25.0300;-1.7600
1333.6060;-26.9700;-25.1800;-1.7900
1333.8050;-27.1600;-25.3400;-1.8200
1334.0040;-27.3600;-25.5100;-1.8500
1334.2040;-27.5400;-25.6600;-1.8800
1334.4030;-27.7300;-25.8300;-1.9000
1334.6020;-27.9300;-25.9800;-1.9500
1334.8010;-28.1200;-26.1400;-1.9800
1335.0000;-28.3300;-26.3100;-2.0200
1335.1990;-28.5700;-26.4600;-2.1100
1335.3980;-28.7400;-26.6400;-2.1000
1335.5970;-28.9300;-26.7900;-2.1400
1335.7970;-29.1400;-26.9600;-2.1800
1335.9960;-29.3300;-27.1300;-2.2000
1336.1950;-29.5200;-27.2900;-2.2300
1336.3940;-29.7100;-27.4500;-2.2600
1336.5930;-29.8900;-27.6100;-2.2800
1336.7920;-30.0700;-27.7900;-2.2800
1336.9910;-30.2400;-27.9400;-2.3000
1337.1900;-30.4100;-28.1100;-2.3000
1337.3890;-30.5700;-28.2800;-2.2900
1337.5890;-30.7200;-28.4400;-2.2800
1337.7880;-30.8800;-28.6500;-2.2300
1337.9870;-31.0200;-28.7900;-2.2300
1338.1860;-31.1700;-28.9600;-2.2100
1338.3850;-31.2900;-29.1300;-2.1600
1338.5840;-31.4100;-29.3100;-2.1000
1338.7830;-31.5400;-29.4700;-2.0700
1338.9820;-31.6500;-29.6400;-2.0100
1339.1810;-31.7800;-29.8200;-1.9600
1339.3810;-31.8800;-29.9900;-1.8900
1339.5800;-32.0000;-30.1700;-1.8300
1339.7790;-32.1000;-30.3300;-1.7700
1339.9780;-32.2100;-30.5200;-1.6900
1340.1770;-32.3300;-30.6900;-1.6400
1340.3760;-32.4300;-30.8600;-1.5700
1340.5750;-32.5600;-31.0600;-1.5000
1340.7740;-32.6600;-31.2200;-1.4400
1340.9740;-32.7700;-31.4000;-1.3700
1341.1730;-32.8900;-31.5700;-1.3200
1341.3720;-33.0100;-31.7400;-1.2700
1341.5710;-33.1500;-31.9200;-1.2300
1341.7700;-33.2700;-32.0900;-1.1800
1341.9690;-33.4100;-32.2800;-1.1300
1342.1680;-33.5500;-32.4400;-1.1100
1342.3670;-33.7000;-32.6200;-1.0800
1342.5660;-33.8600;-32.7900;-1.0700
1342.7660;-34.0200;-32.9700;-1.0500
1342.9650;-34.2000;-33.1600;-1.0400
1343.1640;-34.3900;-33.3300;-1.0600
1343.3630;-34.5700;-33.5100;-1.0600
1343.5620;-34.7800;-33.6800;-1.1000
1343.7610;-34.9900;-33.8500;-1.1400
1343.9600;-35.2300;-34.0500;-1.1800
1344.1590;-35.4500;-34.2200;-1.2300
1344.3580;-35.7000;-34.4100;-1.2900
1344.5580;-35.9600;-34.5800;-1.3800
1344.7570;-36.2200;-34.7700;-1.4500
1344.9560;-36.5100;-34.9400;-1.5700
1345.1550;-36.7900;-35.1000;-1.6900
1345.3540;-37.0900;-35.2800;-1.8100
1345.5530;-37.3900;-35.4400;-1.9500
1345.7520;-37.7300;-35.6300;-2.1000
1345.9510;-38.0700;-35.8000;-2.2700
1346.1500;-38.5000;-35.9700;-2.5300
1346.3500;-38.8200;-36.1600;-2.6600
1346.5490;-39.2200;-36.3400;-2.8800
1346.7480;-39.6300;-36.5100;-3.1200
1346.9470;-40.0500;-36.6800;-3.3700
1347.1460;-40.4900;-36.8500;-3.6400
1347.3450;-40.9400;-37.0000;-3.9400
1347.5440;-41.4500;-37.2100;-4.2400
1347.7430;-42.0100;-37.4400;-4.5700
1347.9430;-42.5600;-37.6300;-4.9300
1348.1420;-43.1300;-37.8000;-5.3300
1348.3410;-43.7300;-37.9800;-5.7500
1348.5400;-44.3100;-38.1100;-6.2000
1348.7390;-44.9400;-38.2700;-6.6700
1348.9380;-45.5900;-38.4600;-7.1300
1349.1370;-46.3000;-38.5900;-7.7100
1349.3360;-47.0200;-38.7200;-8.3000
1349.5350;-47.8000;-38.8700;-8.9300
1349.7350;-48.8100;-39.0200;-9.7900
1349.9340;-49.5200;-39.1900;-10.3300
1350.1330;-50.4700;-39.3900;-11.0800
1350.3320;-51.4800;-39.6100;-11.8700
1350.5310;-52.5400;-39.8100;-12.7300
1350.7300;-53.6200;-39.9700;-13.6500
1350.9290;-54.6600;-40.1100;-14.5500
1351.1280;-55.6200;-40.2200;-15.4000
1351.3270;-56.4000;-40.3600;-16.0400
1351.5270;-56.9600;-40.5400;-16.4200
1351.7260;-57.2200;-40.7500;-16.4700
1351.9250;-57.1000;-40.9200;-16.1800
1352.1240;-56.6900;-41.0900;-15.6000
1352.3230;-56.1000;-41.2500;-14.8500
1352.5220;-55.5200;-41.4500;-14.0700
1352.7210;-54.8000;-41.5800;-13.2200
1352.9200;-54.1300;-41.7300;-12.4000
1353.1200;-53.6100;-41.9800;-11.6300
1353.3190;-53.0000;-42.0700;-10.9300
1353.5180;-52.4800;-42.2300;-10.2500
1353.7170;-52.0200;-42.4000;-9.6200
1353.9160;-51.5800;-42.4900;-9.0900
1354.1150;-51.2100;-42.6200;-8.5900
1354.3140;-50.9700;-42.8400;-8.1300
1354.5130;-50.7100;-43.0200;-7.6900
1354.7120;-50.6000;-43.3100;-7.2900
1354.9120;-50.4700;-43.6000;-6.8700
1355.1110;-50.3000;-43.7500;-6.5500
1355.3100;-50.1000;-43.8800;-6.2200
1355.5090;-49.8500;-43.8500;-6.0000
1355.7080;-49.8400;-44.1100;-5.7300
1355.9070;-49.9100;-44.3700;-5.5400
1356.1060;-49.8400;-44.5200;-5.3200
1356.3050;-49.7500;-44.6000;-5.1500
1356.5040;-49.6600;-44.6800;-4.9800
1356.7040;-49.4600;-44.6000;-4.8600
1356.9030;-49.4600;-44.7300;-4.7300
1357.1020;-49.7200;-45.0900;-4.6300
1357.3010;-49.8800;-45.3100;-4.5700
1357.5000;-49.9900;-45.4700;-4.5200
1357.6990;-50.1000;-45.6500;-4.4500
1357.8980;-50.1800;-45.6800;-4.5000
1358.0970;-50.2100;-45.7300;-4.4800
1358.2970;-50.3900;-45.9000;-4.4900
1358.4960;-50.6700;-46.1200;-4.5500
1358.6950;-50.8500;-46.2500;-4.6000
1358.8940;-51.0900;-46.3800;-4.7100
1359.0930;-51.3300;-46.5200;-4.8100
1359.2920;-51.4800;-46.5500;-4.9300
1359.4910;-51.9300;-46.9100;-5.0200
1359.6900;-52.4000;-47.2000;-5.2000
1359.8890;-52.8000;-47.3800;-5.4200
1360.0890;-53.0900;-47.4300;-5.6600
1360.2880;-53.3700;-47.4300;-5.9400
1360.4870;-53.5800;-47.4100;-6.1700
1360.6860;-53.9600;-47.5600;-6.4000
1360.8850;-54.5800;-47.8900;-6.6900
1361.0840;-55.2100;-48.1900;-7.0200
1361.2830;-55.7800;-48.3400;-7.4400
1361.4820;-56.3400;-48.5500;-7.7900
1361.6810;-56.9100;-48.6800;-8.2300
1361.8810;-57.4700;-48.8200;-8.6500
1362.0800;-58.1400;-49.0200;-9.1200
1362.2790;-59.1900;-49.4200;-9.7700
1362.4780;-59.8200;-49.6600;-10.1600
1362.6770;-60.4000;-49.7700;-10.6300
1362.8760;-60.8100;-49.6400;-11.1700
1363.0750;-61.2200;-49.5500;-11.6700
1363.2740;-61.2900;-49.3200;-11.9700
1363.4740;-61.6400;-49.3700;-12.2700
1363.6730;-61.9300;-49.4500;-12.4800
1363.8720;-62.0600;-49.5900;-12.4700
1364.0710;-62.1400;-49.7800;-12.3600
1364.2700;-62.0700;-49.9800;-12.0900
1364.4690;-62.0200;-50.2700;-11.7500
1364.6680;-62.1100;-50.7700;-11.3400
1364.8670;-61.8200;-50.9700;-10.8500
1365.0660;-61.2100;-50.9300;-10.2800
1365.2660;-60.7900;-51.0900;-9.7000
1365.4650;-60.2200;-51.0100;-9.2100
1365.6640;-59.7500;-51.0800;-8.6700
1365.8630;-59.2600;-51.1000;-8.1600
1366.0620;-58.7600;-51.0800;-7.6800
1366.2610;-58.3000;-51.0600;-7.2400
1366.4600;-57.9000;-51.1100;-6.7900
1366.6590;-57.6400;-51.2800;-6.3600
1366.8580;-57.4800;-51.4900;-5.9900
1367.0580;-57.2400;-51.6200;-5.6200
1367.2570;-56.9800;-51.7100;-5.2700
1367.4560;-56.8900;-51.9700;-4.9200
1367.6550;-56.7600;-52.1500;-4.6100
1367.8540;-56.7500;-52.4000;-4.3500
1368.0530;-56.5700;-52.5200;-4.0500
1368.2520;-56.2400;-52.4700;-3.7700
1368.4510;-56.3800;-52.8100;-3.5700
1368.6500;-56.2900;-52.8800;-3.4100
1368.8500;-56.1900;-52.9700;-3.2200
1369.0490;-55.9900;-52.9500;-3.0400
1369.2480;-55.8200;-52.8900;-2.9300
1369.4470;-55.5800;-52.8200;-2.7600
1369.6460;-55.5200;-52.9000;-2.6200
1369.8450;-55.7100;-53.2300;-2.4800
1370.0440;-55.8000;-53.4100;-2.3900
1370.2430;-55.8200;-53.5300;-2.2900
1370.4430;-55.7900;-53.5800;-2.2100
1370.6420;-55.7400;-53.5900;-2.1500
1370.8410;-55.9600;-53.9000;-2.0600
1371.0400;-56.1700;-54.1600;-2.0100
1371.2390;-56.3200;-54.3300;-1.9900
1371.4380;-56.2900;-54.3500;-1.9400
1371.6370;-56.2900;-54.2900;-2.0000
1371.8360;-56.1900;-54.2800;-1.9100
1372.0350;-56.3600;-54.4500;-1.9100
1372.2350;-56.5800;-54.6600;-1.9200
1372.4340;-56.7000;-54.7400;-1.9600
1372.6330;-56.8000;-54.8200;-1.9800
1372.8320;-56.8600;-54.8500;-2.0100
1373.0310;-56.9400;-54.8700;-2.0700
1373.2300;-57.0900;-55.0200;-2.0700
1373.4290;-57.2800;-55.1400;-2.1400
1373.6280;-57.4600;-55.2600;-2.2000
1373.8270;-57.5900;-55.3300;-2.2600
1374.0270;-57.7700;-55.4400;-2.3300
1374.2260;-57.9100;-55.5300;-2.3800
1374.4250;-58.1200;-55.6700;-2.4500
1374.6240;-58.3200;-55.8100;-2.5100
1374.8230;-58.6400;-55.9900;-2.6500
1375.0220;-58.8400;-56.1700;-2.6700
1375.2210;-59.0000;-56.2400;-2.7600
1375.4200;-59.1500;-56.3000;-2.8500
1375.6200;-59.2800;-56.3800;-2.9000
1375.8190;-59.4400;-56.4800;-2.9600
1376.0180;-59.6400;-56.6300;-3.0100
1376.2170;-59.8200;-56.7700;-3.0500
1376.4160;-60.0000;-56.8700;-3.1300
1376.6150;-60.1600;-56.9600;-3.2000
1376.8140;-60.3200;-57.1100;-3.2100
1377.0130;-60.5800;-57.3400;-3.2400
1377.2120;-60.8000;-57.5100;-3.2900
1377.4120;-60.9100;-57.6000;-3.3100
1377.6110;-60.9700;-57.6400;-3.3300
1377.8100;-60.9500;-57.6100;-3.3400
1378.0090;-61.0000;-57.6600;-3.3400
1378.2080;-61.1000;-57.7600;-3.3400
1378.4070;-61.2200;-57.9300;-3.2900
1378.6060;-61.4300;-58.1800;-3.2500
1378.8050;-61.6800;-58.5400;-3.1400
1379.0040;-61.8000;-58.6100;-3.1900
1379.2040;-61.8100;-58.6600;-3.1500
1379.4030;-61.7400;-58.6400;-3.1000
1379.6020;-61.6500;-58.6200;-3.0300
1379.8010;-61.6500;-58.6300;-3.0200
1380.0000;-61.7000;-58.7700;-2.9300
1380.1990;-61.8400;-58.9500;-2.8900
1380.3980;-61.9600;-59.1500;-2.8100
1380.5970;-62.3900;-59.7300;-2.6600
1380.7970;-62.8500;-60.1400;-2.7100
1380.9960;-62.9300;-60.3000;-2.6300
1381.1950;-62.9500;-60.2900;-2.6600
1381.3940;-62.6400;-60.0000;-2.6400
1381.5930;-62.3600;-59.7500;-2.6100
1381.7920;-62.3700;-59.8000;-2.5700
1381.9910;-62.3500;-59.8400;-2.5100
1382.1900;-62.4500;-59.9400;-2.5100
1382.3890;-62.7100;-60.2600;-2.4500
1382.5890;-63.1900;-60.8000;-2.3900
1382.7880;-63.7300;-61.2900;-2.4400
1382.9870;-63.9200;-61.5000;-2.4200
1383.1860;-63.7600;-61.2600;-2.5000
1383.3850;-63.5600;-60.9800;-2.5800
1383.5840;-63.3700;-60.7700;-2.6000
1383.7830;-63.4900;-60.9300;-2.5600
1383.9820;-63.6800;-61.0300;-2.6500
1384.1810;-63.8100;-61.0800;-2.7300
1384.3810;-63.8500;-61.1100;-2.7400
1384.5800;-63.8700;-61.0400;-2.8300
1384.7790;-63.9500;-61.1700;-2.7800
1384.9780;-64.3400;-61.4200;-2.9200
1385.1770;-64.6300;-61.6400;-2.9900
1385.3760;-64.8200;-61.7600;-3.0600
1385.5750;-64.8600;-61.7100;-3.1500
1385.7740;-65.0100;-61.7400;-3.2700
1385.9740;-65.1300;-61.7300;-3.4000
1386.1730;-65.2400;-61.7700;-3.4700
1386.3720;-65.4700;-61.8800;-3.5900
1386.5710;-65.6600;-61.9200;-3.7400
1386.7700;-65.7000;-61.9700;-3.7300
1386.9690;-65.9300;-62.0000;-3.9300
1387.1680;-66.0100;-62.0200;-3.9900
1387.3670;-66.1100;-62.0900;-4.0200
1387.5660;-66.3000;-62.1500;-4.1500
1387.7660;-66.6200;-62.4300;-4.1900
1387.9650;-66.9600;-62.6800;-4.2800
1388.1640;-67.2600;-62.9600;-4.3000
1388.3630;-67.4700;-63.0600;-4.4100
1388.5620;-67.4700;-63.0100;-4.4600
1388.7610;-67.4000;-62.8800;-4.5200
1388.9600;-67.4100;-62.8300;-4.5800
1389.1590;-67.4000;-62.8000;-4.6000
1389.3580;-67.4300;-62.8100;-4.6200
1389.5580;-67.4200;-62.8600;-4.5600
1389.7570;-67.5000;-62.9900;-4.5100
1389.9560;-67.5800;-63.1700;-4.4100
1390.1550;-67.5400;-63.2200;-4.3200
1390.3540;-67.5400;-63.2400;-4.3000
1390.5530;-67.5400;-63.3300;-4.2100
1390.7520;-67.4700;-63.2800;-4.1900
1390.9510;-67.4700;-63.4100;-4.0600
1391.1500;-67.4100;-63.4500;-3.9600
1391.3500;-67.4100;-63.4900;-3.9200
1391.5490;-67.4000;-63.5400;-3.8600
1391.7480;-67.3400;-63.6500;-3.6900
1391.9470;-67.3300;-63.7600;-3.5700
1392.1460;-67.2900;-63.9200;-3.3700
1392.3450;-67.4500;-64.1600;-3.2900
1392.5440;-67.8700;-64.5900;-3.2800
1392.7430;-67.9000;-64.7100;-3.1900
1392.9430;-67.6700;-64.6200;-3.0500
1393.1420;-67.4300;-64.4800;-2.9500
1393.3410;-67.2200;-64.3000;-2.9200
1393.5400;-67.1100;-64.2800;-2.8300
1393.7390;-67.0900;-64.3700;-2.7200
1393.9380;-67.1600;-64.4100;-2.7500
1394.1370;-67.1900;-64.4900;-2.7000
1394.3360;-67.1700;-64.5700;-2.6000
1394.5350;-67.1700;-64.6100;-2.5600
1394.7350;-67.2300;-64.7500;-2.4800
1394.9340;-67.4300;-65.0500;-2.3800
1395.1330;-67.6900;-65.2200;-2.4700
1395.3320;-67.8500;-65.3800;-2.4700
1395.5310;-67.8600;-65.4700;-2.3900
1395.7300;-67.9800;-65.5200;-2.4600
1395.9290;-68.0100;-65.3900;-2.6200
1396.1280;-67.9900;-65.5200;-2.4700
1396.3270;-68.1300;-65.6300;-2.5000
1396.5270;-68.3100;-65.9200;-2.3900
1396.7260;-68.5500;-66.0500;-2.5000
1396.9250;-68.7200;-66.0900;-2.6300
1397.1240;-68.6400;-65.8900;-2.7500
1397.3230;-68.6700;-65.7800;-2.8900
1397.5220;-68.6700;-65.7400;-2.9300
1397.7210;-68.8000;-65.7900;-3.0100
1397.9200;-69.0300;-65.8800;-3.1500
1398.1200;-69.1500;-65.8800;-3.2700
1398.3190;-69.4300;-66.0000;-3.4300
1398.5180;-69.5200;-66.1100;-3.4100
1398.7170;-69.8200;-66.1700;-3.6500
1398.9160;-70.1300;-66.2900;-3.8400
1399.1150;-70.2700;-66.2800;-3.9900
1399.3140;-70.3800;-66.4200;-3.9600
1399.5130;-70.8400;-66.7000;-4.1400
1399.7120;-71.2500;-66.8100;-4.4400
1399.9120;-71.4100;-67.0200;-4.3900
1400.1110;-71.8500;-67.1500;-4.7000
1400.3100;-72.1300;-67.1100;-5.0200
1400.5090;-72.1000;-67.1900;-4.9100
1400.7080;-72.6800;-67.5300;-5.1500
1400.9070;-73.0500;-67.6500;-5.4000
1401.1060;-73.0100;-67.6900;-5.3200
1401.3050;-73.3200;-67.7200;-5.6000
1401.5040;-73.3000;-67.6200;-5.6800
1401.7040;-73.4500;-67.6400;-5.8100
1401.9030;-73.5600;-67.7600;-5.8000
1402.1020;-73.7700;-67.7900;-5.9800
1402.3010;-73.6400;-67.6900;-5.9500
1402.5000;-73.7000;-67.7000;-6.0000
1402.6990;-73.7900;-67.7100;-6.0800
1402.8980;-74.0200;-67.8800;-6.1400
1403.0970;-73.7700;-68.0500;-5.7200
1403.2970;-73.8000;-68.1100;-5.6900
1403.4960;-73.8200;-68.1700;-5.6500
1403.6950;-73.5600;-68.2600;-5.3000
1403.8940;-73.0500;-68.3500;-4.7000
1404.0930;-73.4900;-68.5100;-4.9800
1404.2920;-73.5600;-68.6300;-4.9300
1404.4910;-73.2100;-68.7700;-4.4400
1404.6900;-73.4900;-68.7800;-4.7100
1404.8890;-73.9100;-69.4100;-4.5000
1405.0890;-73.9800;-69.7100;-4.2700
1405.2880;-73.8200;-69.4600;-4.3600
1405.4870;-73.4400;-69.4900;-3.9500
1405.6860;-73.4100;-69.3300;-4.0800
1405.8850;-73.2000;-69.2700;-3.9300
1406.0840;-73.0700;-69.2100;-3.8600
1406.2830;-73.1300;-69.3500;-3.7800
1406.4820;-73.1100;-69.4400;-3.6700
1406.6810;-73.0900;-69.5200;-3.5700
1406.8810;-72.9400;-69.7600;-3.1800
1407.0800;-72.9600;-69.9600;-3.0000
1407.2790;-73.6300;-70.2200;-3.4100
1407.4780;-73.3300;-70.0900;-3.2400
1407.6770;-73.6900;-70.2200;-3.4700
1407.8760;-73.3300;-70.0600;-3.2700
1408.0750;-73.2700;-70.1900;-3.0800
1408.2740;-73.4900;-70.2100;-3.2800
1408.4740;-73.7100;-70.1200;-3.5900
1408.6730;-73.4000;-70.1800;-3.2200
1408.8720;-73.6600;-70.4900;-3.1700
1409.0710;-73.7400;-70.6800;-3.0600
1409.2700;-74.2400;-70.8900;-3.3500
1409.4690;-74.3900;-71.2300;-3.1600
1409.6680;-74.5000;-71.1900;-3.3100
1409.8670;-74.6100;-71.2700;-3.3400
1410.0660;-75.3900;-71.1100;-4.2800
1410.2660;-75.0700;-71.1000;-3.9700
1410.4650;-74.7000;-71.0700;-3.6300
1410.6640;-75.2200;-71.2000;-4.0200
1410.8630;-75.1700;-71.1200;-4.0500
1411.0620;-75.4200;-71.2800;-4.1400
1411.2610;-75.3300;-71.3000;-4.0300
1411.4600;-75.5400;-71.6000;-3.9400
1411.6590;-75.9500;-71.6000;-4.3500
1411.8580;-75.7300;-71.6200;-4.1100
1412.0580;-75.4800;-71.7900;-3.6900
1412.2570;-76.6600;-71.9500;-4.7100
1412.4560;-76.7700;-71.7900;-4.9800
1412.6550;-77.6400;-71.8300;-5.8100
1412.8540;-76.6100;-72.1500;-4.4600
1413.0530;-76.7200;-72.0000;-4.7200
1413.2520;-76.8600;-72.1600;-4.7000
1413.4510;-76.8100;-72.1300;-4.6800
1413.6500;-77.6100;-72.4800;-5.1300
1413.8500;-76.8700;-72.4300;-4.4400
1414.0490;-77.1600;-72.5400;-4.6200
1414.2480;-77.9000;-72.4400;-5.4600
1414.4470;-78.0200;-72.8500;-5.1700
1414.6460;-77.5500;-73.2100;-4.3400
1414.8450;-77.5000;-72.8100;-4.6900
1415.0440;-78.6700;-73.0500;-5.6200
1415.2430;-77.4200;-73.0900;-4.3300
1415.4430;-77.8300;-73.1300;-4.7000
1415.6420;-77.6300;-72.5800;-5.0500
1415.8410;-77.6100;-72.7100;-4.9000
1416.0400;-77.1800;-72.9000;-4.2800
1416.2390;-77.2500;-73.2100;-4.0400
1416.4380;-77.1800;-73.1500;-4.0300
1416.6370;-77.0200;-73.1400;-3.8800
1416.8360;-77.3800;-73.2800;-4.1000
1417.0350;-76.7800;-73.0000;-3.7800
1417.2350;-76.6200;-72.9100;-3.7100
1417.4340;-76.7600;-73.7100;-3.0500
1417.6330;-76.9600;-73.8100;-3.1500
1417.8320;-76.8900;-73.4800;-3.4100
1418.0310;-76.7300;-72.9200;-3.8100
1418.2300;-77.1000;-73.4100;-3.6900
1418.4290;-77.2500;-73.6400;-3.6100
1418.6280;-76.3500;-73.6000;-2.7500
1418.8270;-76.7400;-73.6100;-3.1300
1419.0270;-77.6800;-73.8200;-3.8600
1419.2260;-77.0200;-74.0100;-3.0100
1419.4250;-76.9600;-74.1500;-2.8100
1419.6240;-77.6800;-74.2400;-3.4400
1419.8230;-77.9000;-73.9900;-3.9100
1420.0220;-76.5200;-74.0900;-2.4300
1420.2210;-77.9000;-74.0900;-3.8100
1420.4200;-77.4200;-73.7000;-3.7200
1420.6200;-77.2300;-74.3100;-2.9200
1420.8190;-77.6500;-74.0400;-3.6100
1421.0180;-77.0600;-74.4300;-2.6300
1421.2170;-76.9600;-74.2900;-2.6700
1421.4160;-77.4000;-74.3600;-3.0400
1421.6150;-76.7400;-73.9900;-2.7500
1421.8140;-76.7900;-74.3600;-2.4300
1422.0130;-76.9200;-74.1700;-2.7500
1422.2120;-77.8700;-74.4400;-3.4300
1422.4120;-77.5300;-74.4600;-3.0700
1422.6110;-77.8400;-74.2300;-3.6100
1422.8100;-77.4900;-74.0100;-3.4800
1423.0090;-76.8800;-74.4400;-2.4400
1423.2080;-76.8100;-74.0500;-2.7600
1423.4070;-77.4300;-74.1000;-3.3300
1423.6060;-77.3100;-74.1300;-3.1800
1423.8050;-77.3900;-74.3800;-3.0100
1424.0040;-78.6500;-74.1000;-4.5500
1424.2040;-77.4900;-74.6700;-2.8200
1424.4030;-77.6900;-74.3300;-3.3600
1424.6020;-77.7800;-74.1300;-3.6500
1424.8010;-79.2400;-74.0600;-5.1800
1425.0000;-77.4500;-74.1700;-3.2800
