Wavelength;Intensity_Meas;Intensity_Ref;Difference_dB
1200.0000;-61.3000;-56.1700;-5.1300
1200.1990;-61.2500;-56.1300;-5.1200
1200.3980;-61.2100;-56.1000;-5.1100
1200.5970;-61.2500;-56.0800;-5.1700
1200.7970;-61.2200;-56.0500;-5.1700
1200.9960;-61.1800;-56.0200;-5.1600
1201.1950;-61.1500;-55.9700;-5.1800
1201.3940;-61.1200;-55.9300;-5.1900
1201.5930;-61.0600;-55.9000;-5.1600
1201.7920;-61.0100;-55.8500;-5.1600
1201.9910;-60.9700;-55.8100;-5.1600
1202.1900;-60.9300;-55.7500;-5.1800
1202.3890;-60.8300;-55.7000;-5.1300
1202.5890;-60.7700;-55.6600;-5.1100
1202.7880;-60.7800;-55.5900;-5.1900
1202.9870;-60.7400;-55.5400;-5.2000
1203.1860;-60.6200;-55.4800;-5.1400
1203.3850;-60.5600;-55.4400;-5.1200
1203.5840;-60.5900;-55.4200;-5.1700
1203.7830;-60.5800;-55.3500;-5.2300
1203.9820;-60.4900;-55.3200;-5.1700
1204.1810;-60.4300;-55.2800;-5.1500
1204.3810;-60.4800;-55.2400;-5.2400
1204.5800;-60.4500;-55.2300;-5.2200
1204.7790;-60.3800;-55.1800;-5.2000
1204.9780;-60.3500;-55.1500;-5.2000
1205.1770;-60.3300;-55.1200;-5.2100
1205.3760;-60.3000;-55.0900;-5.2100
1205.5750;-60.2800;-55.0900;-5.1900
1205.7740;-60.2600;-55.0500;-5.2100
1205.9740;-60.2100;-55.0400;-5.1700
1206.1730;-60.2100;-55.0200;-5.1900
1206.3720;-60.1900;-54.9900;-5.2000
1206.5710;-60.1200;-54.9800;-5.1400
1206.7700;-60.0800;-54.9500;-5.1300
1206.9690;-60.0600;-54.9300;-5.1300
1207.1680;-60.0400;-54.9000;-5.1400
1207.3670;-59.9700;-54.8600;-5.1100
1207.5660;-59.9000;-54.8500;-5.0500
1207.7660;-59.8700;-54.8000;-5.0700
1207.9650;-59.8500;-54.7700;-5.0800
1208.1640;-59.8000;-54.7200;-5.0800
1208.3630;-59.7400;-54.6800;-5.0600
1208.5620;-59.7000;-54.6500;-5.0500
1208.7610;-59.6900;-54.5800;-5.1100
1208.9600;-59.6300;-54.5400;-5.0900
1209.1590;-59.5400;-54.4900;-5.0500
1209.3580;-59.4800;-54.4300;-5.0500
1209.5580;-59.4500;-54.4000;-5.0500
1209.7570;-59.4100;-54.3400;-5.0700
1209.9560;-59.3300;-54.2800;-5.0500
1210.1550;-59.2600;-54.2300;-5.0300
1210.3540;-59.2500;-54.1800;-5.0700
1210.5530;-59.2300;-54.1400;-5.0900
1210.7520;-59.1500;-54.0800;-5.0700
1210.9510;-59.0600;-54.0300;-5.0300
1211.1500;-59.0200;-54.0000;-5.0200
1211.3500;-59.0200;-53.9500;-5.0700
1211.5490;-58.9500;-53.9200;-5.0300
1211.7480;-58.8900;-53.8800;-5.0100
1211.9470;-58.8400;-53.8400;-5.0000
1212.1460;-58.8400;-53.8200;-5.0200
1212.3450;-58.8100;-53.7700;-5.0400
1212.5440;-58.7600;-53.7600;-5.0000
1212.7430;-58.7200;-53.7200;-5.0000
1212.9430;-58.7300;-53.6800;-5.0500
1213.1420;-58.7200;-53.6700;-5.0500
1213.3410;-58.6900;-53.6300;-5.0600
1213.5400;-58.6600;-53.6100;-5.0500
1213.7390;-58.6800;-53.5700;-5.1100
1213.9380;-58.6700;-53.5300;-5.1400
1214.1370;-58.6100;-53.5100;-5.1000
1214.3360;-58.6000;-53.4600;-5.1400
1214.5350;-58.6000;-53.4400;-5.1600
1214.7350;-58.6000;-53.3900;-5.2100
1214.9340;-58.5400;-53.3400;-5.2000
1215.1330;-58.4800;-53.2900;-5.1900
1215.3320;-58.4900;-53.2400;-5.2500
1215.5310;-58.4700;-53.2000;-5.2700
1215.7300;-58.4200;-53.1400;-5.2800
1215.9290;-58.3400;-53.0800;-5.2600
1216.1280;-58.2800;-53.0300;-5.2500
1216.3270;-58.2700;-52.9600;-5.3100
1216.5270;-58.2000;-52.9200;-5.2800
1216.7260;-58.1100;-52.8600;-5.2500
1216.9250;-58.0300;-52.7900;-5.2400
1217.1240;-57.9900;-52.7400;-5.2500
1217.3230;-57.9400;-52.6700;-5.2700
1217.5220;-57.8500;-52.6300;-5.2200
1217.7210;-57.7800;-52.5700;-5.2100
1217.9200;-57.7400;-52.5200;-5.2200
1218.1200;-57.6900;-52.4800;-5.2100
1218.3190;-57.6100;-52.4200;-5.1900
1218.5180;-57.5500;-52.3900;-5.1600
1218.7170;-57.5500;-52.3400;-5.2100
1218.9160;-57.5000;-52.2900;-5.2100
1219.1150;-57.4200;-52.2600;-5.1600
1219.3140;-57.3800;-52.2100;-5.1700
1219.5130;-57.3600;-52.1900;-5.1700
1219.7120;-57.3400;-52.1500;-5.1900
1219.9120;-57.2800;-52.1100;-5.1700
1220.1110;-57.2200;-52.0700;-5.1500
1220.3100;-57.2000;-52.0300;-5.1700
1220.5090;-57.1600;-52.0000;-5.1600
1220.7080;-57.1100;-51.9500;-5.1600
1220.9070;-57.0400;-51.9100;-5.1300
1221.1060;-57.0000;-51.8500;-5.1500
1221.3050;-56.9800;-51.8000;-5.1800
1221.5040;-56.8900;-51.7500;-5.1400
1221.7040;-56.8200;-51.6800;-5.1400
1221.9030;-56.7600;-51.6300;-5.1300
1222.1020;-56.7100;-51.5700;-5.1400
1222.3010;-56.6600;-51.5000;-5.1600
1222.5000;-56.5600;-51.4300;-5.1300
1222.6990;-56.5200;-51.3600;-5.1600
1222.8980;-56.4800;-51.2900;-5.1900
1223.0970;-56.4000;-51.2200;-5.1800
1223.2970;-56.3500;-51.1500;-5.2000
1223.4960;-56.2900;-51.0800;-5.2100
1223.6950;-56.2700;-51.0000;-5.2700
1223.8940;-56.2100;-50.9400;-5.2700
1224.0930;-56.1500;-50.8700;-5.2800
1224.2920;-56.1400;-50.8000;-5.3400
1224.4910;-56.1300;-50.7400;-5.3900
1224.6900;-56.1100;-50.6700;-5.4400
1224.8890;-56.0700;-50.6000;-5.4700
1225.0890;-56.0700;-50.5500;-5.5200
1225.2880;-56.0800;-50.4800;-5.6000
1225.4870;-56.0500;-50.4300;-5.6200
1225.6860;-56.0400;-50.3700;-5.6700
1225.8850;-56.0500;-50.3200;-5.7300
1226.0840;-56.0600;-50.2700;-5.7900
1226.2830;-56.0800;-50.2100;-5.8700
1226.4820;-56.0500;-50.1600;-5.8900
1226.6810;-56.0700;-50.1100;-5.9600
1226.8810;-56.0800;-50.0600;-6.0200
1227.0800;-56.0500;-50.0000;-6.0500
1227.2790;-56.0500;-49.9500;-6.1000
1227.4780;-56.0400;-49.8900;-6.1500
1227.6770;-56.0500;-49.8300;-6.2200
1227.8760;-56.0200;-49.7700;-6.2500
1228.0750;-55.9800;-49.7100;-6.2700
1228.2740;-55.9800;-49.6400;-6.3400
1228.4740;-55.9500;-49.5700;-6.3800
1228.6730;-55.9200;-49.4900;-6.4300
1228.8720;-55.8800;-49.4200;-6.4600
1229.0710;-55.8300;-49.3500;-6.4800
1229.2700;-55.8200;-49.2600;-6.5600
1229.4690;-55.7300;-49.1900;-6.5400
1229.6680;-55.7000;-49.1000;-6.6000
1229.8670;-55.6500;-49.0100;-6.6400
1230.0660;-55.6000;-48.9500;-6.6500
1230.2660;-55.5500;-48.8500;-6.7000
1230.4650;-55.4700;-48.7700;-6.7000
1230.6640;-55.4400;-48.6900;-6.7500
1230.8630;-55.3900;-48.6200;-6.7700
1231.0620;-55.3200;-48.5500;-6.7700
1231.2610;-55.2800;-48.4800;-6.8000
1231.4600;-55.2300;-48.4300;-6.8000
1231.6590;-55.1700;-48.3500;-6.8200
1231.8580;-55.0800;-48.2800;-6.8000
1232.0580;-55.0200;-48.2300;-6.7900
1232.2570;-54.9700;-48.1600;-6.8100
1232.4560;-54.8900;-48.1200;-6.7700
1232.6550;-54.8000;-48.0400;-6.7600
1232.8540;-54.7100;-47.9800;-6.7300
1233.0530;-54.6300;-47.9300;-6.7000
1233.2520;-54.5300;-47.8600;-6.6700
1233.4510;-54.4200;-47.8100;-6.6100
1233.6500;-54.3400;-47.7400;-6.6000
1233.8500;-54.2300;-47.6800;-6.5500
1234.0490;-54.1300;-47.6200;-6.5100
1234.2480;-54.0200;-47.5400;-6.4800
1234.4470;-53.9000;-47.4800;-6.4200
1234.6460;-53.8200;-47.4000;-6.4200
1234.8450;-53.6900;-47.3300;-6.3600
1235.0440;-53.5700;-47.2400;-6.3300
1235.2430;-53.4700;-47.1600;-6.3100
1235.4430;-53.3500;-47.0800;-6.2700
1235.6420;-53.2400;-46.9800;-6.2600
1235.8410;-53.1200;-46.9000;-6.2200
1236.0400;-53.0200;-46.8100;-6.2100
1236.2390;-52.9000;-46.7100;-6.1900
1236.4380;-52.7800;-46.6200;-6.1600
1236.6370;-52.6800;-46.5300;-6.1500
1236.8360;-52.5700;-46.4400;-6.1300
1237.0350;-52.4700;-46.3400;-6.1300
1237.2350;-52.3600;-46.2500;-6.1100
1237.4340;-52.2500;-46.1600;-6.0900
1237.6330;-52.1800;-46.0700;-6.1100
1237.8320;-52.0700;-46.0000;-6.0700
1238.0310;-51.9600;-45.8900;-6.0700
1238.2300;-51.8800;-45.8300;-6.0500
1238.4290;-51.7900;-45.7300;-6.0600
1238.6280;-51.7200;-45.6600;-6.0600
1238.8270;-51.6100;-45.5800;-6.0300
1239.0270;-51.5400;-45.5000;-6.0400
1239.2260;-51.4600;-45.4200;-6.0400
1239.4250;-51.3800;-45.3300;-6.0500
1239.6240;-51.3100;-45.2500;-6.0600
1239.8230;-51.2300;-45.1600;-6.0700
1240.0220;-51.1500;-45.0700;-6.0800
1240.2210;-51.0600;-44.9900;-6.0700
1240.4200;-50.9800;-44.8800;-6.1000
1240.6200;-50.9200;-44.8000;-6.1200
1240.8190;-50.8100;-44.6900;-6.1200
1241.0180;-50.7100;-44.5700;-6.1400
1241.2170;-50.6100;-44.4700;-6.1400
1241.4160;-50.5100;-44.3500;-6.1600
1241.6150;-50.4000;-44.2300;-6.1700
1241.8140;-50.2600;-44.1100;-6.1500
1242.0130;-50.1500;-43.9900;-6.1600
1242.2120;-50.0100;-43.8800;-6.1300
1242.4120;-49.8700;-43.7400;-6.1300
1242.6110;-49.7200;-43.6100;-6.1100
1242.8100;-49.5700;-43.4900;-6.0800
1243.0090;-49.4100;-43.3500;-6.0600
1243.2080;-49.2400;-43.2300;-6.0100
1243.4070;-49.0700;-43.0900;-5.9800
1243.6060;-48.9100;-42.9700;-5.9400
1243.8050;-48.7300;-42.8400;-5.8900
1244.0040;-48.5500;-42.7100;-5.8400
1244.2040;-48.3700;-42.6000;-5.7700
1244.4030;-48.2000;-42.4600;-5.7400
1244.6020;-48.0300;-42.3400;-5.6900
1244.8010;-47.8500;-42.2200;-5.6300
1245.0000;-47.6900;-42.0900;-5.6000
1245.1990;-47.5100;-41.9900;-5.5200
1245.3980;-47.3400;-41.8600;-5.4800
1245.5970;-47.1800;-41.7300;-5.4500
1245.7970;-47.0100;-41.6100;-5.4000
1245.9960;-46.8400;-41.4800;-5.3600
1246.1950;-46.6700;-41.3600;-5.3100
1246.3940;-46.5100;-41.2300;-5.2800
1246.5930;-46.3600;-41.0900;-5.2700
1246.7920;-46.1900;-40.9600;-5.2300
1246.9910;-46.0400;-40.8100;-5.2300
1247.1900;-45.8900;-40.6900;-5.2000
1247.3890;-45.7300;-40.5400;-5.1900
1247.5890;-45.6000;-40.3900;-5.2100
1247.7880;-45.4700;-40.2500;-5.2200
1247.9870;-45.3400;-40.0900;-5.2500
1248.1860;-45.2100;-39.9500;-5.2600
1248.3850;-45.1000;-39.7900;-5.3100
1248.5840;-44.9900;-39.6300;-5.3600
1248.7830;-44.8900;-39.4900;-5.4000
1248.9820;-44.8200;-39.3300;-5.4900
1249.1810;-44.7400;-39.1900;-5.5500
1249.3810;-44.7000;-39.0300;-5.6700
1249.5800;-44.6200;-38.8700;-5.7500
1249.7790;-44.5800;-38.7300;-5.8500
1249.9780;-44.5600;-38.5600;-6.0000
1250.1770;-44.5300;-38.4300;-6.1000
1250.3760;-44.5300;-38.2700;-6.2600
1250.5750;-44.5100;-38.1200;-6.3900
1250.7740;-44.5200;-37.9800;-6.5400
1250.9740;-44.5600;-37.8500;-6.7100
1251.1730;-44.5700;-37.7200;-6.8500
1251.3720;-44.6100;-37.5600;-7.0500
1251.5710;-44.6500;-37.4400;-7.2100
1251.7700;-44.6900;-37.2900;-7.4000
1251.9690;-44.7400;-37.1500;-7.5900
1252.1680;-44.7800;-37.0100;-7.7700
1252.3670;-44.8500;-36.8600;-7.9900
1252.5660;-44.9100;-36.7300;-8.1800
1252.7660;-44.9700;-36.5700;-8.4000
1252.9650;-45.0500;-36.4300;-8.6200
1253.1640;-45.1000;-36.2900;-8.8100
1253.3630;-45.1700;-36.1200;-9.0500
1253.5620;-45.2100;-35.9900;-9.2200
1253.7610;-45.2400;-35.8000;-9.4400
1253.9600;-45.2600;-35.6800;-9.5800
1254.1590;-45.2300;-35.5100;-9.7200
1254.3580;-45.1800;-35.3500;-9.8300
1254.5580;-45.0600;-35.2100;-9.8500
1254.7570;-44.9000;-35.0400;-9.8600
1254.9560;-44.6800;-34.8900;-9.7900
1255.1550;-44.4300;-34.7300;-9.7000
1255.3540;-44.1200;-34.5700;-9.5500
1255.5530;-43.7700;-34.4300;-9.3400
1255.7520;-43.3800;-34.2700;-9.1100
1255.9510;-42.9600;-34.1300;-8.8300
1256.1500;-42.5300;-33.9700;-8.5600
1256.3500;-42.1000;-33.8400;-8.2600
1256.5490;-41.6400;-33.7100;-7.9300
1256.7480;-41.2100;-33.5600;-7.6500
1256.9470;-40.7600;-33.4300;-7.3300
1257.1460;-40.3300;-33.2900;-7.0400
1257.3450;-39.9100;-33.1500;-6.7600
1257.5440;-39.4900;-33.0300;-6.4600
1257.7430;-39.0900;-32.8800;-6.2100
1257.9430;-38.6900;-32.7500;-5.9400
1258.1420;-38.3100;-32.6100;-5.7000
1258.3410;-37.9500;-32.4700;-5.4800
1258.5400;-37.5900;-32.3500;-5.2400
1258.7390;-37.2400;-32.2000;-5.0400
1258.9380;-36.8800;-32.0700;-4.8100
1259.1370;-36.5500;-31.9200;-4.6300
1259.3360;-36.2300;-31.7800;-4.4500
1259.5350;-35.8500;-31.6400;-4.2100
1259.7350;-35.6100;-31.4900;-4.1200
1259.9340;-35.3100;-31.3500;-3.9600
1260.1330;-35.0400;-31.2000;-3.8400
1260.3320;-34.7500;-31.0600;-3.6900
1260.5310;-34.5000;-30.9200;-3.5800
1260.7300;-34.2600;-30.7700;-3.4900
1260.9290;-34.0100;-30.6400;-3.3700
1261.1280;-33.8000;-30.4900;-3.3100
1261.3270;-33.5800;-30.3600;-3.2200
1261.5270;-33.4000;-30.2300;-3.1700
1261.7260;-33.2200;-30.1000;-3.1200
1261.9250;-33.0500;-29.9700;-3.0800
1262.1240;-32.9100;-29.8300;-3.0800
1262.3230;-32.7600;-29.7100;-3.0500
1262.5220;-32.6500;-29.5900;-3.0600
1262.7210;-32.5400;-29.4600;-3.0800
1262.9200;-32.4400;-29.3500;-3.0900
1263.1200;-32.3700;-29.2200;-3.1500
1263.3190;-32.2900;-29.1000;-3.1900
1263.5180;-32.2400;-28.9800;-3.2600
1263.7170;-32.2000;-28.8600;-3.3400
1263.9160;-32.1600;-28.7400;-3.4200
1264.1150;-32.1500;-28.6000;-3.5500
1264.3140;-32.1400;-28.4800;-3.6600
1264.5130;-32.1500;-28.3500;-3.8000
1264.7120;-32.1700;-28.2200;-3.9500
1264.9120;-32.1900;-28.1000;-4.0900
1265.1110;-32.2400;-27.9600;-4.2800
1265.3100;-32.2800;-27.8300;-4.4500
1265.5090;-32.3400;-27.7000;-4.6400
1265.7080;-32.4000;-27.5700;-4.8300
1265.9070;-32.4500;-27.4400;-5.0100
1266.1060;-32.5200;-27.3000;-5.2200
1266.3050;-32.5600;-27.1800;-5.3800
1266.5040;-32.6100;-27.0500;-5.5600
1266.7040;-32.6400;-26.9300;-5.7100
1266.9030;-32.6500;-26.8000;-5.8500
1267.1020;-32.6600;-26.6700;-5.9900
1267.3010;-32.6200;-26.5600;-6.0600
1267.5000;-32.5700;-26.4300;-6.1400
1267.6990;-32.4800;-26.3200;-6.1600
1267.8980;-32.3500;-26.2000;-6.1500
1268.0970;-32.2300;-26.0700;-6.1600
1268.2970;-32.0400;-25.9700;-6.0700
1268.4960;-31.8500;-25.8600;-5.9900
1268.6950;-31.6200;-25.7500;-5.8700
1268.8940;-31.3600;-25.6200;-5.7400
1269.0930;-31.1000;-25.5100;-5.5900
1269.2920;-30.7900;-25.3900;-5.4000
1269.4910;-30.5000;-25.2800;-5.2200
1269.6900;-30.1700;-25.1700;-5.0000
1269.8890;-29.8400;-25.0400;-4.8000
1270.0890;-29.5000;-24.9200;-4.5800
1270.2880;-29.1400;-24.8000;-4.3400
1270.4870;-28.8000;-24.6900;-4.1100
1270.6860;-28.4300;-24.5700;-3.8600
1270.8850;-28.0700;-24.4400;-3.6300
1271.0840;-27.7200;-24.3200;-3.4000
1271.2830;-27.3600;-24.2000;-3.1600
1271.4820;-27.0200;-24.0800;-2.9400
1271.6810;-26.6700;-23.9700;-2.7000
1271.8810;-26.3400;-23.8300;-2.5100
1272.0800;-25.9800;-23.7300;-2.2500
1272.2790;-25.7300;-23.6100;-2.1200
1272.4780;-25.4500;-23.4900;-1.9600
1272.6770;-25.1700;-23.3900;-1.7800
1272.8760;-24.9200;-23.2700;-1.6500
1273.0750;-24.6700;-23.1700;-1.5000
1273.2740;-24.4400;-23.0600;-1.3800
1273.4740;-24.2300;-22.9500;-1.2800
1273.6730;-24.0100;-22.8600;-1.1500
1273.8720;-23.8400;-22.7500;-1.0900
1274.0710;-23.6500;-22.6600;-0.9900
1274.2700;-23.4900;-22.5500;-0.9400
1274.4690;-23.3300;-22.4500;-0.8800
1274.6680;-23.1900;-22.3600;-0.8300
1274.8670;-23.0700;-22.2500;-0.8200
1275.0660;-22.9400;-22.1700;-0.7700
1275.2660;-22.8300;-22.0600;-0.7700
1275.4650;-22.7400;-21.9600;-0.7800
1275.6640;-22.6500;-21.8700;-0.7800
1275.8630;-22.5900;-21.7700;-0.8200
1276.0620;-22.5100;-21.6800;-0.8300
1276.2610;-22.4700;-21.5800;-0.8900
1276.4600;-22.4200;-21.4800;-0.9400
1276.6590;-22.3800;-21.3800;-1.0000
1276.8580;-22.3900;-21.2800;-1.1100
1277.0580;-22.3800;-21.2000;-1.1800
1277.2570;-22.4000;-21.0900;-1.3100
1277.4560;-22.4200;-21.0100;-1.4100
1277.6550;-22.4700;-20.9200;-1.5500
1277.8540;-22.5300;-20.8300;-1.7000
1278.0530;-22.6000;-20.7500;-1.8500
1278.2520;-22.6900;-20.6600;-2.0300
1278.4510;-22.7800;-20.5800;-2.2000
1278.6500;-22.9000;-20.4900;-2.4100
1278.8500;-23.0400;-20.4100;-2.6300
1279.0490;-23.1800;-20.3400;-2.8400
1279.2480;-23.3500;-20.2500;-3.1000
1279.4470;-23.5100;-20.1900;-3.3200
1279.6460;-23.6900;-20.1000;-3.5900
1279.8450;-23.8800;-20.0200;-3.8600
1280.0440;-24.0900;-19.9500;-4.1400
1280.2430;-24.3200;-19.8700;-4.4500
1280.4430;-24.5300;-19.8100;-4.7200
1280.6420;-24.7700;-19.7200;-5.0500
1280.8410;-25.0100;-19.6400;-5.3700
1281.0400;-25.2400;-19.5700;-5.6700
1281.2390;-25.4900;-19.4900;-6.0000
1281.4380;-25.7000;-19.4200;-6.2800
1281.6370;-25.9200;-19.3300;-6.5900
1281.8360;-26.1100;-19.2500;-6.8600
1282.0350;-26.2600;-19.1700;-7.0900
1282.2350;-26.3900;-19.0800;-7.3100
1282.4340;-26.4500;-19.0200;-7.4300
1282.6330;-26.4800;-18.9400;-7.5400
1282.8320;-26.4200;-18.8600;-7.5600
1283.0310;-26.3000;-18.7800;-7.5200
1283.2300;-26.1300;-18.7000;-7.4300
1283.4290;-25.8800;-18.6400;-7.2400
1283.6280;-25.6000;-18.5500;-7.0500
1283.8270;-25.2600;-18.4900;-6.7700
1284.0270;-24.9000;-18.4100;-6.4900
1284.2260;-24.5300;-18.3300;-6.2000
1284.4250;-24.1300;-18.2800;-5.8500
1284.6240;-23.7400;-18.2000;-5.5400
1284.8230;-23.3200;-18.1300;-5.1900
1285.0220;-22.9100;-18.0500;-4.8600
1285.2210;-22.5200;-17.9800;-4.5400
1285.4200;-22.1200;-17.9200;-4.2000
1285.6200;-21.7500;-17.8400;-3.9100
1285.8190;-21.3800;-17.7800;-3.6000
1286.0180;-21.0200;-17.7000;-3.3200
1286.2170;-20.6800;-17.6300;-3.0500
1286.4160;-20.3400;-17.5700;-2.7700
1286.6150;-20.0500;-17.5000;-2.5500
1286.8140;-19.7300;-17.4400;-2.2900
1287.0130;-19.4400;-17.3600;-2.0800
1287.2120;-19.1600;-17.2900;-1.8700
1287.4120;-18.9000;-17.2200;-1.6800
1287.6110;-18.6600;-17.1500;-1.5100
1287.8100;-18.4200;-17.1000;-1.3200
1288.0090;-18.2000;-17.0200;-1.1800
1288.2080;-17.9900;-16.9600;-1.0300
1288.4070;-17.8000;-16.9000;-0.9000
1288.6060;-17.6400;-16.8300;-0.8100
1288.8050;-17.4700;-16.7800;-0.6900
1289.0040;-17.3200;-16.7100;-0.6100
1289.2040;-17.1800;-16.6600;-0.5200
1289.4030;-17.0500;-16.6000;-0.4500
1289.6020;-16.9500;-16.5500;-0.4000
1289.8010;-16.8400;-16.5000;-0.3400
1290.0000;-16.7600;-16.4300;-0.3300
1290.1990;-16.6600;-16.3900;-0.2700
1290.3980;-16.5900;-16.3300;-0.2600
1290.5970;-16.5500;-16.2900;-0.2600
1290.7970;-16.4900;-16.2500;-0.2400
1290.9960;-16.4500;-16.1800;-0.2700
1291.1950;-16.4000;-16.1400;-0.2600
1291.3940;-16.3800;-16.0800;-0.3000
1291.5930;-16.3500;-16.0400;-0.3100
1291.7920;-16.3400;-15.9800;-0.3600
1291.9910;-16.3500;-15.9400;-0.4100
1292.1900;-16.3400;-15.8900;-0.4500
1292.3890;-16.3600;-15.8500;-0.5100
1292.5890;-16.3600;-15.8000;-0.5600
1292.7880;-16.3700;-15.7500;-0.6200
1292.9870;-16.4100;-15.7100;-0.7000
1293.1860;-16.4300;-15.6600;-0.7700
1293.3850;-16.4700;-15.6200;-0.8500
1293.5840;-16.4900;-15.5800;-0.9100
1293.7830;-16.5300;-15.5300;-1.0000
1293.9820;-16.5700;-15.5000;-1.0700
1294.1810;-16.6000;-15.4500;-1.1500
1294.3810;-16.6600;-15.4200;-1.2400
1294.5800;-16.6700;-15.3800;-1.2900
1294.7790;-16.7100;-15.3400;-1.3700
1294.9780;-16.7400;-15.3100;-1.4300
1295.1770;-16.7700;-15.2700;-1.5000
1295.3760;-16.8100;-15.2400;-1.5700
1295.5750;-16.8100;-15.2000;-1.6100
1295.7740;-16.8300;-15.1600;-1.6700
1295.9740;-16.8200;-15.1300;-1.6900
1296.1730;-16.8200;-15.0800;-1.7400
1296.3720;-16.8300;-15.0600;-1.7700
1296.5710;-16.8000;-15.0200;-1.7800
1296.7700;-16.8000;-14.9800;-1.8200
1296.9690;-16.7700;-14.9600;-1.8100
1297.1680;-16.7500;-14.9300;-1.8200
1297.3670;-16.7200;-14.9000;-1.8200
1297.5660;-16.6800;-14.8500;-1.8300
1297.7660;-16.6600;-14.8200;-1.8400
1297.9650;-16.6100;-14.8000;-1.8100
1298.1640;-16.5800;-14.7600;-1.8200
1298.3630;-16.5400;-14.7400;-1.8000
1298.5620;-16.4900;-14.7000;-1.7900
1298.7610;-16.4600;-14.6700;-1.7900
1298.9600;-16.4200;-14.6500;-1.7700
1299.1590;-16.4100;-14.6200;-1.7900
1299.3580;-16.3700;-14.6000;-1.7700
1299.5580;-16.3400;-14.5600;-1.7800
1299.7570;-16.3300;-14.5400;-1.7900
1299.9560;-16.3200;-14.5200;-1.8000
1300.1550;-16.3300;-14.4900;-1.8400
1300.3540;-16.3200;-14.4800;-1.8400
1300.5530;-16.3300;-14.4300;-1.9000
1300.7520;-16.3500;-14.4100;-1.9400
1300.9510;-16.3700;-14.3900;-1.9800
1301.1500;-16.4300;-14.3800;-2.0500
1301.3500;-16.4700;-14.3700;-2.1000
1301.5490;-16.5500;-14.3500;-2.2000
1301.7480;-16.6100;-14.3400;-2.2700
1301.9470;-16.7000;-14.3200;-2.3800
1302.1460;-16.8200;-14.3100;-2.5100
1302.3450;-16.9200;-14.3000;-2.6200
1302.5440;-17.0700;-14.2800;-2.7900
1302.7430;-17.2000;-14.2800;-2.9200
1302.9430;-17.3600;-14.2600;-3.1000
1303.1420;-17.5500;-14.2500;-3.3000
1303.3410;-17.7500;-14.2400;-3.5100
1303.5400;-17.9900;-14.2400;-3.7500
1303.7390;-18.2200;-14.2400;-3.9800
1303.9380;-18.4900;-14.2100;-4.2800
1304.1370;-18.7900;-14.2200;-4.5700
1304.3360;-19.1000;-14.2100;-4.8900
1304.5350;-19.4600;-14.2100;-5.2500
1304.7350;-19.8300;-14.2200;-5.6100
1304.9340;-20.2500;-14.2100;-6.0400
1305.1330;-20.6800;-14.2200;-6.4600
1305.3320;-21.1600;-14.2100;-6.9500
1305.5310;-21.6900;-14.2200;-7.4700
1305.7300;-22.2400;-14.2300;-8.0100
1305.9290;-22.8700;-14.2200;-8.6500
1306.1280;-23.5300;-14.2400;-9.2900
1306.3270;-24.2700;-14.2400;-10.0300
1306.5270;-25.0700;-14.2500;-10.8200
1306.7260;-25.9300;-14.2600;-11.6700
1306.9250;-26.8600;-14.2600;-12.6000
1307.1240;-27.8400;-14.2800;-13.5600
1307.3230;-29.0600;-14.2800;-14.7800
1307.5220;-29.8200;-14.3000;-15.5200
1307.7210;-30.6000;-14.3100;-16.2900
1307.9200;-31.0300;-14.3100;-16.7200
1308.1200;-31.0000;-14.3500;-16.6500
1308.3190;-30.5100;-14.3500;-16.1600
1308.5180;-29.6900;-14.3700;-15.3200
1308.7170;-28.7200;-14.3800;-14.3400
1308.9160;-27.6800;-14.3900;-13.2900
1309.1150;-26.6900;-14.4300;-12.2600
1309.3140;-25.5900;-14.4300;-11.1600
1309.5130;-24.8900;-14.4700;-10.4200
1309.7120;-24.1000;-14.4800;-9.6200
1309.9120;-23.3500;-14.5000;-8.8500
1310.1110;-22.7000;-14.5400;-8.1600
1310.3100;-22.0600;-14.5500;-7.5100
1310.5090;-21.5000;-14.5900;-6.9100
1310.7080;-20.9600;-14.6000;-6.3600
1310.9070;-20.4600;-14.6200;-5.8400
1311.1060;-20.0300;-14.6600;-5.3700
1311.3050;-19.6000;-14.6700;-4.9300
1311.5040;-19.2300;-14.7200;-4.5100
1311.7040;-18.8700;-14.7300;-4.1400
1311.9030;-18.5400;-14.7700;-3.7700
1312.1020;-18.2500;-14.7900;-3.4600
1312.3010;-17.9600;-14.8200;-3.1400
1312.5000;-17.7300;-14.8700;-2.8600
1312.6990;-17.4900;-14.9000;-2.5900
1312.8980;-17.2800;-14.9400;-2.3400
1313.0970;-17.1000;-14.9600;-2.1400
1313.2970;-16.9200;-15.0000;-1.9200
1313.4960;-16.8000;-15.0500;-1.7500
1313.6950;-16.6600;-15.0800;-1.5800
1313.8940;-16.5400;-15.1300;-1.4100
1314.0930;-16.4500;-15.1600;-1.2900
1314.2920;-16.3700;-15.2100;-1.1600
1314.4910;-16.3000;-15.2600;-1.0400
1314.6900;-16.2600;-15.3000;-0.9600
1314.8890;-16.2300;-15.3500;-0.8800
1315.0890;-16.1900;-15.3800;-0.8100
1315.2880;-16.1800;-15.4400;-0.7400
1315.4870;-16.1800;-15.4800;-0.7000
1315.6860;-16.1900;-15.5300;-0.6600
1315.8850;-16.2200;-15.5800;-0.6400
1316.0840;-16.2500;-15.6300;-0.6200
1316.2830;-16.3100;-15.6900;-0.6200
1316.4820;-16.3600;-15.7400;-0.6200
1316.6810;-16.4300;-15.7900;-0.6400
1316.8810;-16.5100;-15.8500;-0.6600
1317.0800;-16.6100;-15.9100;-0.7000
1317.2790;-16.7100;-15.9800;-0.7300
1317.4780;-16.8100;-16.0400;-0.7700
1317.6770;-16.9300;-16.1100;-0.8200
1317.8760;-17.0500;-16.1600;-0.8900
1318.0750;-17.1700;-16.2200;-0.9500
1318.2740;-17.3200;-16.2900;-1.0300
1318.4740;-17.4500;-16.3500;-1.1000
1318.6730;-17.6200;-16.4500;-1.1700
1318.8720;-17.7500;-16.5000;-1.2500
1319.0710;-17.9100;-16.5800;-1.3300
1319.2700;-18.0600;-16.6500;-1.4100
1319.4690;-18.2100;-16.7200;-1.4900
1319.6680;-18.3900;-16.8100;-1.5800
1319.8670;-18.5600;-16.8800;-1.6800
1320.0660;-18.7000;-16.9600;-1.7400
1320.2660;-18.8400;-17.0300;-1.8100
1320.4650;-18.9900;-17.1100;-1.8800
1320.6640;-19.1300;-17.2100;-1.9200
1320.8630;-19.2600;-17.2900;-1.9700
1321.0620;-19.4000;-17.3800;-2.0200
1321.2610;-19.5200;-17.4500;-2.0700
1321.4600;-19.6400;-17.5500;-2.0900
1321.6590;-19.7400;-17.6300;-2.1100
1321.8580;-19.8300;-17.7100;-2.1200
1322.0580;-19.9300;-17.8200;-2.1100
1322.2570;-20.0100;-17.9000;-2.1100
1322.4560;-20.1000;-18.0100;-2.0900
1322.6550;-20.1600;-18.0900;-2.0700
1322.8540;-20.2200;-18.1900;-2.0300
1323.0530;-20.2800;-18.2900;-1.9900
1323.2520;-20.3300;-18.3900;-1.9400
1323.4510;-20.3900;-18.5100;-1.8800
1323.6500;-20.4200;-18.5900;-1.8300
1323.8500;-20.4700;-18.7000;-1.7700
1324.0490;-20.5200;-18.8000;-1.7200
1324.2480;-20.5600;-18.9100;-1.6500
1324.4470;-20.6200;-19.0200;-1.6000
1324.6460;-20.6600;-19.1200;-1.5400
1324.8450;-20.7200;-19.2400;-1.4800
1325.0440;-20.7600;-19.3400;-1.4200
1325.2430;-20.8200;-19.4600;-1.3600
1325.4430;-20.9000;-19.5700;-1.3300
1325.6420;-20.9800;-19.6900;-1.2900
1325.8410;-21.0700;-19.8100;-1.2600
1326.0400;-21.1500;-19.9200;-1.2300
1326.2390;-21.2500;-20.0500;-1.2000
1326.4380;-21.3600;-20.1600;-1.2000
1326.6370;-21.4700;-20.2800;-1.1900
1326.8360;-21.6100;-20.4000;-1.2100
1327.0350;-21.7400;-20.5200;-1.2200
1327.2350;-21.8900;-20.6600;-1.2300
1327.4340;-22.0500;-20.7700;-1.2800
1327.6330;-22.2200;-20.9000;-1.3200
1327.8320;-22.4100;-21.0200;-1.3900
1328.0310;-22.6000;-21.1500;-1.4500
1328.2300;-22.8200;-21.2900;-1.5300
1328.4290;-23.0400;-21.4100;-1.6300
1328.6280;-23.2700;-21.5600;-1.7100
1328.8270;-23.5300;-21.6800;-1.8500
1329.0270;-23.8000;-21.8100;-1.9900
1329.2260;-24.0900;-21.9600;-2.1300
1329.4250;-24.3700;-22.0800;-2.2900
1329.6240;-24.6900;-22.2300;-2.4600
1329.8230;-25.0100;-22.3500;-2.6600
1330.0220;-25.3600;-22.4900;-2.8700
1330.2210;-25.7300;-22.6400;-3.0900
1330.4200;-26.1100;-22.7700;-3.3400
1330.6200;-26.5200;-22.9200;-3.6000
1330.8190;-26.9500;-23.0600;-3.8900
1331.0180;-27.4000;-23.2100;-4.1900
1331.2170;-27.8900;-23.3500;-4.5400
1331.4160;-28.3900;-23.5000;-4.8900
1331.6150;-29.0200;-23.6500;-5.3700
1331.8140;-29.4800;-23.7900;-5.6900
1332.0130;-30.0800;-23.9600;-6.1200
1332.2120;-30.6900;-24.0900;-6.6000
1332.4120;-31.3500;-24.2500;-7.1000
1332.6110;-32.0500;-24.4100;-7.6400
1332.8100;-32.7600;-24.5600;-8.2000
1333.0090;-33.5200;-24.7300;-8.7900
1333.2080;-34.2800;-24.8700;-9.4100
1333.4070;-35.0900;-25.0300;-10.0600
1333.6060;-35.9000;-25.1800;-10.7200
1333.8050;-36.7100;-25.3400;-11.3700
1334.0040;-37.5000;-25.5100;-11.9900
1334.2040;-38.2100;-25.6600;-12.5500
1334.4030;-38.9400;-25.8300;-13.1100
1334.6020;-39.2700;-25.9800;-13.2900
1334.8010;-39.5400;-26.1400;-13.4000
1335.0000;-39.6000;-26.3100;-13.2900
1335.1990;-39.4700;-26.4600;-13.0100
1335.3980;-39.2100;-26.6400;-12.5700
1335.5970;-38.8400;-26.7900;-12.0500
1335.7970;-38.4500;-26.9600;-11.4900
1335.9960;-38.0100;-27.1300;-10.8800
1336.1950;-37.5700;-27.2900;-10.2800
1336.3940;-37.1500;-27.4500;-9.7000
1336.5930;-36.7400;-27.6100;-9.1300
1336.7920;-36.3000;-27.7900;-8.5100
1336.9910;-36.0300;-27.9400;-8.0900
1337.1900;-35.7500;-28.1100;-7.6400
1337.3890;-35.4800;-28.2800;-7.2000
1337.5890;-35.2600;-28.4400;-6.8200
1337.7880;-35.0400;-28.6500;-6.3900
1337.9870;-34.8800;-28.7900;-6.0900
1338.1860;-34.7400;-28.9600;-5.7800
1338.3850;-34.6200;-29.1300;-5.4900
1338.5840;-34.5500;-29.3100;-5.2400
1338.7830;-34.4700;-29.4700;-5.0000
1338.9820;-34.4500;-29.6400;-4.8100
1339.1810;-34.4300;-29.8200;-4.6100
1339.3810;-34.4500;-29.9900;-4.4600
1339.5800;-34.4900;-30.1700;-4.3200
1339.7790;-34.5400;-30.3300;-4.2100
1339.9780;-34.6300;-30.5200;-4.1100
1340.1770;-34.7300;-30.6900;-4.0400
1340.3760;-34.8600;-30.8600;-4.0000
1340.5750;-35.0200;-31.0600;-3.9600
1340.7740;-35.1800;-31.2200;-3.9600
1340.9740;-35.3800;-31.4000;-3.9800
1341.1730;-35.5700;-31.5700;-4.0000
1341.3720;-35.8000;-31.7400;-4.0600
1341.5710;-36.0600;-31.9200;-4.1400
1341.7700;-36.3300;-32.0900;-4.2400
1341.9690;-36.6400;-32.2800;-4.3600
1342.1680;-36.9500;-32.4400;-4.5100
1342.3670;-37.3100;-32.6200;-4.6900
1342.5660;-37.6600;-32.7900;-4.8700
1342.7660;-38.0500;-32.9700;-5.0800
1342.9650;-38.5800;-33.1600;-5.4200
1343.1640;-38.9600;-33.3300;-5.6300
1343.3630;-39.4400;-33.5100;-5.9300
1343.5620;-39.9500;-33.6800;-6.2700
1343.7610;-40.5100;-33.8500;-6.6600
1343.9600;-41.0900;-34.0500;-7.0400
1344.1590;-41.7300;-34.2200;-7.5100
1344.3580;-42.4100;-34.4100;-8.0000
1344.5580;-43.1300;-34.5800;-8.5500
1344.7570;-43.9200;-34.7700;-9.1500
1344.9560;-44.7400;-34.9400;-9.8000
1345.1550;-45.6400;-35.1000;-10.5400
1345.3540;-46.5800;-35.2800;-11.3000
1345.5530;-47.6000;-35.4400;-12.1600
1345.7520;-48.9300;-35.6300;-13.3000
1345.9510;-49.8600;-35.8000;-14.0600
1346.1500;-51.0300;-35.9700;-15.0600
1346.3500;-52.1500;-36.1600;-15.9900
1346.5490;-53.1300;-36.3400;-16.7900
1346.7480;-53.7200;-36.5100;-17.2100
1346.9470;-53.8600;-36.6800;-17.1800
1347.1460;-53.5500;-36.8500;-16.7000
1347.3450;-52.9000;-37.0000;-15.9000
1347.5440;-52.1500;-37.2100;-14.9400
1347.7430;-51.3200;-37.4400;-13.8800
1347.9430;-50.5000;-37.6300;-12.8700
1348.1420;-49.6900;-37.8000;-11.8900
1348.3410;-48.9900;-37.9800;-11.0100
1348.5400;-48.3400;-38.1100;-10.2300
1348.7390;-47.7500;-38.2700;-9.4800
1348.9380;-47.2200;-38.4600;-8.7600
1349.1370;-46.7200;-38.5900;-8.1300
1349.3360;-46.2000;-38.7200;-7.4800
1349.5350;-45.9100;-38.8700;-7.0400
1349.7350;-45.5600;-39.0200;-6.5400
1349.9340;-45.2900;-39.1900;-6.1000
1350.1330;-45.0400;-39.3900;-5.6500
1350.3320;-44.8900;-39.6100;-5.2800
1350.5310;-44.7200;-39.8100;-4.9100
1350.7300;-44.5400;-39.9700;-4.5700
1350.9290;-44.3800;-40.1100;-4.2700
1351.1280;-44.2100;-40.2200;-3.9900
1351.3270;-44.1000;-40.3600;-3.7400
1351.5270;-44.0200;-40.5400;-3.4800
1351.7260;-44.0300;-40.7500;-3.2800
1351.9250;-44.0200;-40.9200;-3.1000
1352.1240;-44.0000;-41.0900;-2.9100
1352.3230;-44.0000;-41.2500;-2.7500
1352.5220;-44.0700;-41.4500;-2.6200
1352.7210;-44.1000;-41.5800;-2.5200
1352.9200;-44.1300;-41.7300;-2.4000
1353.1200;-44.2900;-41.9800;-2.3100
1353.3190;-44.3400;-42.0700;-2.2700
1353.5180;-44.4300;-42.2300;-2.2000
1353.7170;-44.5800;-42.4000;-2.1800
1353.9160;-44.6600;-42.4900;-2.1700
1354.1150;-44.7900;-42.6200;-2.1700
1354.3140;-45.0100;-42.8400;-2.1700
1354.5130;-45.2100;-43.0200;-2.1900
1354.7120;-45.5700;-43.3100;-2.2600
1354.9120;-45.8800;-43.6000;-2.2800
1355.1110;-46.1600;-43.7500;-2.4100
1355.3100;-46.3600;-43.8800;-2.4800
1355.5090;-46.5000;-43.8500;-2.6500
1355.7080;-46.8400;-44.1100;-2.7300
1355.9070;-47.2400;-44.3700;-2.8700
1356.1060;-47.5800;-44.5200;-3.0600
1356.3050;-47.8700;-44.6000;-3.2700
1356.5040;-48.1900;-44.6800;-3.5100
1356.7040;-48.3000;-44.6000;-3.7000
1356.9030;-48.7400;-44.7300;-4.0100
1357.1020;-49.2400;-45.0900;-4.1500
1357.3010;-49.7500;-45.3100;-4.4400
1357.5000;-50.2600;-45.4700;-4.7900
1357.6990;-50.7300;-45.6500;-5.0800
1357.8980;-51.1900;-45.6800;-5.5100
1358.0970;-51.5600;-45.7300;-5.8300
1358.2970;-52.0900;-45.9000;-6.1900
1358.4960;-52.7200;-46.1200;-6.6000
1358.6950;-53.2400;-46.2500;-6.9900
1358.8940;-53.8500;-46.3800;-7.4700
1359.0930;-54.4100;-46.5200;-7.8900
1359.2920;-54.8600;-46.5500;-8.3100
1359.4910;-55.5400;-46.9100;-8.6300
1359.6900;-56.1900;-47.2000;-8.9900
1359.8890;-56.7300;-47.3800;-9.3500
1360.0890;-57.0400;-47.4300;-9.6100
1360.2880;-57.2700;-47.4300;-9.8400
1360.4870;-57.2800;-47.4100;-9.8700
1360.6860;-57.3600;-47.5600;-9.8000
1360.8850;-57.5600;-47.8900;-9.6700
1361.0840;-57.6200;-48.1900;-9.4300
1361.2830;-57.4600;-48.3400;-9.1200
1361.4820;-57.1900;-48.5500;-8.6400
1361.6810;-57.0300;-48.6800;-8.3500
1361.8810;-56.7100;-48.8200;-7.8900
1362.0800;-56.4600;-49.0200;-7.4400
1362.2790;-56.3600;-49.4200;-6.9400
1362.4780;-56.2400;-49.6600;-6.5800
1362.6770;-55.8800;-49.7700;-6.1100
1362.8760;-55.3400;-49.6400;-5.7000
1363.0750;-54.8900;-49.5500;-5.3400
1363.2740;-54.2900;-49.3200;-4.9700
1363.4740;-54.0100;-49.3700;-4.6400
1363.6730;-53.7700;-49.4500;-4.3200
1363.8720;-53.5900;-49.5900;-4.0000
1364.0710;-53.5000;-49.7800;-3.7200
1364.2700;-53.4200;-49.9800;-3.4400
1364.4690;-53.4300;-50.2700;-3.1600
1364.6680;-53.7300;-50.7700;-2.9600
1364.8670;-53.7300;-50.9700;-2.7600
1365.0660;-53.5400;-50.9300;-2.6100
1365.2660;-53.4800;-51.0900;-2.3900
1365.4650;-53.2900;-51.0100;-2.2800
1365.6640;-53.2100;-51.0800;-2.1300
1365.8630;-53.1200;-51.1000;-2.0200
1366.0620;-53.0200;-51.0800;-1.9400
1366.2610;-52.9300;-51.0600;-1.8700
1366.4600;-52.9300;-51.1100;-1.8200
1366.6590;-52.9900;-51.2800;-1.7100
1366.8580;-53.1900;-51.4900;-1.7000
1367.0580;-53.2800;-51.6200;-1.6600
1367.2570;-53.3800;-51.7100;-1.6700
1367.4560;-53.6100;-51.9700;-1.6400
1367.6550;-53.7900;-52.1500;-1.6400
1367.8540;-54.1000;-52.4000;-1.7000
1368.0530;-54.2300;-52.5200;-1.7100
1368.2520;-54.3000;-52.4700;-1.8300
1368.4510;-54.6200;-52.8100;-1.8100
1368.6500;-54.7900;-52.8800;-1.9100
1368.8500;-54.9900;-52.9700;-2.0200
1369.0490;-55.0600;-52.9500;-2.1100
1369.2480;-55.1800;-52.8900;-2.2900
1369.4470;-55.1600;-52.8200;-2.3400
1369.6460;-55.3700;-52.9000;-2.4700
1369.8450;-55.7800;-53.2300;-2.5500
1370.0440;-56.1100;-53.4100;-2.7000
1370.2430;-56.3900;-53.5300;-2.8600
1370.4430;-56.5600;-53.5800;-2.9800
1370.6420;-56.7600;-53.5900;-3.1700
1370.8410;-57.1400;-53.9000;-3.2400
1371.0400;-57.5500;-54.1600;-3.3900
1371.2390;-57.9100;-54.3300;-3.5800
1371.4380;-58.0600;-54.3500;-3.7100
1371.6370;-58.2100;-54.2900;-3.9200
1371.8360;-58.2600;-54.2800;-3.9800
1372.0350;-58.6200;-54.4500;-4.1700
1372.2350;-58.8800;-54.6600;-4.2200
1372.4340;-59.1000;-54.7400;-4.3600
1372.6330;-59.2300;-54.8200;-4.4100
1372.8320;-59.3300;-54.8500;-4.4800
1373.0310;-59.4100;-54.8700;-4.5400
1373.2300;-59.5400;-55.0200;-4.5200
1373.4290;-59.7000;-55.1400;-4.5600
1373.6280;-59.7900;-55.2600;-4.5300
1373.8270;-59.8600;-55.3300;-4.5300
1374.0270;-59.9100;-55.4400;-4.4700
1374.2260;-59.9000;-55.5300;-4.3700
1374.4250;-59.9700;-55.6700;-4.3000
1374.6240;-59.9900;-55.8100;-4.1800
1374.8230;-60.0700;-55.9900;-4.0800
1375.0220;-60.1300;-56.1700;-3.9600
1375.2210;-60.0800;-56.2400;-3.8400
1375.4200;-60.0200;-56.3000;-3.7200
1375.6200;-59.9700;-56.3800;-3.5900
1375.8190;-59.9400;-56.4800;-3.4600
1376.0180;-59.9300;-56.6300;-3.3000
1376.2170;-59.9400;-56.7700;-3.1700
1376.4160;-59.8900;-56.8700;-3.0200
1376.6150;-59.8800;-56.9600;-2.9200
1376.8140;-59.9000;-57.1100;-2.7900
1377.0130;-60.0600;-57.3400;-2.7200
1377.2120;-60.1000;-57.5100;-2.5900
1377.4120;-60.0800;-57.6000;-2.4800
1377.6110;-60.0900;-57.6400;-2.4500
1377.8100;-59.9600;-57.6100;-2.3500
1378.0090;-59.9400;-57.6600;-2.2800
1378.2080;-60.0000;-57.7600;-2.2400
1378.4070;-60.1100;-57.9300;-2.1800
1378.6060;-60.3200;-58.1800;-2.1400
1378.8050;-60.5900;-58.5400;-2.0500
1379.0040;-60.7500;-58.6100;-2.1400
1379.2040;-60.8200;-58.6600;-2.1600
1379.4030;-60.8100;-58.6400;-2.1700
1379.6020;-60.8400;-58.6200;-2.2200
1379.8010;-60.9200;-58.6300;-2.2900
1380.0000;-61.1200;-58.7700;-2.3500
1380.1990;-61.3500;-58.9500;-2.4000
1380.3980;-61.6100;-59.1500;-2.4600
1380.5970;-62.2100;-59.7300;-2.4800
1380.7970;-62.8200;-60.1400;-2.6800
1380.9960;-63.1900;-60.3000;-2.8900
1381.1950;-63.3900;-60.2900;-3.1000
1381.3940;-63.3300;-60.0000;-3.3300
1381.5930;-63.2500;-59.7500;-3.5000
1381.7920;-63.5100;-59.8000;-3.7100
1381.9910;-63.7300;-59.8400;-3.8900
1382.1900;-64.1300;-59.9400;-4.1900
1382.3890;-64.7000;-60.2600;-4.4400
1382.5890;-65.4600;-60.8000;-4.6600
1382.7880;-66.2400;-61.2900;-4.9500
1382.9870;-66.9100;-61.5000;-5.4100
1383.1860;-67.1400;-61.2600;-5.8800
1383.3850;-67.2800;-60.9800;-6.3000
1383.5840;-67.5500;-60.7700;-6.7800
1383.7830;-68.0100;-60.9300;-7.0800
1383.9820;-68.6500;-61.0300;-7.6200
1384.1810;-69.2400;-61.0800;-8.1600
1384.3810;-69.7800;-61.1100;-8.6700
1384.5800;-70.2200;-61.0400;-9.1800
1384.7790;-70.8100;-61.1700;-9.6400
1384.9780;-71.5800;-61.4200;-10.1600
1385.1770;-72.2700;-61.6400;-10.6300
1385.3760;-72.4600;-61.7600;-10.7000
1385.5750;-72.9000;-61.7100;-11.1900
1385.7740;-73.2200;-61.7400;-11.4800
1385.9740;-73.2700;-61.7300;-11.5400
1386.1730;-72.8900;-61.7700;-11.1200
1386.3720;-73.1100;-61.8800;-11.2300
1386.5710;-72.9300;-61.9200;-11.0100
1386.7700;-72.4500;-61.9700;-10.4800
1386.9690;-71.9900;-62.0000;-9.9900
1387.1680;-71.4400;-62.0200;-9.4200
1387.3670;-71.0400;-62.0900;-8.9500
1387.5660;-70.7700;-62.1500;-8.6200
1387.7660;-70.4000;-62.4300;-7.9700
1387.9650;-70.1600;-62.6800;-7.4800
1388.1640;-70.2400;-62.9600;-7.2800
1388.3630;-69.7600;-63.0600;-6.7000
1388.5620;-69.2500;-63.0100;-6.2400
1388.7610;-68.8200;-62.8800;-5.9400
1388.9600;-68.3100;-62.8300;-5.4800
1389.1590;-67.9900;-62.8000;-5.1900
1389.3580;-67.6900;-62.8100;-4.8800
1389.5580;-67.4100;-62.8600;-4.5500
1389.7570;-67.2600;-62.9900;-4.2700
1389.9560;-67.2500;-63.1700;-4.0800
1390.1550;-67.0300;-63.2200;-3.8100
1390.3540;-66.8100;-63.2400;-3.5700
1390.5530;-66.7300;-63.3300;-3.4000
1390.7520;-66.5500;-63.2800;-3.2700
1390.9510;-66.4900;-63.4100;-3.0800
1391.1500;-66.4500;-63.4500;-3.0000
1391.3500;-66.3600;-63.4900;-2.8700
1391.5490;-66.3400;-63.5400;-2.8000
1391.7480;-66.3400;-63.6500;-2.6900
1391.9470;-66.3600;-63.7600;-2.6000
1392.1460;-66.4700;-63.9200;-2.5500
1392.3450;-66.6800;-64.1600;-2.5200
1392.5440;-67.0700;-64.5900;-2.4800
1392.7430;-67.2000;-64.7100;-2.4900
1392.9430;-67.2100;-64.6200;-2.5900
1393.1420;-67.0500;-64.4800;-2.5700
1393.3410;-66.8800;-64.3000;-2.5800
1393.5400;-66.8700;-64.2800;-2.5900
1393.7390;-67.0700;-64.3700;-2.7000
1393.9380;-67.2100;-64.4100;-2.8000
1394.1370;-67.4100;-64.4900;-2.9200
1394.3360;-67.5600;-64.5700;-2.9900
1394.5350;-67.8000;-64.6100;-3.1900
1394.7350;-68.0600;-64.7500;-3.3100
1394.9340;-68.4900;-65.0500;-3.4400
1395.1330;-68.8100;-65.2200;-3.5900
1395.3320;-69.1900;-65.3800;-3.8100
1395.5310;-69.4400;-65.4700;-3.9700
1395.7300;-69.7100;-65.5200;-4.1900
1395.9290;-69.8500;-65.3900;-4.4600
1396.1280;-70.1600;-65.5200;-4.6400
1396.3270;-70.7500;-65.6300;-5.1200
1396.5270;-71.1200;-65.9200;-5.2000
1396.7260;-71.9500;-66.0500;-5.9000
1396.9250;-72.1500;-66.0900;-6.0600
1397.1240;-72.3700;-65.8900;-6.4800
1397.3230;-72.5900;-65.7800;-6.8100
1397.5220;-72.6700;-65.7400;-6.9300
1397.7210;-73.2500;-65.7900;-7.4600
1397.9200;-73.6900;-65.8800;-7.8100
1398.1200;-74.2900;-65.8800;-8.4100
1398.3190;-74.3600;-66.0000;-8.3600
1398.5180;-74.7400;-66.1100;-8.6300
1398.7170;-75.2100;-66.1700;-9.0400
1398.9160;-75.5400;-66.2900;-9.2500
1399.1150;-75.5300;-66.2800;-9.2500
1399.3140;-75.5300;-66.4200;-9.1100
1399.5130;-76.1400;-66.7000;-9.4400
1399.7120;-76.0300;-66.8100;-9.2200
1399.9120;-75.9900;-67.0200;-8.9700
1400.1110;-76.3500;-67.1500;-9.2000
1400.3100;-76.6000;-67.1100;-9.4900
1400.5090;-76.0500;-67.1900;-8.8600
1400.7080;-76.1400;-67.5300;-8.6100
1400.9070;-75.7900;-67.6500;-8.1400
1401.1060;-75.3900;-67.6900;-7.7000
1401.3050;-75.4500;-67.7200;-7.7300
1401.5040;-74.6900;-67.6200;-7.0700
1401.7040;-74.6700;-67.6400;-7.0300
1401.9030;-74.5600;-67.7600;-6.8000
1402.1020;-74.1900;-67.7900;-6.4000
1402.3010;-73.6200;-67.6900;-5.9300
1402.5000;-73.6400;-67.7000;-5.9400
1402.6990;-73.4300;-67.7100;-5.7200
1402.8980;-73.5500;-67.8800;-5.6700
1403.0970;-73.2700;-68.0500;-5.2200
1403.2970;-73.2500;-68.1100;-5.1400
1403.4960;-73.1300;-68.1700;-4.9600
1403.6950;-73.1800;-68.2600;-4.9200
1403.8940;-72.8400;-68.3500;-4.4900
1404.0930;-72.9800;-68.5100;-4.4700
1404.2920;-72.7000;-68.6300;-4.0700
1404.4910;-73.0500;-68.7700;-4.2800
1404.6900;-72.9200;-68.7800;-4.1400
1404.8890;-73.2700;-69.4100;-3.8600
1405.0890;-73.3900;-69.7100;-3.6800
1405.2880;-73.4900;-69.4600;-4.0300
1405.4870;-73.5300;-69.4900;-4.0400
1405.6860;-73.2500;-69.3300;-3.9200
1405.8850;-72.9500;-69.2700;-3.6800
1406.0840;-73.0700;-69.2100;-3.8600
1406.2830;-73.3700;-69.3500;-4.0200
1406.4820;-73.3400;-69.4400;-3.9000
1406.6810;-73.6300;-69.5200;-4.1100
1406.8810;-73.9100;-69.7600;-4.1500
1407.0800;-73.8300;-69.9600;-3.8700
1407.2790;-74.1100;-70.2200;-3.8900
1407.4780;-74.4800;-70.0900;-4.3900
1407.6770;-74.4400;-70.2200;-4.2200
1407.8760;-74.3700;-70.0600;-4.3100
1408.0750;-74.4200;-70.1900;-4.2300
1408.2740;-74.2800;-70.2100;-4.0700
1408.4740;-74.4800;-70.1200;-4.3600
1408.6730;-74.6900;-70.1800;-4.5100
1408.8720;-75.0500;-70.4900;-4.5600
1409.0710;-74.9900;-70.6800;-4.3100
1409.2700;-75.3000;-70.8900;-4.4100
1409.4690;-75.3100;-71.2300;-4.0800
1409.6680;-75.5200;-71.1900;-4.3300
1409.8670;-76.5100;-71.2700;-5.2400
1410.0660;-75.9100;-71.1100;-4.8000
1410.2660;-76.0900;-71.1000;-4.9900
1410.4650;-76.1800;-71.0700;-5.1100
1410.6640;-76.2000;-71.2000;-5.0000
1410.8630;-75.9400;-71.1200;-4.8200
1411.0620;-75.7300;-71.2800;-4.4500
1411.2610;-75.7800;-71.3000;-4.4800
1411.4600;-76.5800;-71.6000;-4.9800
1411.6590;-75.9400;-71.6000;-4.3400
1411.8580;-76.3700;-71.6200;-4.7500
1412.0580;-75.8200;-71.7900;-4.0300
1412.2570;-76.3400;-71.9500;-4.3900
1412.4560;-75.9100;-71.7900;-4.1200
1412.6550;-75.8800;-71.8300;-4.0500
1412.8540;-76.1000;-72.1500;-3.9500
1413.0530;-75.7600;-72.0000;-3.7600
1413.2520;-75.3900;-72.1600;-3.2300
1413.4510;-75.6100;-72.1300;-3.4800
1413.6500;-76.0100;-72.4800;-3.5300
1413.8500;-76.2100;-72.4300;-3.7800
1414.0490;-75.4100;-72.5400;-2.8700
1414.2480;-76.2500;-72.4400;-3.8100
1414.4470;-76.1900;-72.8500;-3.3400
1414.6460;-76.5200;-73.2100;-3.3100
1414.8450;-76.0700;-72.8100;-3.2600
1415.0440;-76.0500;-73.0500;-3.0000
1415.2430;-75.8700;-73.0900;-2.7800
1415.4430;-75.3200;-73.1300;-2.1900
1415.6420;-76.0500;-72.5800;-3.4700
1415.8410;-76.2100;-72.7100;-3.5000
1416.0400;-75.8000;-72.9000;-2.9000
1416.2390;-76.1900;-73.2100;-2.9800
1416.4380;-75.9500;-73.1500;-2.8000
1416.6370;-75.9800;-73.1400;-2.8400
1416.8360;-75.7100;-73.2800;-2.4300
1417.0350;-76.5900;-73.0000;-3.5900
1417.2350;-75.8600;-72.9100;-2.9500
1417.4340;-76.0400;-73.7100;-2.3300
1417.6330;-75.8600;-73.8100;-2.0500
1417.8320;-76.2900;-73.4800;-2.8100
1418.0310;-75.8600;-72.9200;-2.9400
1418.2300;-76.1900;-73.4100;-2.7800
1418.4290;-76.1000;-73.6400;-2.4600
1418.6280;-76.2500;-73.6000;-2.6500
1418.8270;-77.0200;-73.6100;-3.4100
1419.0270;-77.4000;-73.8200;-3.5800
1419.2260;-76.7300;-74.0100;-2.7200
1419.4250;-76.6200;-74.1500;-2.4700
1419.6240;-77.3000;-74.2400;-3.0600
1419.8230;-77.1000;-73.9900;-3.1100
1420.0220;-77.3000;-74.0900;-3.2100
1420.2210;-77.4600;-74.0900;-3.3700
1420.4200;-77.1800;-73.7000;-3.4800
1420.6200;-77.1900;-74.3100;-2.8800
1420.8190;-77.0600;-74.0400;-3.0200
1421.0180;-77.7400;-74.4300;-3.3100
1421.2170;-78.5600;-74.2900;-4.2700
1421.4160;-77.7700;-74.3600;-3.4100
1421.6150;-77.1500;-73.9900;-3.1600
1421.8140;-77.3300;-74.3600;-2.9700
1422.0130;-76.8600;-74.1700;-2.6900
1422.2120;-78.2500;-74.4400;-3.8100
1422.4120;-77.8700;-74.4600;-3.4100
1422.6110;-77.6200;-74.2300;-3.3900
1422.8100;-77.9600;-74.0100;-3.9500
1423.0090;-77.5100;-74.4400;-3.0700
1423.2080;-77.0300;-74.0500;-2.9800
1423.4070;-77.1300;-74.1000;-3.0300
1423.6060;-77.5100;-74.1300;-3.3800
1423.8050;-77.9100;-74.3800;-3.5300
1424.0040;-78.3600;-74.1000;-4.2600
1424.2040;-78.3600;-74.6700;-3.6900
1424.4030;-79.7500;-74.3300;-5.4200
1424.6020;-78.2300;-74.1300;-4.1000
1424.8010;-77.3100;-74.0600;-3.2500
1425.0000;-77.6000;-74.1700;-3.4300
