Wavelength;Intensity_Meas;Intensity_Ref;Difference_dB
1200.0000;-61.2400;-56.1700;-5.0700
1200.1990;-61.1900;-56.1300;-5.0600
1200.3980;-61.1400;-56.1000;-5.0400
1200.5970;-61.1400;-56.0800;-5.0600
1200.7970;-61.1300;-56.0500;-5.0800
1200.9960;-61.1100;-56.0200;-5.0900
1201.1950;-61.0700;-55.9700;-5.1000
1201.3940;-61.0400;-55.9300;-5.1100
1201.5930;-60.9800;-55.9000;-5.0800
1201.7920;-60.9400;-55.8500;-5.0900
1201.9910;-60.9300;-55.8100;-5.1200
1202.1900;-60.8700;-55.7500;-5.1200
1202.3890;-60.7800;-55.7000;-5.0800
1202.5890;-60.7300;-55.6600;-5.0700
1202.7880;-60.7100;-55.5900;-5.1200
1202.9870;-60.6500;-55.5400;-5.1100
1203.1860;-60.5300;-55.4800;-5.0500
1203.3850;-60.5000;-55.4400;-5.0600
1203.5840;-60.5100;-55.4200;-5.0900
1203.7830;-60.4900;-55.3500;-5.1400
1203.9820;-60.3900;-55.3200;-5.0700
1204.1810;-60.3600;-55.2800;-5.0800
1204.3810;-60.3900;-55.2400;-5.1500
1204.5800;-60.3700;-55.2300;-5.1400
1204.7790;-60.3000;-55.1800;-5.1200
1204.9780;-60.2600;-55.1500;-5.1100
1205.1770;-60.2600;-55.1200;-5.1400
1205.3760;-60.2400;-55.0900;-5.1500
1205.5750;-60.2200;-55.0900;-5.1300
1205.7740;-60.1800;-55.0500;-5.1300
1205.9740;-60.1600;-55.0400;-5.1200
1206.1730;-60.1400;-55.0200;-5.1200
1206.3720;-60.1200;-54.9900;-5.1300
1206.5710;-60.0800;-54.9800;-5.1000
1206.7700;-60.0100;-54.9500;-5.0600
1206.9690;-60.0200;-54.9300;-5.0900
1207.1680;-60.0100;-54.9000;-5.1100
1207.3670;-59.9200;-54.8600;-5.0600
1207.5660;-59.8500;-54.8500;-5.0000
1207.7660;-59.8400;-54.8000;-5.0400
1207.9650;-59.8400;-54.7700;-5.0700
1208.1640;-59.7700;-54.7200;-5.0500
1208.3630;-59.7100;-54.6800;-5.0300
1208.5620;-59.6800;-54.6500;-5.0300
1208.7610;-59.6500;-54.5800;-5.0700
1208.9600;-59.6200;-54.5400;-5.0800
1209.1590;-59.5400;-54.4900;-5.0500
1209.3580;-59.4700;-54.4300;-5.0400
1209.5580;-59.4500;-54.4000;-5.0500
1209.7570;-59.4200;-54.3400;-5.0800
1209.9560;-59.3700;-54.2800;-5.0900
1210.1550;-59.2800;-54.2300;-5.0500
1210.3540;-59.2600;-54.1800;-5.0800
1210.5530;-59.2300;-54.1400;-5.0900
1210.7520;-59.1500;-54.0800;-5.0700
1210.9510;-59.1000;-54.0300;-5.0700
1211.1500;-59.0600;-54.0000;-5.0600
1211.3500;-59.0500;-53.9500;-5.1000
1211.5490;-59.0200;-53.9200;-5.1000
1211.7480;-58.9400;-53.8800;-5.0600
1211.9470;-58.9300;-53.8400;-5.0900
1212.1460;-58.9200;-53.8200;-5.1000
1212.3450;-58.8800;-53.7700;-5.1100
1212.5440;-58.8500;-53.7600;-5.0900
1212.7430;-58.8400;-53.7200;-5.1200
1212.9430;-58.8500;-53.6800;-5.1700
1213.1420;-58.8500;-53.6700;-5.1800
1213.3410;-58.7900;-53.6300;-5.1600
1213.5400;-58.7800;-53.6100;-5.1700
1213.7390;-58.8000;-53.5700;-5.2300
1213.9380;-58.8200;-53.5300;-5.2900
1214.1370;-58.7600;-53.5100;-5.2500
1214.3360;-58.7400;-53.4600;-5.2800
1214.5350;-58.7700;-53.4400;-5.3300
1214.7350;-58.7700;-53.3900;-5.3800
1214.9340;-58.7200;-53.3400;-5.3800
1215.1330;-58.6800;-53.2900;-5.3900
1215.3320;-58.6700;-53.2400;-5.4300
1215.5310;-58.6500;-53.2000;-5.4500
1215.7300;-58.6000;-53.1400;-5.4600
1215.9290;-58.5500;-53.0800;-5.4700
1216.1280;-58.4900;-53.0300;-5.4600
1216.3270;-58.4600;-52.9600;-5.5000
1216.5270;-58.3900;-52.9200;-5.4700
1216.7260;-58.3000;-52.8600;-5.4400
1216.9250;-58.2300;-52.7900;-5.4400
1217.1240;-58.1900;-52.7400;-5.4500
1217.3230;-58.1300;-52.6700;-5.4600
1217.5220;-58.0400;-52.6300;-5.4100
1217.7210;-57.9700;-52.5700;-5.4000
1217.9200;-57.9500;-52.5200;-5.4300
1218.1200;-57.8800;-52.4800;-5.4000
1218.3190;-57.8000;-52.4200;-5.3800
1218.5180;-57.7300;-52.3900;-5.3400
1218.7170;-57.7000;-52.3400;-5.3600
1218.9160;-57.6600;-52.2900;-5.3700
1219.1150;-57.5700;-52.2600;-5.3100
1219.3140;-57.5300;-52.2100;-5.3200
1219.5130;-57.4900;-52.1900;-5.3000
1219.7120;-57.4600;-52.1500;-5.3100
1219.9120;-57.4000;-52.1100;-5.2900
1220.1110;-57.3300;-52.0700;-5.2600
1220.3100;-57.3100;-52.0300;-5.2800
1220.5090;-57.2600;-52.0000;-5.2600
1220.7080;-57.1900;-51.9500;-5.2400
1220.9070;-57.1100;-51.9100;-5.2000
1221.1060;-57.0500;-51.8500;-5.2000
1221.3050;-57.0200;-51.8000;-5.2200
1221.5040;-56.9100;-51.7500;-5.1600
1221.7040;-56.8200;-51.6800;-5.1400
1221.9030;-56.7700;-51.6300;-5.1400
1222.1020;-56.7000;-51.5700;-5.1300
1222.3010;-56.6200;-51.5000;-5.1200
1222.5000;-56.5200;-51.4300;-5.0900
1222.6990;-56.4600;-51.3600;-5.1000
1222.8980;-56.4200;-51.2900;-5.1300
1223.0970;-56.3200;-51.2200;-5.1000
1223.2970;-56.2500;-51.1500;-5.1000
1223.4960;-56.1800;-51.0800;-5.1000
1223.6950;-56.1400;-51.0000;-5.1400
1223.8940;-56.0900;-50.9400;-5.1500
1224.0930;-56.0100;-50.8700;-5.1400
1224.2920;-55.9800;-50.8000;-5.1800
1224.4910;-55.9500;-50.7400;-5.2100
1224.6900;-55.9200;-50.6700;-5.2500
1224.8890;-55.8800;-50.6000;-5.2800
1225.0890;-55.8600;-50.5500;-5.3100
1225.2880;-55.8600;-50.4800;-5.3800
1225.4870;-55.8100;-50.4300;-5.3800
1225.6860;-55.8100;-50.3700;-5.4400
1225.8850;-55.8100;-50.3200;-5.4900
1226.0840;-55.8000;-50.2700;-5.5300
1226.2830;-55.8100;-50.2100;-5.6000
1226.4820;-55.7900;-50.1600;-5.6300
1226.6810;-55.8000;-50.1100;-5.6900
1226.8810;-55.8000;-50.0600;-5.7400
1227.0800;-55.7900;-50.0000;-5.7900
1227.2790;-55.7800;-49.9500;-5.8300
1227.4780;-55.7700;-49.8900;-5.8800
1227.6770;-55.7700;-49.8300;-5.9400
1227.8760;-55.7500;-49.7700;-5.9800
1228.0750;-55.7200;-49.7100;-6.0100
1228.2740;-55.7300;-49.6400;-6.0900
1228.4740;-55.6900;-49.5700;-6.1200
1228.6730;-55.6600;-49.4900;-6.1700
1228.8720;-55.6400;-49.4200;-6.2200
1229.0710;-55.6100;-49.3500;-6.2600
1229.2700;-55.6000;-49.2600;-6.3400
1229.4690;-55.5400;-49.1900;-6.3500
1229.6680;-55.5100;-49.1000;-6.4100
1229.8670;-55.4900;-49.0100;-6.4800
1230.0660;-55.4700;-48.9500;-6.5200
1230.2660;-55.4200;-48.8500;-6.5700
1230.4650;-55.3600;-48.7700;-6.5900
1230.6640;-55.3500;-48.6900;-6.6600
1230.8630;-55.3300;-48.6200;-6.7100
1231.0620;-55.2900;-48.5500;-6.7400
1231.2610;-55.2700;-48.4800;-6.7900
1231.4600;-55.2400;-48.4300;-6.8100
1231.6590;-55.2000;-48.3500;-6.8500
1231.8580;-55.1500;-48.2800;-6.8700
1232.0580;-55.1200;-48.2300;-6.8900
1232.2570;-55.0800;-48.1600;-6.9200
1232.4560;-55.0100;-48.1200;-6.8900
1232.6550;-54.9500;-48.0400;-6.9100
1232.8540;-54.8900;-47.9800;-6.9100
1233.0530;-54.8300;-47.9300;-6.9000
1233.2520;-54.7600;-47.8600;-6.9000
1233.4510;-54.6600;-47.8100;-6.8500
1233.6500;-54.5900;-47.7400;-6.8500
1233.8500;-54.5100;-47.6800;-6.8300
1234.0490;-54.4200;-47.6200;-6.8000
1234.2480;-54.3200;-47.5400;-6.7800
1234.4470;-54.2100;-47.4800;-6.7300
1234.6460;-54.1200;-47.4000;-6.7200
1234.8450;-54.0200;-47.3300;-6.6900
1235.0440;-53.9000;-47.2400;-6.6600
1235.2430;-53.8100;-47.1600;-6.6500
1235.4430;-53.6800;-47.0800;-6.6000
1235.6420;-53.5700;-46.9800;-6.5900
1235.8410;-53.4500;-46.9000;-6.5500
1236.0400;-53.3500;-46.8100;-6.5400
1236.2390;-53.2400;-46.7100;-6.5300
1236.4380;-53.1100;-46.6200;-6.4900
1236.6370;-53.0100;-46.5300;-6.4800
1236.8360;-52.8900;-46.4400;-6.4500
1237.0350;-52.7800;-46.3400;-6.4400
1237.2350;-52.6800;-46.2500;-6.4300
1237.4340;-52.5600;-46.1600;-6.4000
1237.6330;-52.4700;-46.0700;-6.4000
1237.8320;-52.3600;-46.0000;-6.3600
1238.0310;-52.2500;-45.8900;-6.3600
1238.2300;-52.1600;-45.8300;-6.3300
1238.4290;-52.0500;-45.7300;-6.3200
1238.6280;-51.9700;-45.6600;-6.3100
1238.8270;-51.8600;-45.5800;-6.2800
1239.0270;-51.7800;-45.5000;-6.2800
1239.2260;-51.6900;-45.4200;-6.2700
1239.4250;-51.5800;-45.3300;-6.2500
1239.6240;-51.5100;-45.2500;-6.2600
1239.8230;-51.4100;-45.1600;-6.2500
1240.0220;-51.3200;-45.0700;-6.2500
1240.2210;-51.2300;-44.9900;-6.2400
1240.4200;-51.1200;-44.8800;-6.2400
1240.6200;-51.0400;-44.8000;-6.2400
1240.8190;-50.9300;-44.6900;-6.2400
1241.0180;-50.8100;-44.5700;-6.2400
1241.2170;-50.7000;-44.4700;-6.2300
1241.4160;-50.5800;-44.3500;-6.2300
1241.6150;-50.4500;-44.2300;-6.2200
1241.8140;-50.3100;-44.1100;-6.2000
1242.0130;-50.1600;-43.9900;-6.1700
1242.2120;-50.0300;-43.8800;-6.1500
1242.4120;-49.8700;-43.7400;-6.1300
1242.6110;-49.7100;-43.6100;-6.1000
1242.8100;-49.5400;-43.4900;-6.0500
1243.0090;-49.3600;-43.3500;-6.0100
1243.2080;-49.1900;-43.2300;-5.9600
1243.4070;-49.0100;-43.0900;-5.9200
1243.6060;-48.8300;-42.9700;-5.8600
1243.8050;-48.6400;-42.8400;-5.8000
1244.0040;-48.4500;-42.7100;-5.7400
1244.2040;-48.2800;-42.6000;-5.6800
1244.4030;-48.0900;-42.4600;-5.6300
1244.6020;-47.9100;-42.3400;-5.5700
1244.8010;-47.7200;-42.2200;-5.5000
1245.0000;-47.5400;-42.0900;-5.4500
1245.1990;-47.3800;-41.9900;-5.3900
1245.3980;-47.1900;-41.8600;-5.3300
1245.5970;-47.0200;-41.7300;-5.2900
1245.7970;-46.8400;-41.6100;-5.2300
1245.9960;-46.6600;-41.4800;-5.1800
1246.1950;-46.4900;-41.3600;-5.1300
1246.3940;-46.3200;-41.2300;-5.0900
1246.5930;-46.1500;-41.0900;-5.0600
1246.7920;-45.9700;-40.9600;-5.0100
1246.9910;-45.7800;-40.8100;-4.9700
1247.1900;-45.6400;-40.6900;-4.9500
1247.3890;-45.4900;-40.5400;-4.9500
1247.5890;-45.3400;-40.3900;-4.9500
1247.7880;-45.1800;-40.2500;-4.9300
1247.9870;-45.0300;-40.0900;-4.9400
1248.1860;-44.8800;-39.9500;-4.9300
1248.3850;-44.7600;-39.7900;-4.9700
1248.5840;-44.6400;-39.6300;-5.0100
1248.7830;-44.5200;-39.4900;-5.0300
1248.9820;-44.4200;-39.3300;-5.0900
1249.1810;-44.3300;-39.1900;-5.1400
1249.3810;-44.2400;-39.0300;-5.2100
1249.5800;-44.1700;-38.8700;-5.3000
1249.7790;-44.1000;-38.7300;-5.3700
1249.9780;-44.0400;-38.5600;-5.4800
1250.1770;-43.9900;-38.4300;-5.5600
1250.3760;-43.9500;-38.2700;-5.6800
1250.5750;-43.9200;-38.1200;-5.8000
1250.7740;-43.8800;-37.9800;-5.9000
1250.9740;-43.8800;-37.8500;-6.0300
1251.1730;-43.8500;-37.7200;-6.1300
1251.3720;-43.8400;-37.5600;-6.2800
1251.5710;-43.8500;-37.4400;-6.4100
1251.7700;-43.8300;-37.2900;-6.5400
1251.9690;-43.8400;-37.1500;-6.6900
1252.1680;-43.8200;-37.0100;-6.8100
1252.3670;-43.8200;-36.8600;-6.9600
1252.5660;-43.8400;-36.7300;-7.1100
1252.7660;-43.8300;-36.5700;-7.2600
1252.9650;-43.8500;-36.4300;-7.4200
1253.1640;-43.8400;-36.2900;-7.5500
1253.3630;-43.8300;-36.1200;-7.7100
1253.5620;-43.8300;-35.9900;-7.8400
1253.7610;-43.8000;-35.8000;-8.0000
1253.9600;-43.7800;-35.6800;-8.1000
1254.1590;-43.7100;-35.5100;-8.2000
1254.3580;-43.6200;-35.3500;-8.2700
1254.5580;-43.5100;-35.2100;-8.3000
1254.7570;-43.3400;-35.0400;-8.3000
1254.9560;-43.1600;-34.8900;-8.2700
1255.1550;-42.9300;-34.7300;-8.2000
1255.3540;-42.6600;-34.5700;-8.0900
1255.5530;-42.3700;-34.4300;-7.9400
1255.7520;-42.0400;-34.2700;-7.7700
1255.9510;-41.6900;-34.1300;-7.5600
1256.1500;-41.3200;-33.9700;-7.3500
1256.3500;-40.9300;-33.8400;-7.0900
1256.5490;-40.5500;-33.7100;-6.8400
1256.7480;-40.1600;-33.5600;-6.6000
1256.9470;-39.7800;-33.4300;-6.3500
1257.1460;-39.3800;-33.2900;-6.0900
1257.3450;-39.0000;-33.1500;-5.8500
1257.5440;-38.6200;-33.0300;-5.5900
1257.7430;-38.2500;-32.8800;-5.3700
1257.9430;-37.8900;-32.7500;-5.1400
1258.1420;-37.5300;-32.6100;-4.9200
1258.3410;-37.1900;-32.4700;-4.7200
1258.5400;-36.8500;-32.3500;-4.5000
1258.7390;-36.5000;-32.2000;-4.3000
1258.9380;-36.1800;-32.0700;-4.1100
1259.1370;-35.8000;-31.9200;-3.8800
1259.3360;-35.5500;-31.7800;-3.7700
1259.5350;-35.2300;-31.6400;-3.5900
1259.7350;-34.9400;-31.4900;-3.4500
1259.9340;-34.6300;-31.3500;-3.2800
1260.1330;-34.3500;-31.2000;-3.1500
1260.3320;-34.0900;-31.0600;-3.0300
1260.5310;-33.8200;-30.9200;-2.9000
1260.7300;-33.5700;-30.7700;-2.8000
1260.9290;-33.3100;-30.6400;-2.6700
1261.1280;-33.0800;-30.4900;-2.5900
1261.3270;-32.8700;-30.3600;-2.5100
1261.5270;-32.6700;-30.2300;-2.4400
1261.7260;-32.4800;-30.1000;-2.3800
1261.9250;-32.2900;-29.9700;-2.3200
1262.1240;-32.1100;-29.8300;-2.2800
1262.3230;-31.9600;-29.7100;-2.2500
1262.5220;-31.8200;-29.5900;-2.2300
1262.7210;-31.6900;-29.4600;-2.2300
1262.9200;-31.5600;-29.3500;-2.2100
1263.1200;-31.4400;-29.2200;-2.2200
1263.3190;-31.3500;-29.1000;-2.2500
1263.5180;-31.2600;-28.9800;-2.2800
1263.7170;-31.1900;-28.8600;-2.3300
1263.9160;-31.1000;-28.7400;-2.3600
1264.1150;-31.0400;-28.6000;-2.4400
1264.3140;-31.0000;-28.4800;-2.5200
1264.5130;-30.9600;-28.3500;-2.6100
1264.7120;-30.9400;-28.2200;-2.7200
1264.9120;-30.9100;-28.1000;-2.8100
1265.1110;-30.8900;-27.9600;-2.9300
1265.3100;-30.8800;-27.8300;-3.0500
1265.5090;-30.8800;-27.7000;-3.1800
1265.7080;-30.9000;-27.5700;-3.3300
1265.9070;-30.8900;-27.4400;-3.4500
1266.1060;-30.9000;-27.3000;-3.6000
1266.3050;-30.9000;-27.1800;-3.7200
1266.5040;-30.9000;-27.0500;-3.8500
1266.7040;-30.9100;-26.9300;-3.9800
1266.9030;-30.8800;-26.8000;-4.0800
1267.1020;-30.8600;-26.6700;-4.1900
1267.3010;-30.8200;-26.5600;-4.2600
1267.5000;-30.7600;-26.4300;-4.3300
1267.6990;-30.7100;-26.3200;-4.3900
1267.8980;-30.6100;-26.2000;-4.4100
1268.0970;-30.5200;-26.0700;-4.4500
1268.2970;-30.4000;-25.9700;-4.4300
1268.4960;-30.2600;-25.8600;-4.4000
1268.6950;-30.1100;-25.7500;-4.3600
1268.8940;-29.9300;-25.6200;-4.3100
1269.0930;-29.7400;-25.5100;-4.2300
1269.2920;-29.5300;-25.3900;-4.1400
1269.4910;-29.3200;-25.2800;-4.0400
1269.6900;-29.1000;-25.1700;-3.9300
1269.8890;-28.8400;-25.0400;-3.8000
1270.0890;-28.5900;-24.9200;-3.6700
1270.2880;-28.3200;-24.8000;-3.5200
1270.4870;-28.0400;-24.6900;-3.3500
1270.6860;-27.7600;-24.5700;-3.1900
1270.8850;-27.4600;-24.4400;-3.0200
1271.0840;-27.1700;-24.3200;-2.8500
1271.2830;-26.8700;-24.2000;-2.6700
1271.4820;-26.5700;-24.0800;-2.4900
1271.6810;-26.2900;-23.9700;-2.3200
1271.8810;-25.9400;-23.8300;-2.1100
1272.0800;-25.7200;-23.7300;-1.9900
1272.2790;-25.4400;-23.6100;-1.8300
1272.4780;-25.1900;-23.4900;-1.7000
1272.6770;-24.9300;-23.3900;-1.5400
1272.8760;-24.6900;-23.2700;-1.4200
1273.0750;-24.4600;-23.1700;-1.2900
1273.2740;-24.2400;-23.0600;-1.1800
1273.4740;-24.0500;-22.9500;-1.1000
1273.6730;-23.8400;-22.8600;-0.9800
1273.8720;-23.6700;-22.7500;-0.9200
1274.0710;-23.4900;-22.6600;-0.8300
1274.2700;-23.3300;-22.5500;-0.7800
1274.4690;-23.1900;-22.4500;-0.7400
1274.6680;-23.0400;-22.3600;-0.6800
1274.8670;-22.9200;-22.2500;-0.6700
1275.0660;-22.8000;-22.1700;-0.6300
1275.2660;-22.6800;-22.0600;-0.6200
1275.4650;-22.5900;-21.9600;-0.6300
1275.6640;-22.4900;-21.8700;-0.6200
1275.8630;-22.4100;-21.7700;-0.6400
1276.0620;-22.3300;-21.6800;-0.6500
1276.2610;-22.2700;-21.5800;-0.6900
1276.4600;-22.2300;-21.4800;-0.7500
1276.6590;-22.1700;-21.3800;-0.7900
1276.8580;-22.1500;-21.2800;-0.8700
1277.0580;-22.1200;-21.2000;-0.9200
1277.2570;-22.1200;-21.0900;-1.0300
1277.4560;-22.1300;-21.0100;-1.1200
1277.6550;-22.1400;-20.9200;-1.2200
1277.8540;-22.1900;-20.8300;-1.3600
1278.0530;-22.2200;-20.7500;-1.4700
1278.2520;-22.2700;-20.6600;-1.6100
1278.4510;-22.3500;-20.5800;-1.7700
1278.6500;-22.4100;-20.4900;-1.9200
1278.8500;-22.5100;-20.4100;-2.1000
1279.0490;-22.5900;-20.3400;-2.2500
1279.2480;-22.7000;-20.2500;-2.4500
1279.4470;-22.8100;-20.1900;-2.6200
1279.6460;-22.9100;-20.1000;-2.8100
1279.8450;-23.0400;-20.0200;-3.0200
1280.0440;-23.1500;-19.9500;-3.2000
1280.2430;-23.2800;-19.8700;-3.4100
1280.4430;-23.4000;-19.8100;-3.5900
1280.6420;-23.5200;-19.7200;-3.8000
1280.8410;-23.6500;-19.6400;-4.0100
1281.0400;-23.7600;-19.5700;-4.1900
1281.2390;-23.8700;-19.4900;-4.3800
1281.4380;-23.9500;-19.4200;-4.5300
1281.6370;-24.0200;-19.3300;-4.6900
1281.8360;-24.1000;-19.2500;-4.8500
1282.0350;-24.1200;-19.1700;-4.9500
1282.2350;-24.1300;-19.0800;-5.0500
1282.4340;-24.1000;-19.0200;-5.0800
1282.6330;-24.0500;-18.9400;-5.1100
1282.8320;-23.9700;-18.8600;-5.1100
1283.0310;-23.8400;-18.7800;-5.0600
1283.2300;-23.6900;-18.7000;-4.9900
1283.4290;-23.5000;-18.6400;-4.8600
1283.6280;-23.2800;-18.5500;-4.7300
1283.8270;-23.0500;-18.4900;-4.5600
1284.0270;-22.7800;-18.4100;-4.3700
1284.2260;-22.5200;-18.3300;-4.1900
1284.4250;-22.2300;-18.2800;-3.9500
1284.6240;-21.9300;-18.2000;-3.7300
1284.8230;-21.6500;-18.1300;-3.5200
1285.0220;-21.3400;-18.0500;-3.2900
1285.2210;-21.0600;-17.9800;-3.0800
1285.4200;-20.7500;-17.9200;-2.8300
1285.6200;-20.4700;-17.8400;-2.6300
1285.8190;-20.1900;-17.7800;-2.4100
1286.0180;-19.9000;-17.7000;-2.2000
1286.2170;-19.6400;-17.6300;-2.0100
1286.4160;-19.3700;-17.5700;-1.8000
1286.6150;-19.1200;-17.5000;-1.6200
1286.8140;-18.8800;-17.4400;-1.4400
1287.0130;-18.6400;-17.3600;-1.2800
1287.2120;-18.4300;-17.2900;-1.1400
1287.4120;-18.2000;-17.2200;-0.9800
1287.6110;-18.0000;-17.1500;-0.8500
1287.8100;-17.8100;-17.1000;-0.7100
1288.0090;-17.6200;-17.0200;-0.6000
1288.2080;-17.4700;-16.9600;-0.5100
1288.4070;-17.3000;-16.9000;-0.4000
1288.6060;-17.1700;-16.8300;-0.3400
1288.8050;-17.0300;-16.7800;-0.2500
1289.0040;-16.9100;-16.7100;-0.2000
1289.2040;-16.8100;-16.6600;-0.1500
1289.4030;-16.7000;-16.6000;-0.1000
1289.6020;-16.6300;-16.5500;-0.0800
1289.8010;-16.5400;-16.5000;-0.0400
1290.0000;-16.4800;-16.4300;-0.0500
1290.1990;-16.4300;-16.3900;-0.0400
1290.3980;-16.3800;-16.3300;-0.0500
1290.5970;-16.3600;-16.2900;-0.0700
1290.7970;-16.3300;-16.2500;-0.0800
1290.9960;-16.3000;-16.1800;-0.1200
1291.1950;-16.2900;-16.1400;-0.1500
1291.3940;-16.2900;-16.0800;-0.2100
1291.5930;-16.3000;-16.0400;-0.2600
1291.7920;-16.3100;-15.9800;-0.3300
1291.9910;-16.3400;-15.9400;-0.4000
1292.1900;-16.3700;-15.8900;-0.4800
1292.3890;-16.4100;-15.8500;-0.5600
1292.5890;-16.4600;-15.8000;-0.6600
1292.7880;-16.5000;-15.7500;-0.7500
1292.9870;-16.5700;-15.7100;-0.8600
1293.1860;-16.6200;-15.6600;-0.9600
1293.3850;-16.7000;-15.6200;-1.0800
1293.5840;-16.7700;-15.5800;-1.1900
1293.7830;-16.8400;-15.5300;-1.3100
1293.9820;-16.9300;-15.5000;-1.4300
1294.1810;-17.0000;-15.4500;-1.5500
1294.3810;-17.0800;-15.4200;-1.6600
1294.5800;-17.1400;-15.3800;-1.7600
1294.7790;-17.2100;-15.3400;-1.8700
1294.9780;-17.3000;-15.3100;-1.9900
1295.1770;-17.3600;-15.2700;-2.0900
1295.3760;-17.4300;-15.2400;-2.1900
1295.5750;-17.4700;-15.2000;-2.2700
1295.7740;-17.5200;-15.1600;-2.3600
1295.9740;-17.5600;-15.1300;-2.4300
1296.1730;-17.5900;-15.0800;-2.5100
1296.3720;-17.6200;-15.0600;-2.5600
1296.5710;-17.6200;-15.0200;-2.6000
1296.7700;-17.6300;-14.9800;-2.6500
1296.9690;-17.6300;-14.9600;-2.6700
1297.1680;-17.6200;-14.9300;-2.6900
1297.3670;-17.6200;-14.9000;-2.7200
1297.5660;-17.5700;-14.8500;-2.7200
1297.7660;-17.5500;-14.8200;-2.7300
1297.9650;-17.5100;-14.8000;-2.7100
1298.1640;-17.4700;-14.7600;-2.7100
1298.3630;-17.4400;-14.7400;-2.7000
1298.5620;-17.3800;-14.7000;-2.6800
1298.7610;-17.3400;-14.6700;-2.6700
1298.9600;-17.2900;-14.6500;-2.6400
1299.1590;-17.2500;-14.6200;-2.6300
1299.3580;-17.2200;-14.6000;-2.6200
1299.5580;-17.1700;-14.5600;-2.6100
1299.7570;-17.1500;-14.5400;-2.6100
1299.9560;-17.1100;-14.5200;-2.5900
1300.1550;-17.1000;-14.4900;-2.6100
1300.3540;-17.0900;-14.4800;-2.6100
1300.5530;-17.0700;-14.4300;-2.6400
1300.7520;-17.0800;-14.4100;-2.6700
1300.9510;-17.0800;-14.3900;-2.6900
1301.1500;-17.1200;-14.3800;-2.7400
1301.3500;-17.1400;-14.3700;-2.7700
1301.5490;-17.1900;-14.3500;-2.8400
1301.7480;-17.2500;-14.3400;-2.9100
1301.9470;-17.3000;-14.3200;-2.9800
1302.1460;-17.4000;-14.3100;-3.0900
1302.3450;-17.4800;-14.3000;-3.1800
1302.5440;-17.5900;-14.2800;-3.3100
1302.7430;-17.7200;-14.2800;-3.4400
1302.9430;-17.8500;-14.2600;-3.5900
1303.1420;-18.0200;-14.2500;-3.7700
1303.3410;-18.1900;-14.2400;-3.9500
1303.5400;-18.4000;-14.2400;-4.1600
1303.7390;-18.6100;-14.2400;-4.3700
1303.9380;-18.8400;-14.2100;-4.6300
1304.1370;-19.1100;-14.2200;-4.8900
1304.3360;-19.3700;-14.2100;-5.1600
1304.5350;-19.6800;-14.2100;-5.4700
1304.7350;-20.0000;-14.2200;-5.7800
1304.9340;-20.3500;-14.2100;-6.1400
1305.1330;-20.7300;-14.2200;-6.5100
1305.3320;-21.1100;-14.2100;-6.9000
1305.5310;-21.5400;-14.2200;-7.3200
1305.7300;-21.9500;-14.2300;-7.7200
1305.9290;-22.4100;-14.2200;-8.1900
1306.1280;-22.9000;-14.2400;-8.6600
1306.3270;-23.3800;-14.2400;-9.1400
1306.5270;-23.9000;-14.2500;-9.6500
1306.7260;-24.3900;-14.2600;-10.1300
1306.9250;-24.8600;-14.2600;-10.6000
1307.1240;-25.2800;-14.2800;-11.0000
1307.3230;-25.6500;-14.2800;-11.3700
1307.5220;-25.9300;-14.3000;-11.6300
1307.7210;-26.0700;-14.3100;-11.7600
1307.9200;-26.0900;-14.3100;-11.7800
1308.1200;-25.9600;-14.3500;-11.6100
1308.3190;-25.7000;-14.3500;-11.3500
1308.5180;-25.3500;-14.3700;-10.9800
1308.7170;-24.8900;-14.3800;-10.5100
1308.9160;-24.4000;-14.3900;-10.0100
1309.1150;-23.8700;-14.4300;-9.4400
1309.3140;-23.3400;-14.4300;-8.9100
1309.5130;-22.8300;-14.4700;-8.3600
1309.7120;-22.3100;-14.4800;-7.8300
1309.9120;-21.8300;-14.5000;-7.3300
1310.1110;-21.3500;-14.5400;-6.8100
1310.3100;-20.9100;-14.5500;-6.3600
1310.5090;-20.4800;-14.5900;-5.8900
1310.7080;-20.0700;-14.6000;-5.4700
1310.9070;-19.6900;-14.6200;-5.0700
1311.1060;-19.3400;-14.6600;-4.6800
1311.3050;-19.0100;-14.6700;-4.3400
1311.5040;-18.7000;-14.7200;-3.9800
1311.7040;-18.4100;-14.7300;-3.6800
1311.9030;-18.1400;-14.7700;-3.3700
1312.1020;-17.8900;-14.7900;-3.1000
1312.3010;-17.6700;-14.8200;-2.8500
1312.5000;-17.4700;-14.8700;-2.6000
1312.6990;-17.2900;-14.9000;-2.3900
1312.8980;-17.1000;-14.9400;-2.1600
1313.0970;-16.9500;-14.9600;-1.9900
1313.2970;-16.8100;-15.0000;-1.8100
1313.4960;-16.7000;-15.0500;-1.6500
1313.6950;-16.6100;-15.0800;-1.5300
1313.8940;-16.5200;-15.1300;-1.3900
1314.0930;-16.4600;-15.1600;-1.3000
1314.2920;-16.4000;-15.2100;-1.1900
1314.4910;-16.3600;-15.2600;-1.1000
1314.6900;-16.3400;-15.3000;-1.0400
1314.8890;-16.3200;-15.3500;-0.9700
1315.0890;-16.3300;-15.3800;-0.9500
1315.2880;-16.3300;-15.4400;-0.8900
1315.4870;-16.3700;-15.4800;-0.8900
1315.6860;-16.4000;-15.5300;-0.8700
1315.8850;-16.4500;-15.5800;-0.8700
1316.0840;-16.5100;-15.6300;-0.8800
1316.2830;-16.5700;-15.6900;-0.8800
1316.4820;-16.6700;-15.7400;-0.9300
1316.6810;-16.7600;-15.7900;-0.9700
1316.8810;-16.8800;-15.8500;-1.0300
1317.0800;-17.0000;-15.9100;-1.0900
1317.2790;-17.1300;-15.9800;-1.1500
1317.4780;-17.2900;-16.0400;-1.2500
1317.6770;-17.4200;-16.1100;-1.3100
1317.8760;-17.5800;-16.1600;-1.4200
1318.0750;-17.7200;-16.2200;-1.5000
1318.2740;-17.9000;-16.2900;-1.6100
1318.4740;-18.0800;-16.3500;-1.7300
1318.6730;-18.2900;-16.4500;-1.8400
1318.8720;-18.5000;-16.5000;-2.0000
1319.0710;-18.6600;-16.5800;-2.0800
1319.2700;-18.8700;-16.6500;-2.2200
1319.4690;-19.0600;-16.7200;-2.3400
1319.6680;-19.2700;-16.8100;-2.4600
1319.8670;-19.4600;-16.8800;-2.5800
1320.0660;-19.6400;-16.9600;-2.6800
1320.2660;-19.8300;-17.0300;-2.8000
1320.4650;-20.0100;-17.1100;-2.9000
1320.6640;-20.2100;-17.2100;-3.0000
1320.8630;-20.3600;-17.2900;-3.0700
1321.0620;-20.5200;-17.3800;-3.1400
1321.2610;-20.6600;-17.4500;-3.2100
1321.4600;-20.7900;-17.5500;-3.2400
1321.6590;-20.9100;-17.6300;-3.2800
1321.8580;-21.0100;-17.7100;-3.3000
1322.0580;-21.1100;-17.8200;-3.2900
1322.2570;-21.1900;-17.9000;-3.2900
1322.4560;-21.2500;-18.0100;-3.2400
1322.6550;-21.3100;-18.0900;-3.2200
1322.8540;-21.3400;-18.1900;-3.1500
1323.0530;-21.3800;-18.2900;-3.0900
1323.2520;-21.4000;-18.3900;-3.0100
1323.4510;-21.4300;-18.5100;-2.9200
1323.6500;-21.4500;-18.5900;-2.8600
1323.8500;-21.4500;-18.7000;-2.7500
1324.0490;-21.4700;-18.8000;-2.6700
1324.2480;-21.4600;-18.9100;-2.5500
1324.4470;-21.4700;-19.0200;-2.4500
1324.6460;-21.4900;-19.1200;-2.3700
1324.8450;-21.5000;-19.2400;-2.2600
1325.0440;-21.5400;-19.3400;-2.2000
1325.2430;-21.5500;-19.4600;-2.0900
1325.4430;-21.5800;-19.5700;-2.0100
1325.6420;-21.6300;-19.6900;-1.9400
1325.8410;-21.6700;-19.8100;-1.8600
1326.0400;-21.7400;-19.9200;-1.8200
1326.2390;-21.7900;-20.0500;-1.7400
1326.4380;-21.8800;-20.1600;-1.7200
1326.6370;-21.9500;-20.2800;-1.6700
1326.8360;-22.0500;-20.4000;-1.6500
1327.0350;-22.1600;-20.5200;-1.6400
1327.2350;-22.2700;-20.6600;-1.6100
1327.4340;-22.4200;-20.7700;-1.6500
1327.6330;-22.5500;-20.9000;-1.6500
1327.8320;-22.7100;-21.0200;-1.6900
1328.0310;-22.8900;-21.1500;-1.7400
1328.2300;-23.0700;-21.2900;-1.7800
1328.4290;-23.2800;-21.4100;-1.8700
1328.6280;-23.4800;-21.5600;-1.9200
1328.8270;-23.7100;-21.6800;-2.0300
1329.0270;-23.9500;-21.8100;-2.1400
1329.2260;-24.2000;-21.9600;-2.2400
1329.4250;-24.4900;-22.0800;-2.4100
1329.6240;-24.7600;-22.2300;-2.5300
1329.8230;-25.0800;-22.3500;-2.7300
1330.0220;-25.4000;-22.4900;-2.9100
1330.2210;-25.7300;-22.6400;-3.0900
1330.4200;-26.1000;-22.7700;-3.3300
1330.6200;-26.4800;-22.9200;-3.5600
1330.8190;-26.8900;-23.0600;-3.8300
1331.0180;-27.3100;-23.2100;-4.1000
1331.2170;-27.7800;-23.3500;-4.4300
1331.4160;-28.2600;-23.5000;-4.7600
1331.6150;-28.8600;-23.6500;-5.2100
1331.8140;-29.3100;-23.7900;-5.5200
1332.0130;-29.8700;-23.9600;-5.9100
1332.2120;-30.4900;-24.0900;-6.4000
1332.4120;-31.1200;-24.2500;-6.8700
1332.6110;-31.8200;-24.4100;-7.4100
1332.8100;-32.5400;-24.5600;-7.9800
1333.0090;-33.3100;-24.7300;-8.5800
1333.2080;-34.1500;-24.8700;-9.2800
1333.4070;-35.0300;-25.0300;-10.0000
1333.6060;-35.9900;-25.1800;-10.8100
1333.8050;-36.9900;-25.3400;-11.6500
1334.0040;-38.0700;-25.5100;-12.5600
1334.2040;-39.4900;-25.6600;-13.8300
1334.4030;-40.4700;-25.8300;-14.6400
1334.6020;-41.6900;-25.9800;-15.7100
1334.8010;-42.8800;-26.1400;-16.7400
1335.0000;-43.9000;-26.3100;-17.5900
1335.1990;-44.5600;-26.4600;-18.1000
1335.3980;-44.7500;-26.6400;-18.1100
1335.5970;-44.4400;-26.7900;-17.6500
1335.7970;-43.8300;-26.9600;-16.8700
1335.9960;-43.0600;-27.1300;-15.9300
1336.1950;-42.2300;-27.2900;-14.9400
1336.3940;-41.4600;-27.4500;-14.0100
1336.5930;-40.7100;-27.6100;-13.1000
1336.7920;-40.0600;-27.7900;-12.2700
1336.9910;-39.4700;-27.9400;-11.5300
1337.1900;-38.9500;-28.1100;-10.8400
1337.3890;-38.5100;-28.2800;-10.2300
1337.5890;-38.1100;-28.4400;-9.6700
1337.7880;-37.7900;-28.6500;-9.1400
1337.9870;-37.4900;-28.7900;-8.7000
1338.1860;-37.2500;-28.9600;-8.2900
1338.3850;-37.0400;-29.1300;-7.9100
1338.5840;-36.8800;-29.3100;-7.5700
1338.7830;-36.7600;-29.4700;-7.2900
1338.9820;-36.6600;-29.6400;-7.0200
1339.1810;-36.6100;-29.8200;-6.7900
1339.3810;-36.5700;-29.9900;-6.5800
1339.5800;-36.5800;-30.1700;-6.4100
1339.7790;-36.6100;-30.3300;-6.2800
1339.9780;-36.6600;-30.5200;-6.1400
1340.1770;-36.7600;-30.6900;-6.0700
1340.3760;-36.8600;-30.8600;-6.0000
1340.5750;-37.0100;-31.0600;-5.9500
1340.7740;-37.1700;-31.2200;-5.9500
1340.9740;-37.3500;-31.4000;-5.9500
1341.1730;-37.5700;-31.5700;-6.0000
1341.3720;-37.7900;-31.7400;-6.0500
1341.5710;-38.0700;-31.9200;-6.1500
1341.7700;-38.3500;-32.0900;-6.2600
1341.9690;-38.6700;-32.2800;-6.3900
1342.1680;-39.0200;-32.4400;-6.5800
1342.3670;-39.3800;-32.6200;-6.7600
1342.5660;-39.7800;-32.7900;-6.9900
1342.7660;-40.2000;-32.9700;-7.2300
1342.9650;-40.6700;-33.1600;-7.5100
1343.1640;-41.1700;-33.3300;-7.8400
1343.3630;-41.7000;-33.5100;-8.1900
1343.5620;-42.2700;-33.6800;-8.5900
1343.7610;-42.8600;-33.8500;-9.0100
1343.9600;-43.5200;-34.0500;-9.4700
1344.1590;-44.2100;-34.2200;-9.9900
1344.3580;-44.9600;-34.4100;-10.5500
1344.5580;-45.7500;-34.5800;-11.1700
1344.7570;-46.5600;-34.7700;-11.7900
1344.9560;-47.4200;-34.9400;-12.4800
1345.1550;-48.2700;-35.1000;-13.1700
1345.3540;-49.3400;-35.2800;-14.0600
1345.5530;-49.9900;-35.4400;-14.5500
1345.7520;-50.6900;-35.6300;-15.0600
1345.9510;-51.2400;-35.8000;-15.4400
1346.1500;-51.5400;-35.9700;-15.5700
1346.3500;-51.5900;-36.1600;-15.4300
1346.5490;-51.3600;-36.3400;-15.0200
1346.7480;-50.9500;-36.5100;-14.4400
1346.9470;-50.3900;-36.6800;-13.7100
1347.1460;-49.7700;-36.8500;-12.9200
1347.3450;-49.1500;-37.0000;-12.1500
1347.5440;-48.5700;-37.2100;-11.3600
1347.7430;-48.0500;-37.4400;-10.6100
1347.9430;-47.5100;-37.6300;-9.8800
1348.1420;-46.9900;-37.8000;-9.1900
1348.3410;-46.5500;-37.9800;-8.5700
1348.5400;-46.0200;-38.1100;-7.9100
1348.7390;-45.7100;-38.2700;-7.4400
1348.9380;-45.3500;-38.4600;-6.8900
1349.1370;-45.0500;-38.5900;-6.4600
1349.3360;-44.7300;-38.7200;-6.0100
1349.5350;-44.4700;-38.8700;-5.6000
1349.7350;-44.2300;-39.0200;-5.2100
1349.9340;-44.0400;-39.1900;-4.8500
1350.1330;-43.8900;-39.3900;-4.5000
1350.3320;-43.8000;-39.6100;-4.1900
1350.5310;-43.7200;-39.8100;-3.9100
1350.7300;-43.6000;-39.9700;-3.6300
1350.9290;-43.4800;-40.1100;-3.3700
1351.1280;-43.3700;-40.2200;-3.1500
1351.3270;-43.2900;-40.3600;-2.9300
1351.5270;-43.2800;-40.5400;-2.7400
1351.7260;-43.3000;-40.7500;-2.5500
1351.9250;-43.3200;-40.9200;-2.4000
1352.1240;-43.3300;-41.0900;-2.2400
1352.3230;-43.3500;-41.2500;-2.1000
1352.5220;-43.4600;-41.4500;-2.0100
1352.7210;-43.4900;-41.5800;-1.9100
1352.9200;-43.5700;-41.7300;-1.8400
1353.1200;-43.7200;-41.9800;-1.7400
1353.3190;-43.7800;-42.0700;-1.7100
1353.5180;-43.8900;-42.2300;-1.6600
1353.7170;-44.0300;-42.4000;-1.6300
1353.9160;-44.1300;-42.4900;-1.6400
1354.1150;-44.2500;-42.6200;-1.6300
1354.3140;-44.4800;-42.8400;-1.6400
1354.5130;-44.6800;-43.0200;-1.6600
1354.7120;-45.0100;-43.3100;-1.7000
1354.9120;-45.3300;-43.6000;-1.7300
1355.1110;-45.5900;-43.7500;-1.8400
1355.3100;-45.7900;-43.8800;-1.9100
1355.5090;-45.8900;-43.8500;-2.0400
1355.7080;-46.2100;-44.1100;-2.1000
1355.9070;-46.5900;-44.3700;-2.2200
1356.1060;-46.8900;-44.5200;-2.3700
1356.3050;-47.1500;-44.6000;-2.5500
1356.5040;-47.4200;-44.6800;-2.7400
1356.7040;-47.5000;-44.6000;-2.9000
1356.9030;-47.7900;-44.7300;-3.0600
1357.1020;-48.3100;-45.0900;-3.2200
1357.3010;-48.8500;-45.3100;-3.5400
1357.5000;-49.1800;-45.4700;-3.7100
1357.6990;-49.5700;-45.6500;-3.9200
1357.8980;-49.9000;-45.6800;-4.2200
1358.0970;-50.1800;-45.7300;-4.4500
1358.2970;-50.5700;-45.9000;-4.6700
1358.4960;-51.0600;-46.1200;-4.9400
1358.6950;-51.4500;-46.2500;-5.2000
1358.8940;-51.8500;-46.3800;-5.4700
1359.0930;-52.2600;-46.5200;-5.7400
1359.2920;-52.5000;-46.5500;-5.9500
1359.4910;-53.0200;-46.9100;-6.1100
1359.6900;-53.4900;-47.2000;-6.2900
1359.8890;-53.8500;-47.3800;-6.4700
1360.0890;-54.0300;-47.4300;-6.6000
1360.2880;-54.1500;-47.4300;-6.7200
1360.4870;-54.1600;-47.4100;-6.7500
1360.6860;-54.2600;-47.5600;-6.7000
1360.8850;-54.5300;-47.8900;-6.6400
1361.0840;-54.7100;-48.1900;-6.5200
1361.2830;-54.7300;-48.3400;-6.3900
1361.4820;-54.6800;-48.5500;-6.1300
1361.6810;-54.6900;-48.6800;-6.0100
1361.8810;-54.5900;-48.8200;-5.7700
1362.0800;-54.5400;-49.0200;-5.5200
1362.2790;-54.6300;-49.4200;-5.2100
1362.4780;-54.6900;-49.6600;-5.0300
1362.6770;-54.4900;-49.7700;-4.7200
1362.8760;-54.1200;-49.6400;-4.4800
1363.0750;-53.8000;-49.5500;-4.2500
1363.2740;-53.3200;-49.3200;-4.0000
1363.4740;-53.1600;-49.3700;-3.7900
1363.6730;-53.0100;-49.4500;-3.5600
1363.8720;-52.9300;-49.5900;-3.3400
1364.0710;-52.9000;-49.7800;-3.1200
1364.2700;-52.9100;-49.9800;-2.9300
1364.4690;-52.9800;-50.2700;-2.7100
1364.6680;-53.3300;-50.7700;-2.5600
1364.8670;-53.4100;-50.9700;-2.4400
1365.0660;-53.2500;-50.9300;-2.3200
1365.2660;-53.2800;-51.0900;-2.1900
1365.4650;-53.1100;-51.0100;-2.1000
1365.6640;-53.0800;-51.0800;-2.0000
1365.8630;-53.0300;-51.1000;-1.9300
1366.0620;-52.9700;-51.0800;-1.8900
1366.2610;-52.9300;-51.0600;-1.8700
1366.4600;-52.9400;-51.1100;-1.8300
1366.6590;-53.0700;-51.2800;-1.7900
1366.8580;-53.2900;-51.4900;-1.8000
1367.0580;-53.4300;-51.6200;-1.8100
1367.2570;-53.5500;-51.7100;-1.8400
1367.4560;-53.8200;-51.9700;-1.8500
1367.6550;-54.0400;-52.1500;-1.8900
1367.8540;-54.3600;-52.4000;-1.9600
1368.0530;-54.5500;-52.5200;-2.0300
1368.2520;-54.6600;-52.4700;-2.1900
1368.4510;-55.0200;-52.8100;-2.2100
1368.6500;-55.2400;-52.8800;-2.3600
1368.8500;-55.4700;-52.9700;-2.5000
1369.0490;-55.6000;-52.9500;-2.6500
1369.2480;-55.7500;-52.8900;-2.8600
1369.4470;-55.7900;-52.8200;-2.9700
1369.6460;-56.0500;-52.9000;-3.1500
1369.8450;-56.5000;-53.2300;-3.2700
1370.0440;-56.9100;-53.4100;-3.5000
1370.2430;-57.2400;-53.5300;-3.7100
1370.4430;-57.5000;-53.5800;-3.9200
1370.6420;-57.7500;-53.5900;-4.1600
1370.8410;-58.1800;-53.9000;-4.2800
1371.0400;-58.7900;-54.1600;-4.6300
1371.2390;-59.1200;-54.3300;-4.7900
1371.4380;-59.3500;-54.3500;-5.0000
1371.6370;-59.6000;-54.2900;-5.3100
1371.8360;-59.7200;-54.2800;-5.4400
1372.0350;-60.1000;-54.4500;-5.6500
1372.2350;-60.5000;-54.6600;-5.8400
1372.4340;-60.7500;-54.7400;-6.0100
1372.6330;-60.9600;-54.8200;-6.1400
1372.8320;-61.0900;-54.8500;-6.2400
1373.0310;-61.2000;-54.8700;-6.3300
1373.2300;-61.3600;-55.0200;-6.3400
1373.4290;-61.5300;-55.1400;-6.3900
1373.6280;-61.6500;-55.2600;-6.3900
1373.8270;-61.6600;-55.3300;-6.3300
1374.0270;-61.7000;-55.4400;-6.2600
1374.2260;-61.6900;-55.5300;-6.1600
1374.4250;-61.6800;-55.6700;-6.0100
1374.6240;-61.6900;-55.8100;-5.8800
1374.8230;-61.7200;-55.9900;-5.7300
1375.0220;-61.6800;-56.1700;-5.5100
1375.2210;-61.5500;-56.2400;-5.3100
1375.4200;-61.4300;-56.3000;-5.1300
1375.6200;-61.3300;-56.3800;-4.9500
1375.8190;-61.2100;-56.4800;-4.7300
1376.0180;-61.1900;-56.6300;-4.5600
1376.2170;-61.1200;-56.7700;-4.3500
1376.4160;-61.0300;-56.8700;-4.1600
1376.6150;-60.9600;-56.9600;-4.0000
1376.8140;-60.9000;-57.1100;-3.7900
1377.0130;-61.0100;-57.3400;-3.6700
1377.2120;-61.0100;-57.5100;-3.5000
1377.4120;-60.9600;-57.6000;-3.3600
1377.6110;-60.9100;-57.6400;-3.2700
1377.8100;-60.7700;-57.6100;-3.1600
1378.0090;-60.7300;-57.6600;-3.0700
1378.2080;-60.7400;-57.7600;-2.9800
1378.4070;-60.8200;-57.9300;-2.8900
1378.6060;-61.0100;-58.1800;-2.8300
1378.8050;-61.2300;-58.5400;-2.6900
1379.0040;-61.3400;-58.6100;-2.7300
1379.2040;-61.4000;-58.6600;-2.7400
1379.4030;-61.3500;-58.6400;-2.7100
1379.6020;-61.3400;-58.6200;-2.7200
1379.8010;-61.4500;-58.6300;-2.8200
1380.0000;-61.5900;-58.7700;-2.8200
1380.1990;-61.8300;-58.9500;-2.8800
1380.3980;-62.0800;-59.1500;-2.9300
1380.5970;-62.6700;-59.7300;-2.9400
1380.7970;-63.2400;-60.1400;-3.1000
1380.9960;-63.5700;-60.3000;-3.2700
1381.1950;-63.7600;-60.2900;-3.4700
1381.3940;-63.7100;-60.0000;-3.7100
1381.5930;-63.5800;-59.7500;-3.8300
1381.7920;-63.8200;-59.8000;-4.0200
1381.9910;-64.0600;-59.8400;-4.2200
1382.1900;-64.4100;-59.9400;-4.4700
1382.3890;-64.9500;-60.2600;-4.6900
1382.5890;-65.6500;-60.8000;-4.8500
1382.7880;-66.4300;-61.2900;-5.1400
1382.9870;-66.9800;-61.5000;-5.4800
1383.1860;-67.3500;-61.2600;-6.0900
1383.3850;-67.4400;-60.9800;-6.4600
1383.5840;-67.5800;-60.7700;-6.8100
1383.7830;-68.1500;-60.9300;-7.2200
1383.9820;-68.6800;-61.0300;-7.6500
1384.1810;-69.1800;-61.0800;-8.1000
1384.3810;-69.6600;-61.1100;-8.5500
1384.5800;-70.1700;-61.0400;-9.1300
1384.7790;-70.6700;-61.1700;-9.5000
1384.9780;-71.3600;-61.4200;-9.9400
1385.1770;-72.0100;-61.6400;-10.3700
1385.3760;-72.6300;-61.7600;-10.8700
1385.5750;-73.0200;-61.7100;-11.3100
1385.7740;-73.2800;-61.7400;-11.5400
1385.9740;-73.2500;-61.7300;-11.5200
1386.1730;-73.0600;-61.7700;-11.2900
1386.3720;-73.7900;-61.8800;-11.9100
1386.5710;-73.2300;-61.9200;-11.3100
1386.7700;-72.8100;-61.9700;-10.8400
1386.9690;-72.4700;-62.0000;-10.4700
1387.1680;-72.2900;-62.0200;-10.2700
1387.3670;-71.6800;-62.0900;-9.5900
1387.5660;-71.4700;-62.1500;-9.3200
1387.7660;-71.4800;-62.4300;-9.0500
1387.9650;-71.1100;-62.6800;-8.4300
1388.1640;-70.8900;-62.9600;-7.9300
1388.3630;-70.6300;-63.0600;-7.5700
1388.5620;-70.2300;-63.0100;-7.2200
1388.7610;-69.7100;-62.8800;-6.8300
1388.9600;-69.2600;-62.8300;-6.4300
1389.1590;-68.8100;-62.8000;-6.0100
1389.3580;-68.5400;-62.8100;-5.7300
1389.5580;-68.3400;-62.8600;-5.4800
1389.7570;-68.1100;-62.9900;-5.1200
1389.9560;-67.9900;-63.1700;-4.8200
1390.1550;-67.8400;-63.2200;-4.6200
1390.3540;-67.6600;-63.2400;-4.4200
1390.5530;-67.6200;-63.3300;-4.2900
1390.7520;-67.4900;-63.2800;-4.2100
1390.9510;-67.3600;-63.4100;-3.9500
1391.1500;-67.1700;-63.4500;-3.7200
1391.3500;-67.0900;-63.4900;-3.6000
1391.5490;-67.1400;-63.5400;-3.6000
1391.7480;-67.0700;-63.6500;-3.4200
1391.9470;-67.1300;-63.7600;-3.3700
1392.1460;-67.2800;-63.9200;-3.3600
1392.3450;-67.4300;-64.1600;-3.2700
1392.5440;-67.8200;-64.5900;-3.2300
1392.7430;-67.9100;-64.7100;-3.2000
1392.9430;-67.8000;-64.6200;-3.1800
1393.1420;-67.8000;-64.4800;-3.3200
1393.3410;-67.6800;-64.3000;-3.3800
1393.5400;-67.6300;-64.2800;-3.3500
1393.7390;-67.8100;-64.3700;-3.4400
1393.9380;-67.9200;-64.4100;-3.5100
1394.1370;-67.9900;-64.4900;-3.5000
1394.3360;-68.2800;-64.5700;-3.7100
1394.5350;-68.4100;-64.6100;-3.8000
1394.7350;-68.6600;-64.7500;-3.9100
1394.9340;-69.2000;-65.0500;-4.1500
1395.1330;-69.4900;-65.2200;-4.2700
1395.3320;-69.8400;-65.3800;-4.4600
1395.5310;-69.8400;-65.4700;-4.3700
1395.7300;-70.2300;-65.5200;-4.7100
1395.9290;-70.3600;-65.3900;-4.9700
1396.1280;-70.5900;-65.5200;-5.0700
1396.3270;-70.9600;-65.6300;-5.3300
1396.5270;-71.5200;-65.9200;-5.6000
1396.7260;-71.6400;-66.0500;-5.5900
1396.9250;-72.0800;-66.0900;-5.9900
1397.1240;-72.1600;-65.8900;-6.2700
1397.3230;-72.0700;-65.7800;-6.2900
1397.5220;-72.4500;-65.7400;-6.7100
1397.7210;-72.6100;-65.7900;-6.8200
1397.9200;-72.8600;-65.8800;-6.9800
1398.1200;-73.2700;-65.8800;-7.3900
1398.3190;-73.0700;-66.0000;-7.0700
1398.5180;-73.8900;-66.1100;-7.7800
1398.7170;-73.9600;-66.1700;-7.7900
1398.9160;-73.8000;-66.2900;-7.5100
1399.1150;-74.0700;-66.2800;-7.7900
1399.3140;-74.8600;-66.4200;-8.4400
1399.5130;-74.6000;-66.7000;-7.9000
1399.7120;-74.7400;-66.8100;-7.9300
1399.9120;-74.7400;-67.0200;-7.7200
1400.1110;-75.0200;-67.1500;-7.8700
1400.3100;-74.2000;-67.1100;-7.0900
1400.5090;-74.4400;-67.1900;-7.2500
1400.7080;-74.7400;-67.5300;-7.2100
1400.9070;-74.8400;-67.6500;-7.1900
1401.1060;-74.8500;-67.6900;-7.1600
1401.3050;-73.8300;-67.7200;-6.1100
1401.5040;-74.4400;-67.6200;-6.8200
1401.7040;-73.9300;-67.6400;-6.2900
1401.9030;-73.9000;-67.7600;-6.1400
1402.1020;-73.3900;-67.7900;-5.6000
1402.3010;-73.7900;-67.6900;-6.1000
1402.5000;-73.4900;-67.7000;-5.7900
1402.6990;-73.1500;-67.7100;-5.4400
1402.8980;-73.2900;-67.8800;-5.4100
1403.0970;-73.1900;-68.0500;-5.1400
1403.2970;-73.0000;-68.1100;-4.8900
1403.4960;-73.1200;-68.1700;-4.9500
1403.6950;-73.1300;-68.2600;-4.8700
1403.8940;-73.3000;-68.3500;-4.9500
1404.0930;-73.5400;-68.5100;-5.0300
1404.2920;-73.4600;-68.6300;-4.8300
1404.4910;-73.3400;-68.7700;-4.5700
1404.6900;-73.3800;-68.7800;-4.6000
1404.8890;-73.7900;-69.4100;-4.3800
1405.0890;-74.0900;-69.7100;-4.3800
1405.2880;-74.2000;-69.4600;-4.7400
1405.4870;-73.8600;-69.4900;-4.3700
1405.6860;-73.9400;-69.3300;-4.6100
1405.8850;-73.9400;-69.2700;-4.6700
1406.0840;-74.1100;-69.2100;-4.9000
1406.2830;-74.1600;-69.3500;-4.8100
1406.4820;-74.0700;-69.4400;-4.6300
1406.6810;-74.5300;-69.5200;-5.0100
1406.8810;-74.3200;-69.7600;-4.5600
1407.0800;-74.8600;-69.9600;-4.9000
1407.2790;-75.2700;-70.2200;-5.0500
1407.4780;-75.5000;-70.0900;-5.4100
1407.6770;-75.3300;-70.2200;-5.1100
1407.8760;-75.6500;-70.0600;-5.5900
1408.0750;-75.7600;-70.1900;-5.5700
1408.2740;-75.7200;-70.2100;-5.5100
1408.4740;-75.3800;-70.1200;-5.2600
1408.6730;-75.8000;-70.1800;-5.6200
1408.8720;-76.1200;-70.4900;-5.6300
1409.0710;-76.1000;-70.6800;-5.4200
1409.2700;-76.0000;-70.8900;-5.1100
1409.4690;-77.0700;-71.2300;-5.8400
1409.6680;-77.1800;-71.1900;-5.9900
1409.8670;-76.7200;-71.2700;-5.4500
1410.0660;-76.9900;-71.1100;-5.8800
1410.2660;-76.6300;-71.1000;-5.5300
1410.4650;-76.3100;-71.0700;-5.2400
1410.6640;-76.0700;-71.2000;-4.8700
1410.8630;-76.3400;-71.1200;-5.2200
1411.0620;-76.0000;-71.2800;-4.7200
1411.2610;-76.6300;-71.3000;-5.3300
1411.4600;-76.1500;-71.6000;-4.5500
1411.6590;-76.9700;-71.6000;-5.3700
1411.8580;-76.0900;-71.6200;-4.4700
1412.0580;-76.0900;-71.7900;-4.3000
1412.2570;-76.1200;-71.9500;-4.1700
1412.4560;-76.0900;-71.7900;-4.3000
1412.6550;-76.5100;-71.8300;-4.6800
1412.8540;-75.6800;-72.1500;-3.5300
1413.0530;-75.3900;-72.0000;-3.3900
1413.2520;-75.8800;-72.1600;-3.7200
1413.4510;-75.8500;-72.1300;-3.7200
1413.6500;-75.8400;-72.4800;-3.3600
1413.8500;-76.2400;-72.4300;-3.8100
1414.0490;-75.8100;-72.5400;-3.2700
1414.2480;-75.6900;-72.4400;-3.2500
1414.4470;-76.0100;-72.8500;-3.1600
1414.6460;-76.3300;-73.2100;-3.1200
1414.8450;-76.2900;-72.8100;-3.4800
1415.0440;-76.5200;-73.0500;-3.4700
1415.2430;-76.1600;-73.0900;-3.0700
1415.4430;-75.7700;-73.1300;-2.6400
1415.6420;-76.1400;-72.5800;-3.5600
1415.8410;-75.8400;-72.7100;-3.1300
1416.0400;-75.4700;-72.9000;-2.5700
1416.2390;-76.0100;-73.2100;-2.8000
1416.4380;-76.3200;-73.1500;-3.1700
1416.6370;-76.2500;-73.1400;-3.1100
1416.8360;-75.5200;-73.2800;-2.2400
1417.0350;-75.9300;-73.0000;-2.9300
1417.2350;-76.0200;-72.9100;-3.1100
1417.4340;-75.3600;-73.7100;-1.6500
1417.6330;-76.7600;-73.8100;-2.9500
1417.8320;-76.0800;-73.4800;-2.6000
1418.0310;-77.5500;-72.9200;-4.6300
1418.2300;-77.1400;-73.4100;-3.7300
1418.4290;-76.4000;-73.6400;-2.7600
1418.6280;-76.5200;-73.6000;-2.9200
1418.8270;-76.8500;-73.6100;-3.2400
1419.0270;-76.7600;-73.8200;-2.9400
1419.2260;-77.2500;-74.0100;-3.2400
1419.4250;-77.2500;-74.1500;-3.1000
1419.6240;-77.3000;-74.2400;-3.0600
1419.8230;-77.8300;-73.9900;-3.8400
1420.0220;-77.7200;-74.0900;-3.6300
1420.2210;-77.8600;-74.0900;-3.7700
1420.4200;-77.2300;-73.7000;-3.5300
1420.6200;-77.2300;-74.3100;-2.9200
1420.8190;-77.1000;-74.0400;-3.0600
1421.0180;-77.3000;-74.4300;-2.8700
1421.2170;-79.2000;-74.2900;-4.9100
1421.4160;-77.7700;-74.3600;-3.4100
1421.6150;-77.5800;-73.9900;-3.5900
1421.8140;-77.0700;-74.3600;-2.7100
1422.0130;-78.1300;-74.1700;-3.9600
1422.2120;-77.5800;-74.4400;-3.1400
1422.4120;-78.0100;-74.4600;-3.5500
1422.6110;-78.0300;-74.2300;-3.8000
1422.8100;-78.6200;-74.0100;-4.6100
1423.0090;-77.2600;-74.4400;-2.8200
1423.2080;-78.3300;-74.0500;-4.2800
1423.4070;-78.4300;-74.1000;-4.3300
1423.6060;-77.8400;-74.1300;-3.7100
1423.8050;-78.1300;-74.3800;-3.7500
1424.0040;-78.1500;-74.1000;-4.0500
1424.2040;-77.9400;-74.6700;-3.2700
1424.4030;-78.0100;-74.3300;-3.6800
1424.6020;-77.8400;-74.1300;-3.7100
1424.8010;-77.9600;-74.0600;-3.9000
1425.0000;-77.8700;-74.1700;-3.7000
