Wavelength;Intensity_Meas;Intensity_Ref;Difference_dB
1200.0000;-61.0300;-56.1700;-4.8600
1200.1990;-60.9900;-56.1300;-4.8600
1200.3980;-60.9900;-56.1000;-4.8900
1200.5970;-61.0200;-56.0800;-4.9400
1200.7970;-60.9600;-56.0500;-4.9100
1200.9960;-60.9300;-56.0200;-4.9100
1201.1950;-60.9200;-55.9700;-4.9500
1201.3940;-60.9000;-55.9300;-4.9700
1201.5930;-60.8600;-55.9000;-4.9600
1201.7920;-60.8000;-55.8500;-4.9500
1201.9910;-60.7800;-55.8100;-4.9700
1202.1900;-60.7800;-55.7500;-5.0300
1202.3890;-60.7100;-55.7000;-5.0100
1202.5890;-60.6200;-55.6600;-4.9600
1202.7880;-60.6300;-55.5900;-5.0400
1202.9870;-60.6100;-55.5400;-5.0700
1203.1860;-60.5300;-55.4800;-5.0500
1203.3850;-60.4700;-55.4400;-5.0300
1203.5840;-60.4900;-55.4200;-5.0700
1203.7830;-60.4800;-55.3500;-5.1300
1203.9820;-60.3900;-55.3200;-5.0700
1204.1810;-60.3900;-55.2800;-5.1100
1204.3810;-60.3900;-55.2400;-5.1500
1204.5800;-60.3500;-55.2300;-5.1200
1204.7790;-60.3300;-55.1800;-5.1500
1204.9780;-60.3200;-55.1500;-5.1700
1205.1770;-60.3100;-55.1200;-5.1900
1205.3760;-60.2800;-55.0900;-5.1900
1205.5750;-60.2700;-55.0900;-5.1800
1205.7740;-60.2400;-55.0500;-5.1900
1205.9740;-60.1900;-55.0400;-5.1500
1206.1730;-60.1800;-55.0200;-5.1600
1206.3720;-60.1500;-54.9900;-5.1600
1206.5710;-60.1400;-54.9800;-5.1600
1206.7700;-60.0800;-54.9500;-5.1300
1206.9690;-60.0200;-54.9300;-5.0900
1207.1680;-60.0100;-54.9000;-5.1100
1207.3670;-59.9500;-54.8600;-5.0900
1207.5660;-59.9000;-54.8500;-5.0500
1207.7660;-59.8400;-54.8000;-5.0400
1207.9650;-59.8100;-54.7700;-5.0400
1208.1640;-59.7500;-54.7200;-5.0300
1208.3630;-59.6700;-54.6800;-4.9900
1208.5620;-59.6400;-54.6500;-4.9900
1208.7610;-59.5800;-54.5800;-5.0000
1208.9600;-59.5200;-54.5400;-4.9800
1209.1590;-59.4700;-54.4900;-4.9800
1209.3580;-59.3800;-54.4300;-4.9500
1209.5580;-59.3500;-54.4000;-4.9500
1209.7570;-59.3000;-54.3400;-4.9600
1209.9560;-59.2100;-54.2800;-4.9300
1210.1550;-59.1400;-54.2300;-4.9100
1210.3540;-59.0900;-54.1800;-4.9100
1210.5530;-59.0500;-54.1400;-4.9100
1210.7520;-58.9700;-54.0800;-4.8900
1210.9510;-58.9100;-54.0300;-4.8800
1211.1500;-58.8700;-54.0000;-4.8700
1211.3500;-58.8200;-53.9500;-4.8700
1211.5490;-58.7700;-53.9200;-4.8500
1211.7480;-58.7200;-53.8800;-4.8400
1211.9470;-58.6600;-53.8400;-4.8200
1212.1460;-58.6500;-53.8200;-4.8300
1212.3450;-58.6300;-53.7700;-4.8600
1212.5440;-58.6100;-53.7600;-4.8500
1212.7430;-58.5600;-53.7200;-4.8400
1212.9430;-58.5500;-53.6800;-4.8700
1213.1420;-58.5600;-53.6700;-4.8900
1213.3410;-58.5200;-53.6300;-4.8900
1213.5400;-58.5100;-53.6100;-4.9000
1213.7390;-58.5200;-53.5700;-4.9500
1213.9380;-58.5300;-53.5300;-5.0000
1214.1370;-58.5000;-53.5100;-4.9900
1214.3360;-58.4800;-53.4600;-5.0200
1214.5350;-58.5100;-53.4400;-5.0700
1214.7350;-58.5200;-53.3900;-5.1300
1214.9340;-58.4900;-53.3400;-5.1500
1215.1330;-58.4900;-53.2900;-5.2000
1215.3320;-58.4700;-53.2400;-5.2300
1215.5310;-58.4600;-53.2000;-5.2600
1215.7300;-58.4200;-53.1400;-5.2800
1215.9290;-58.3900;-53.0800;-5.3100
1216.1280;-58.3800;-53.0300;-5.3500
1216.3270;-58.3400;-52.9600;-5.3800
1216.5270;-58.3000;-52.9200;-5.3800
1216.7260;-58.2500;-52.8600;-5.3900
1216.9250;-58.2200;-52.7900;-5.4300
1217.1240;-58.1900;-52.7400;-5.4500
1217.3230;-58.1500;-52.6700;-5.4800
1217.5220;-58.0900;-52.6300;-5.4600
1217.7210;-58.0600;-52.5700;-5.4900
1217.9200;-58.0400;-52.5200;-5.5200
1218.1200;-57.9900;-52.4800;-5.5100
1218.3190;-57.9300;-52.4200;-5.5100
1218.5180;-57.9000;-52.3900;-5.5100
1218.7170;-57.8800;-52.3400;-5.5400
1218.9160;-57.8500;-52.2900;-5.5600
1219.1150;-57.8100;-52.2600;-5.5500
1219.3140;-57.7700;-52.2100;-5.5600
1219.5130;-57.7600;-52.1900;-5.5700
1219.7120;-57.7300;-52.1500;-5.5800
1219.9120;-57.6800;-52.1100;-5.5700
1220.1110;-57.6500;-52.0700;-5.5800
1220.3100;-57.6200;-52.0300;-5.5900
1220.5090;-57.5800;-52.0000;-5.5800
1220.7080;-57.5200;-51.9500;-5.5700
1220.9070;-57.4700;-51.9100;-5.5600
1221.1060;-57.4300;-51.8500;-5.5800
1221.3050;-57.3700;-51.8000;-5.5700
1221.5040;-57.3000;-51.7500;-5.5500
1221.7040;-57.2200;-51.6800;-5.5400
1221.9030;-57.1700;-51.6300;-5.5400
1222.1020;-57.1100;-51.5700;-5.5400
1222.3010;-57.0000;-51.5000;-5.5000
1222.5000;-56.9200;-51.4300;-5.4900
1222.6990;-56.8600;-51.3600;-5.5000
1222.8980;-56.7800;-51.2900;-5.4900
1223.0970;-56.7000;-51.2200;-5.4800
1223.2970;-56.6100;-51.1500;-5.4600
1223.4960;-56.5300;-51.0800;-5.4500
1223.6950;-56.4600;-51.0000;-5.4600
1223.8940;-56.3900;-50.9400;-5.4500
1224.0930;-56.3200;-50.8700;-5.4500
1224.2920;-56.2600;-50.8000;-5.4600
1224.4910;-56.2000;-50.7400;-5.4600
1224.6900;-56.1500;-50.6700;-5.4800
1224.8890;-56.0900;-50.6000;-5.4900
1225.0890;-56.0700;-50.5500;-5.5200
1225.2880;-56.0100;-50.4800;-5.5300
1225.4870;-55.9700;-50.4300;-5.5400
1225.6860;-55.9400;-50.3700;-5.5700
1225.8850;-55.9200;-50.3200;-5.6000
1226.0840;-55.9000;-50.2700;-5.6300
1226.2830;-55.8700;-50.2100;-5.6600
1226.4820;-55.8400;-50.1600;-5.6800
1226.6810;-55.8200;-50.1100;-5.7100
1226.8810;-55.8000;-50.0600;-5.7400
1227.0800;-55.7600;-50.0000;-5.7600
1227.2790;-55.7300;-49.9500;-5.7800
1227.4780;-55.7100;-49.8900;-5.8200
1227.6770;-55.6700;-49.8300;-5.8400
1227.8760;-55.6400;-49.7700;-5.8700
1228.0750;-55.6000;-49.7100;-5.8900
1228.2740;-55.5700;-49.6400;-5.9300
1228.4740;-55.5300;-49.5700;-5.9600
1228.6730;-55.4700;-49.4900;-5.9800
1228.8720;-55.4400;-49.4200;-6.0200
1229.0710;-55.3900;-49.3500;-6.0400
1229.2700;-55.3600;-49.2600;-6.1000
1229.4690;-55.3000;-49.1900;-6.1100
1229.6680;-55.2500;-49.1000;-6.1500
1229.8670;-55.2100;-49.0100;-6.2000
1230.0660;-55.1800;-48.9500;-6.2300
1230.2660;-55.1300;-48.8500;-6.2800
1230.4650;-55.0900;-48.7700;-6.3200
1230.6640;-55.0500;-48.6900;-6.3600
1230.8630;-55.0200;-48.6200;-6.4000
1231.0620;-54.9800;-48.5500;-6.4300
1231.2610;-54.9600;-48.4800;-6.4800
1231.4600;-54.9300;-48.4300;-6.5000
1231.6590;-54.8800;-48.3500;-6.5300
1231.8580;-54.8300;-48.2800;-6.5500
1232.0580;-54.8000;-48.2300;-6.5700
1232.2570;-54.7400;-48.1600;-6.5800
1232.4560;-54.6900;-48.1200;-6.5700
1232.6550;-54.6200;-48.0400;-6.5800
1232.8540;-54.5600;-47.9800;-6.5800
1233.0530;-54.5000;-47.9300;-6.5700
1233.2520;-54.4100;-47.8600;-6.5500
1233.4510;-54.3300;-47.8100;-6.5200
1233.6500;-54.2600;-47.7400;-6.5200
1233.8500;-54.1600;-47.6800;-6.4800
1234.0490;-54.0800;-47.6200;-6.4600
1234.2480;-53.9800;-47.5400;-6.4400
1234.4470;-53.8800;-47.4800;-6.4000
1234.6460;-53.7700;-47.4000;-6.3700
1234.8450;-53.6800;-47.3300;-6.3500
1235.0440;-53.5600;-47.2400;-6.3200
1235.2430;-53.4500;-47.1600;-6.2900
1235.4430;-53.3500;-47.0800;-6.2700
1235.6420;-53.2200;-46.9800;-6.2400
1235.8410;-53.1100;-46.9000;-6.2100
1236.0400;-53.0000;-46.8100;-6.1900
1236.2390;-52.8700;-46.7100;-6.1600
1236.4380;-52.7500;-46.6200;-6.1300
1236.6370;-52.6300;-46.5300;-6.1000
1236.8360;-52.5100;-46.4400;-6.0700
1237.0350;-52.3900;-46.3400;-6.0500
1237.2350;-52.2700;-46.2500;-6.0200
1237.4340;-52.1500;-46.1600;-5.9900
1237.6330;-52.0300;-46.0700;-5.9600
1237.8320;-51.9200;-46.0000;-5.9200
1238.0310;-51.8100;-45.8900;-5.9200
1238.2300;-51.7000;-45.8300;-5.8700
1238.4290;-51.6000;-45.7300;-5.8700
1238.6280;-51.5000;-45.6600;-5.8400
1238.8270;-51.4000;-45.5800;-5.8200
1239.0270;-51.3000;-45.5000;-5.8000
1239.2260;-51.2100;-45.4200;-5.7900
1239.4250;-51.1200;-45.3300;-5.7900
1239.6240;-51.0300;-45.2500;-5.7800
1239.8230;-50.9500;-45.1600;-5.7900
1240.0220;-50.8600;-45.0700;-5.7900
1240.2210;-50.7700;-44.9900;-5.7800
1240.4200;-50.6900;-44.8800;-5.8100
1240.6200;-50.6100;-44.8000;-5.8100
1240.8190;-50.5300;-44.6900;-5.8400
1241.0180;-50.4200;-44.5700;-5.8500
1241.2170;-50.3200;-44.4700;-5.8500
1241.4160;-50.2300;-44.3500;-5.8800
1241.6150;-50.1100;-44.2300;-5.8800
1241.8140;-50.0000;-44.1100;-5.8900
1242.0130;-49.8800;-43.9900;-5.8900
1242.2120;-49.7600;-43.8800;-5.8800
1242.4120;-49.6400;-43.7400;-5.9000
1242.6110;-49.4900;-43.6100;-5.8800
1242.8100;-49.3500;-43.4900;-5.8600
1243.0090;-49.1900;-43.3500;-5.8400
1243.2080;-49.0300;-43.2300;-5.8000
1243.4070;-48.8800;-43.0900;-5.7900
1243.6060;-48.7100;-42.9700;-5.7400
1243.8050;-48.5500;-42.8400;-5.7100
1244.0040;-48.3600;-42.7100;-5.6500
1244.2040;-48.1900;-42.6000;-5.5900
1244.4030;-48.0300;-42.4600;-5.5700
1244.6020;-47.8300;-42.3400;-5.4900
1244.8010;-47.6600;-42.2200;-5.4400
1245.0000;-47.4700;-42.0900;-5.3800
1245.1990;-47.2900;-41.9900;-5.3000
1245.3980;-47.1100;-41.8600;-5.2500
1245.5970;-46.9100;-41.7300;-5.1800
1245.7970;-46.7300;-41.6100;-5.1200
1245.9960;-46.5200;-41.4800;-5.0400
1246.1950;-46.3300;-41.3600;-4.9700
1246.3940;-46.1400;-41.2300;-4.9100
1246.5930;-45.9300;-41.0900;-4.8400
1246.7920;-45.7100;-40.9600;-4.7500
1246.9910;-45.5300;-40.8100;-4.7200
1247.1900;-45.3500;-40.6900;-4.6600
1247.3890;-45.1400;-40.5400;-4.6000
1247.5890;-44.9400;-40.3900;-4.5500
1247.7880;-44.7600;-40.2500;-4.5100
1247.9870;-44.5600;-40.0900;-4.4700
1248.1860;-44.3900;-39.9500;-4.4400
1248.3850;-44.2000;-39.7900;-4.4100
1248.5840;-44.0200;-39.6300;-4.3900
1248.7830;-43.8600;-39.4900;-4.3700
1248.9820;-43.7000;-39.3300;-4.3700
1249.1810;-43.5600;-39.1900;-4.3700
1249.3810;-43.4200;-39.0300;-4.3900
1249.5800;-43.2800;-38.8700;-4.4100
1249.7790;-43.1600;-38.7300;-4.4300
1249.9780;-43.0400;-38.5600;-4.4800
1250.1770;-42.9400;-38.4300;-4.5100
1250.3760;-42.8400;-38.2700;-4.5700
1250.5750;-42.7500;-38.1200;-4.6300
1250.7740;-42.6800;-37.9800;-4.7000
1250.9740;-42.6200;-37.8500;-4.7700
1251.1730;-42.5600;-37.7200;-4.8400
1251.3720;-42.5000;-37.5600;-4.9400
1251.5710;-42.4700;-37.4400;-5.0300
1251.7700;-42.4400;-37.2900;-5.1500
1251.9690;-42.4100;-37.1500;-5.2600
1252.1680;-42.4100;-37.0100;-5.4000
1252.3670;-42.3900;-36.8600;-5.5300
1252.5660;-42.4100;-36.7300;-5.6800
1252.7660;-42.4200;-36.5700;-5.8500
1252.9650;-42.4600;-36.4300;-6.0300
1253.1640;-42.5100;-36.2900;-6.2200
1253.3630;-42.5500;-36.1200;-6.4300
1253.5620;-42.6300;-35.9900;-6.6400
1253.7610;-42.7000;-35.8000;-6.9000
1253.9600;-42.7900;-35.6800;-7.1100
1254.1590;-42.8900;-35.5100;-7.3800
1254.3580;-42.9800;-35.3500;-7.6300
1254.5580;-43.0900;-35.2100;-7.8800
1254.7570;-43.1800;-35.0400;-8.1400
1254.9560;-43.2700;-34.8900;-8.3800
1255.1550;-43.3600;-34.7300;-8.6300
1255.3540;-43.4000;-34.5700;-8.8300
1255.5530;-43.4400;-34.4300;-9.0100
1255.7520;-43.4300;-34.2700;-9.1600
1255.9510;-43.3800;-34.1300;-9.2500
1256.1500;-43.3100;-33.9700;-9.3400
1256.3500;-43.1700;-33.8400;-9.3300
1256.5490;-43.0100;-33.7100;-9.3000
1256.7480;-42.7900;-33.5600;-9.2300
1256.9470;-42.5400;-33.4300;-9.1100
1257.1460;-42.2700;-33.2900;-8.9800
1257.3450;-41.9600;-33.1500;-8.8100
1257.5440;-41.6400;-33.0300;-8.6100
1257.7430;-41.2800;-32.8800;-8.4000
1257.9430;-40.9200;-32.7500;-8.1700
1258.1420;-40.5500;-32.6100;-7.9400
1258.3410;-40.1600;-32.4700;-7.6900
1258.5400;-39.7800;-32.3500;-7.4300
1258.7390;-39.3700;-32.2000;-7.1700
1258.9380;-38.9600;-32.0700;-6.8900
1259.1370;-38.5800;-31.9200;-6.6600
1259.3360;-38.1700;-31.7800;-6.3900
1259.5350;-37.7900;-31.6400;-6.1500
1259.7350;-37.3900;-31.4900;-5.9000
1259.9340;-37.0100;-31.3500;-5.6600
1260.1330;-36.6500;-31.2000;-5.4500
1260.3320;-36.2800;-31.0600;-5.2200
1260.5310;-35.8800;-30.9200;-4.9600
1260.7300;-35.5900;-30.7700;-4.8200
1260.9290;-35.2700;-30.6400;-4.6300
1261.1280;-34.9600;-30.4900;-4.4700
1261.3270;-34.6600;-30.3600;-4.3000
1261.5270;-34.4000;-30.2300;-4.1700
1261.7260;-34.1300;-30.1000;-4.0300
1261.9250;-33.8800;-29.9700;-3.9100
1262.1240;-33.6400;-29.8300;-3.8100
1262.3230;-33.4200;-29.7100;-3.7100
1262.5220;-33.2400;-29.5900;-3.6500
1262.7210;-33.0400;-29.4600;-3.5800
1262.9200;-32.8700;-29.3500;-3.5200
1263.1200;-32.7100;-29.2200;-3.4900
1263.3190;-32.5600;-29.1000;-3.4600
1263.5180;-32.4500;-28.9800;-3.4700
1263.7170;-32.3200;-28.8600;-3.4600
1263.9160;-32.2300;-28.7400;-3.4900
1264.1150;-32.1300;-28.6000;-3.5300
1264.3140;-32.0600;-28.4800;-3.5800
1264.5130;-32.0300;-28.3500;-3.6800
1264.7120;-31.9800;-28.2200;-3.7600
1264.9120;-31.9600;-28.1000;-3.8600
1265.1110;-31.9500;-27.9600;-3.9900
1265.3100;-31.9600;-27.8300;-4.1300
1265.5090;-32.0100;-27.7000;-4.3100
1265.7080;-32.0400;-27.5700;-4.4700
1265.9070;-32.1100;-27.4400;-4.6700
1266.1060;-32.1700;-27.3000;-4.8700
1266.3050;-32.2600;-27.1800;-5.0800
1266.5040;-32.3800;-27.0500;-5.3300
1266.7040;-32.4800;-26.9300;-5.5500
1266.9030;-32.6100;-26.8000;-5.8100
1267.1020;-32.7200;-26.6700;-6.0500
1267.3010;-32.8600;-26.5600;-6.3000
1267.5000;-33.0000;-26.4300;-6.5700
1267.6990;-33.1200;-26.3200;-6.8000
1267.8980;-33.2500;-26.2000;-7.0500
1268.0970;-33.3600;-26.0700;-7.2900
1268.2970;-33.4400;-25.9700;-7.4700
1268.4960;-33.5200;-25.8600;-7.6600
1268.6950;-33.5500;-25.7500;-7.8000
1268.8940;-33.5600;-25.6200;-7.9400
1269.0930;-33.5100;-25.5100;-8.0000
1269.2920;-33.4300;-25.3900;-8.0400
1269.4910;-33.3000;-25.2800;-8.0200
1269.6900;-33.1100;-25.1700;-7.9400
1269.8890;-32.8900;-25.0400;-7.8500
1270.0890;-32.6000;-24.9200;-7.6800
1270.2880;-32.2800;-24.8000;-7.4800
1270.4870;-31.9200;-24.6900;-7.2300
1270.6860;-31.5200;-24.5700;-6.9500
1270.8850;-31.1000;-24.4400;-6.6600
1271.0840;-30.6500;-24.3200;-6.3300
1271.2830;-30.2000;-24.2000;-6.0000
1271.4820;-29.7400;-24.0800;-5.6600
1271.6810;-29.2800;-23.9700;-5.3100
1271.8810;-28.8400;-23.8300;-5.0100
1272.0800;-28.4000;-23.7300;-4.6700
1272.2790;-27.9800;-23.6100;-4.3700
1272.4780;-27.5600;-23.4900;-4.0700
1272.6770;-27.1600;-23.3900;-3.7700
1272.8760;-26.7900;-23.2700;-3.5200
1273.0750;-26.4200;-23.1700;-3.2500
1273.2740;-26.0200;-23.0600;-2.9600
1273.4740;-25.7400;-22.9500;-2.7900
1273.6730;-25.4300;-22.8600;-2.5700
1273.8720;-25.1300;-22.7500;-2.3800
1274.0710;-24.8400;-22.6600;-2.1800
1274.2700;-24.5700;-22.5500;-2.0200
1274.4690;-24.3100;-22.4500;-1.8600
1274.6680;-24.0700;-22.3600;-1.7100
1274.8670;-23.8200;-22.2500;-1.5700
1275.0660;-23.6000;-22.1700;-1.4300
1275.2660;-23.4000;-22.0600;-1.3400
1275.4650;-23.1900;-21.9600;-1.2300
1275.6640;-23.0100;-21.8700;-1.1400
1275.8630;-22.8300;-21.7700;-1.0600
1276.0620;-22.6700;-21.6800;-0.9900
1276.2610;-22.5200;-21.5800;-0.9400
1276.4600;-22.3800;-21.4800;-0.9000
1276.6590;-22.2500;-21.3800;-0.8700
1276.8580;-22.1300;-21.2800;-0.8500
1277.0580;-22.0400;-21.2000;-0.8400
1277.2570;-21.9500;-21.0900;-0.8600
1277.4560;-21.8800;-21.0100;-0.8700
1277.6550;-21.8400;-20.9200;-0.9200
1277.8540;-21.7800;-20.8300;-0.9500
1278.0530;-21.7600;-20.7500;-1.0100
1278.2520;-21.7400;-20.6600;-1.0800
1278.4510;-21.7300;-20.5800;-1.1500
1278.6500;-21.7500;-20.4900;-1.2600
1278.8500;-21.7700;-20.4100;-1.3600
1279.0490;-21.8100;-20.3400;-1.4700
1279.2480;-21.8500;-20.2500;-1.6000
1279.4470;-21.9000;-20.1900;-1.7100
1279.6460;-21.9800;-20.1000;-1.8800
1279.8450;-22.0500;-20.0200;-2.0300
1280.0440;-22.1600;-19.9500;-2.2100
1280.2430;-22.2500;-19.8700;-2.3800
1280.4430;-22.3700;-19.8100;-2.5600
1280.6420;-22.5100;-19.7200;-2.7900
1280.8410;-22.6400;-19.6400;-3.0000
1281.0400;-22.8000;-19.5700;-3.2300
1281.2390;-22.9600;-19.4900;-3.4700
1281.4380;-23.1400;-19.4200;-3.7200
1281.6370;-23.3200;-19.3300;-3.9900
1281.8360;-23.5100;-19.2500;-4.2600
1282.0350;-23.7200;-19.1700;-4.5500
1282.2350;-23.9100;-19.0800;-4.8300
1282.4340;-24.1100;-19.0200;-5.0900
1282.6330;-24.3100;-18.9400;-5.3700
1282.8320;-24.4900;-18.8600;-5.6300
1283.0310;-24.6600;-18.7800;-5.8800
1283.2300;-24.7900;-18.7000;-6.0900
1283.4290;-24.9000;-18.6400;-6.2600
1283.6280;-24.9800;-18.5500;-6.4300
1283.8270;-25.0100;-18.4900;-6.5200
1284.0270;-25.0100;-18.4100;-6.6000
1284.2260;-24.9300;-18.3300;-6.6000
1284.4250;-24.8300;-18.2800;-6.5500
1284.6240;-24.6700;-18.2000;-6.4700
1284.8230;-24.4700;-18.1300;-6.3400
1285.0220;-24.2400;-18.0500;-6.1900
1285.2210;-23.9600;-17.9800;-5.9800
1285.4200;-23.6700;-17.9200;-5.7500
1285.6200;-23.3500;-17.8400;-5.5100
1285.8190;-23.0200;-17.7800;-5.2400
1286.0180;-22.6800;-17.7000;-4.9800
1286.2170;-22.3200;-17.6300;-4.6900
1286.4160;-21.9800;-17.5700;-4.4100
1286.6150;-21.6300;-17.5000;-4.1300
1286.8140;-21.2800;-17.4400;-3.8400
1287.0130;-20.9400;-17.3600;-3.5800
1287.2120;-20.6000;-17.2900;-3.3100
1287.4120;-20.2900;-17.2200;-3.0700
1287.6110;-19.9600;-17.1500;-2.8100
1287.8100;-19.6600;-17.1000;-2.5600
1288.0090;-19.3800;-17.0200;-2.3600
1288.2080;-19.1000;-16.9600;-2.1400
1288.4070;-18.8400;-16.9000;-1.9400
1288.6060;-18.5800;-16.8300;-1.7500
1288.8050;-18.3500;-16.7800;-1.5700
1289.0040;-18.1300;-16.7100;-1.4200
1289.2040;-17.9200;-16.6600;-1.2600
1289.4030;-17.7300;-16.6000;-1.1300
1289.6020;-17.5400;-16.5500;-0.9900
1289.8010;-17.3700;-16.5000;-0.8700
1290.0000;-17.2000;-16.4300;-0.7700
1290.1990;-17.0500;-16.3900;-0.6600
1290.3980;-16.9300;-16.3300;-0.6000
1290.5970;-16.8000;-16.2900;-0.5100
1290.7970;-16.6900;-16.2500;-0.4400
1290.9960;-16.5700;-16.1800;-0.3900
1291.1950;-16.4700;-16.1400;-0.3300
1291.3940;-16.3900;-16.0800;-0.3100
1291.5930;-16.2900;-16.0400;-0.2500
1291.7920;-16.2300;-15.9800;-0.2500
1291.9910;-16.1500;-15.9400;-0.2100
1292.1900;-16.1200;-15.8900;-0.2300
1292.3890;-16.0700;-15.8500;-0.2200
1292.5890;-16.0300;-15.8000;-0.2300
1292.7880;-16.0000;-15.7500;-0.2500
1292.9870;-15.9700;-15.7100;-0.2600
1293.1860;-15.9700;-15.6600;-0.3100
1293.3850;-15.9500;-15.6200;-0.3300
1293.5840;-15.9400;-15.5800;-0.3600
1293.7830;-15.9400;-15.5300;-0.4100
1293.9820;-15.9400;-15.5000;-0.4400
1294.1810;-15.9700;-15.4500;-0.5200
1294.3810;-15.9700;-15.4200;-0.5500
1294.5800;-15.9800;-15.3800;-0.6000
1294.7790;-16.0000;-15.3400;-0.6600
1294.9780;-16.0100;-15.3100;-0.7000
1295.1770;-16.0400;-15.2700;-0.7700
1295.3760;-16.0500;-15.2400;-0.8100
1295.5750;-16.0600;-15.2000;-0.8600
1295.7740;-16.0600;-15.1600;-0.9000
1295.9740;-16.0700;-15.1300;-0.9400
1296.1730;-16.0800;-15.0800;-1.0000
1296.3720;-16.0900;-15.0600;-1.0300
1296.5710;-16.0900;-15.0200;-1.0700
1296.7700;-16.0700;-14.9800;-1.0900
1296.9690;-16.0700;-14.9600;-1.1100
1297.1680;-16.0600;-14.9300;-1.1300
1297.3670;-16.0400;-14.9000;-1.1400
1297.5660;-16.0300;-14.8500;-1.1800
1297.7660;-15.9900;-14.8200;-1.1700
1297.9650;-15.9700;-14.8000;-1.1700
1298.1640;-15.9400;-14.7600;-1.1800
1298.3630;-15.9100;-14.7400;-1.1700
1298.5620;-15.8800;-14.7000;-1.1800
1298.7610;-15.8400;-14.6700;-1.1700
1298.9600;-15.8100;-14.6500;-1.1600
1299.1590;-15.7700;-14.6200;-1.1500
1299.3580;-15.7400;-14.6000;-1.1400
1299.5580;-15.7100;-14.5600;-1.1500
1299.7570;-15.6700;-14.5400;-1.1300
1299.9560;-15.6500;-14.5200;-1.1300
1300.1550;-15.6200;-14.4900;-1.1300
1300.3540;-15.6000;-14.4800;-1.1200
1300.5530;-15.5700;-14.4300;-1.1400
1300.7520;-15.5500;-14.4100;-1.1400
1300.9510;-15.5500;-14.3900;-1.1600
1301.1500;-15.5500;-14.3800;-1.1700
1301.3500;-15.5600;-14.3700;-1.1900
1301.5490;-15.5800;-14.3500;-1.2300
1301.7480;-15.5900;-14.3400;-1.2500
1301.9470;-15.6300;-14.3200;-1.3100
1302.1460;-15.6700;-14.3100;-1.3600
1302.3450;-15.7200;-14.3000;-1.4200
1302.5440;-15.7800;-14.2800;-1.5000
1302.7430;-15.8500;-14.2800;-1.5700
1302.9430;-15.9400;-14.2600;-1.6800
1303.1420;-16.0300;-14.2500;-1.7800
1303.3410;-16.1400;-14.2400;-1.9000
1303.5400;-16.2600;-14.2400;-2.0200
1303.7390;-16.4000;-14.2400;-2.1600
1303.9380;-16.5600;-14.2100;-2.3500
1304.1370;-16.7400;-14.2200;-2.5200
1304.3360;-16.9300;-14.2100;-2.7200
1304.5350;-17.1300;-14.2100;-2.9200
1304.7350;-17.3500;-14.2200;-3.1300
1304.9340;-17.6000;-14.2100;-3.3900
1305.1330;-17.8500;-14.2200;-3.6300
1305.3320;-18.1500;-14.2100;-3.9400
1305.5310;-18.5100;-14.2200;-4.2900
1305.7300;-18.7900;-14.2300;-4.5600
1305.9290;-19.1400;-14.2200;-4.9200
1306.1280;-19.5300;-14.2400;-5.2900
1306.3270;-19.9400;-14.2400;-5.7000
1306.5270;-20.3900;-14.2500;-6.1400
1306.7260;-20.8800;-14.2600;-6.6200
1306.9250;-21.3900;-14.2600;-7.1300
1307.1240;-21.9700;-14.2800;-7.6900
1307.3230;-22.5700;-14.2800;-8.2900
1307.5220;-23.2300;-14.3000;-8.9300
1307.7210;-23.9400;-14.3100;-9.6300
1307.9200;-24.6700;-14.3100;-10.3600
1308.1200;-25.4800;-14.3500;-11.1300
1308.3190;-26.2800;-14.3500;-11.9300
1308.5180;-27.1000;-14.3700;-12.7300
1308.7170;-27.8700;-14.3800;-13.4900
1308.9160;-28.6500;-14.3900;-14.2600
1309.1150;-29.0000;-14.4300;-14.5700
1309.3140;-29.1800;-14.4300;-14.7500
1309.5130;-29.0700;-14.4700;-14.6000
1309.7120;-28.6700;-14.4800;-14.1900
1309.9120;-28.0700;-14.5000;-13.5700
1310.1110;-27.3600;-14.5400;-12.8200
1310.3100;-26.5800;-14.5500;-12.0300
1310.5090;-25.6700;-14.5900;-11.0800
1310.7080;-25.0300;-14.6000;-10.4300
1310.9070;-24.3200;-14.6200;-9.7000
1311.1060;-23.6300;-14.6600;-8.9700
1311.3050;-22.9900;-14.6700;-8.3200
1311.5040;-22.4000;-14.7200;-7.6800
1311.7040;-21.8500;-14.7300;-7.1200
1311.9030;-21.3500;-14.7700;-6.5800
1312.1020;-20.8600;-14.7900;-6.0700
1312.3010;-20.4300;-14.8200;-5.6100
1312.5000;-20.0300;-14.8700;-5.1600
1312.6990;-19.6600;-14.9000;-4.7600
1312.8980;-19.3300;-14.9400;-4.3900
1313.0970;-19.0100;-14.9600;-4.0500
1313.2970;-18.7400;-15.0000;-3.7400
1313.4960;-18.4900;-15.0500;-3.4400
1313.6950;-18.2600;-15.0800;-3.1800
1313.8940;-18.0400;-15.1300;-2.9100
1314.0930;-17.8600;-15.1600;-2.7000
1314.2920;-17.7000;-15.2100;-2.4900
1314.4910;-17.5500;-15.2600;-2.2900
1314.6900;-17.4200;-15.3000;-2.1200
1314.8890;-17.3000;-15.3500;-1.9500
1315.0890;-17.2000;-15.3800;-1.8200
1315.2880;-17.1200;-15.4400;-1.6800
1315.4870;-17.0500;-15.4800;-1.5700
1315.6860;-17.0100;-15.5300;-1.4800
1315.8850;-16.9600;-15.5800;-1.3800
1316.0840;-16.9400;-15.6300;-1.3100
1316.2830;-16.9400;-15.6900;-1.2500
1316.4820;-16.9500;-15.7400;-1.2100
1316.6810;-16.9700;-15.7900;-1.1800
1316.8810;-16.9900;-15.8500;-1.1400
1317.0800;-17.0500;-15.9100;-1.1400
1317.2790;-17.1000;-15.9800;-1.1200
1317.4780;-17.1800;-16.0400;-1.1400
1317.6770;-17.2700;-16.1100;-1.1600
1317.8760;-17.3400;-16.1600;-1.1800
1318.0750;-17.4500;-16.2200;-1.2300
1318.2740;-17.5500;-16.2900;-1.2600
1318.4740;-17.6600;-16.3500;-1.3100
1318.6730;-17.8100;-16.4500;-1.3600
1318.8720;-17.9300;-16.5000;-1.4300
1319.0710;-18.0800;-16.5800;-1.5000
1319.2700;-18.2200;-16.6500;-1.5700
1319.4690;-18.3700;-16.7200;-1.6500
1319.6680;-18.5300;-16.8100;-1.7200
1319.8670;-18.6800;-16.8800;-1.8000
1320.0660;-18.8500;-16.9600;-1.8900
1320.2660;-19.0000;-17.0300;-1.9700
1320.4650;-19.1600;-17.1100;-2.0500
1320.6640;-19.3300;-17.2100;-2.1200
1320.8630;-19.4800;-17.2900;-2.1900
1321.0620;-19.6400;-17.3800;-2.2600
1321.2610;-19.7800;-17.4500;-2.3300
1321.4600;-19.9400;-17.5500;-2.3900
1321.6590;-20.0600;-17.6300;-2.4300
1321.8580;-20.1900;-17.7100;-2.4800
1322.0580;-20.3200;-17.8200;-2.5000
1322.2570;-20.4200;-17.9000;-2.5200
1322.4560;-20.5400;-18.0100;-2.5300
1322.6550;-20.6200;-18.0900;-2.5300
1322.8540;-20.7100;-18.1900;-2.5200
1323.0530;-20.7900;-18.2900;-2.5000
1323.2520;-20.8500;-18.3900;-2.4600
1323.4510;-20.9200;-18.5100;-2.4100
1323.6500;-20.9600;-18.5900;-2.3700
1323.8500;-21.0200;-18.7000;-2.3200
1324.0490;-21.0600;-18.8000;-2.2600
1324.2480;-21.0900;-18.9100;-2.1800
1324.4470;-21.1400;-19.0200;-2.1200
1324.6460;-21.1600;-19.1200;-2.0400
1324.8450;-21.2000;-19.2400;-1.9600
1325.0440;-21.2300;-19.3400;-1.8900
1325.2430;-21.2600;-19.4600;-1.8000
1325.4430;-21.3100;-19.5700;-1.7400
1325.6420;-21.3500;-19.6900;-1.6600
1325.8410;-21.4100;-19.8100;-1.6000
1326.0400;-21.4500;-19.9200;-1.5300
1326.2390;-21.5100;-20.0500;-1.4600
1326.4380;-21.5700;-20.1600;-1.4100
1326.6370;-21.6400;-20.2800;-1.3600
1326.8360;-21.7300;-20.4000;-1.3300
1327.0350;-21.8100;-20.5200;-1.2900
1327.2350;-21.9100;-20.6600;-1.2500
1327.4340;-22.0100;-20.7700;-1.2400
1327.6330;-22.1200;-20.9000;-1.2200
1327.8320;-22.2600;-21.0200;-1.2400
1328.0310;-22.3900;-21.1500;-1.2400
1328.2300;-22.5500;-21.2900;-1.2600
1328.4290;-22.7000;-21.4100;-1.2900
1328.6280;-22.8800;-21.5600;-1.3200
1328.8270;-23.0700;-21.6800;-1.3900
1329.0270;-23.2600;-21.8100;-1.4500
1329.2260;-23.4900;-21.9600;-1.5300
1329.4250;-23.7000;-22.0800;-1.6200
1329.6240;-23.9400;-22.2300;-1.7100
1329.8230;-24.1800;-22.3500;-1.8300
1330.0220;-24.4500;-22.4900;-1.9600
1330.2210;-24.7300;-22.6400;-2.0900
1330.4200;-25.0200;-22.7700;-2.2500
1330.6200;-25.3400;-22.9200;-2.4200
1330.8190;-25.6700;-23.0600;-2.6100
1331.0180;-26.0100;-23.2100;-2.8000
1331.2170;-26.3800;-23.3500;-3.0300
1331.4160;-26.7600;-23.5000;-3.2600
1331.6150;-27.1700;-23.6500;-3.5200
1331.8140;-27.5800;-23.7900;-3.7900
1332.0130;-28.0300;-23.9600;-4.0700
1332.2120;-28.5800;-24.0900;-4.4900
1332.4120;-28.9900;-24.2500;-4.7400
1332.6110;-29.5000;-24.4100;-5.0900
1332.8100;-30.0300;-24.5600;-5.4700
1333.0090;-30.5900;-24.7300;-5.8600
1333.2080;-31.1600;-24.8700;-6.2900
1333.4070;-31.7600;-25.0300;-6.7300
1333.6060;-32.3700;-25.1800;-7.1900
1333.8050;-33.0100;-25.3400;-7.6700
1334.0040;-33.6600;-25.5100;-8.1500
1334.2040;-34.3100;-25.6600;-8.6500
1334.4030;-34.9700;-25.8300;-9.1400
1334.6020;-35.6000;-25.9800;-9.6200
1334.8010;-36.2200;-26.1400;-10.0800
1335.0000;-36.7800;-26.3100;-10.4700
1335.1990;-37.2700;-26.4600;-10.8100
1335.3980;-37.6800;-26.6400;-11.0400
1335.5970;-37.9900;-26.7900;-11.2000
1335.7970;-38.1800;-26.9600;-11.2200
1335.9960;-38.2500;-27.1300;-11.1200
1336.1950;-38.2400;-27.2900;-10.9500
1336.3940;-38.1100;-27.4500;-10.6600
1336.5930;-37.9300;-27.6100;-10.3200
1336.7920;-37.7100;-27.7900;-9.9200
1336.9910;-37.4400;-27.9400;-9.5000
1337.1900;-37.1800;-28.1100;-9.0700
1337.3890;-36.9100;-28.2800;-8.6300
1337.5890;-36.6600;-28.4400;-8.2200
1337.7880;-36.4200;-28.6500;-7.7700
1337.9870;-36.1900;-28.7900;-7.4000
1338.1860;-35.9900;-28.9600;-7.0300
1338.3850;-35.8000;-29.1300;-6.6700
1338.5840;-35.6400;-29.3100;-6.3300
1338.7830;-35.5100;-29.4700;-6.0400
1338.9820;-35.3900;-29.6400;-5.7500
1339.1810;-35.3100;-29.8200;-5.4900
1339.3810;-35.2400;-29.9900;-5.2500
1339.5800;-35.2000;-30.1700;-5.0300
1339.7790;-35.1800;-30.3300;-4.8500
1339.9780;-35.1800;-30.5200;-4.6600
1340.1770;-35.2100;-30.6900;-4.5200
1340.3760;-35.2600;-30.8600;-4.4000
1340.5750;-35.3400;-31.0600;-4.2800
1340.7740;-35.4200;-31.2200;-4.2000
1340.9740;-35.5300;-31.4000;-4.1300
1341.1730;-35.6600;-31.5700;-4.0900
1341.3720;-35.8100;-31.7400;-4.0700
1341.5710;-35.9900;-31.9200;-4.0700
1341.7700;-36.1700;-32.0900;-4.0800
1341.9690;-36.3900;-32.2800;-4.1100
1342.1680;-36.6100;-32.4400;-4.1700
1342.3670;-36.8600;-32.6200;-4.2400
1342.5660;-37.1400;-32.7900;-4.3500
1342.7660;-37.4300;-32.9700;-4.4600
1342.9650;-37.7600;-33.1600;-4.6000
1343.1640;-38.1000;-33.3300;-4.7700
1343.3630;-38.5500;-33.5100;-5.0400
1343.5620;-38.8600;-33.6800;-5.1800
1343.7610;-39.2700;-33.8500;-5.4200
1343.9600;-39.7300;-34.0500;-5.6800
1344.1590;-40.2000;-34.2200;-5.9800
1344.3580;-40.7200;-34.4100;-6.3100
1344.5580;-41.2500;-34.5800;-6.6700
1344.7570;-41.8300;-34.7700;-7.0600
1344.9560;-42.4300;-34.9400;-7.4900
1345.1550;-43.0700;-35.1000;-7.9700
1345.3540;-43.7500;-35.2800;-8.4700
1345.5530;-44.4600;-35.4400;-9.0200
1345.7520;-45.2200;-35.6300;-9.5900
1345.9510;-46.0300;-35.8000;-10.2300
1346.1500;-46.8800;-35.9700;-10.9100
1346.3500;-47.7700;-36.1600;-11.6100
1346.5490;-48.8900;-36.3400;-12.5500
1346.7480;-49.6200;-36.5100;-13.1100
1346.9470;-50.5000;-36.6800;-13.8200
1347.1460;-51.3100;-36.8500;-14.4600
1347.3450;-51.9500;-37.0000;-14.9500
1347.5440;-52.3800;-37.2100;-15.1700
1347.7430;-52.5700;-37.4400;-15.1300
1347.9430;-52.4500;-37.6300;-14.8200
1348.1420;-52.0800;-37.8000;-14.2800
1348.3410;-51.5700;-37.9800;-13.5900
1348.5400;-50.9600;-38.1100;-12.8500
1348.7390;-50.3300;-38.2700;-12.0600
1348.9380;-49.7100;-38.4600;-11.2500
1349.1370;-49.1300;-38.5900;-10.5400
1349.3360;-48.5600;-38.7200;-9.8400
1349.5350;-48.0600;-38.8700;-9.1900
1349.7350;-47.5800;-39.0200;-8.5600
1349.9340;-47.1700;-39.1900;-7.9800
1350.1330;-46.8200;-39.3900;-7.4300
1350.3320;-46.5500;-39.6100;-6.9400
1350.5310;-46.2300;-39.8100;-6.4200
1350.7300;-46.0000;-39.9700;-6.0300
1350.9290;-45.7400;-40.1100;-5.6300
1351.1280;-45.4800;-40.2200;-5.2600
1351.3270;-45.2700;-40.3600;-4.9100
1351.5270;-45.1200;-40.5400;-4.5800
1351.7260;-45.0300;-40.7500;-4.2800
1351.9250;-44.9500;-40.9200;-4.0300
1352.1240;-44.8500;-41.0900;-3.7600
1352.3230;-44.7700;-41.2500;-3.5200
1352.5220;-44.7800;-41.4500;-3.3300
1352.7210;-44.7200;-41.5800;-3.1400
1352.9200;-44.7000;-41.7300;-2.9700
1353.1200;-44.7800;-41.9800;-2.8000
1353.3190;-44.7700;-42.0700;-2.7000
1353.5180;-44.7900;-42.2300;-2.5600
1353.7170;-44.8700;-42.4000;-2.4700
1353.9160;-44.9000;-42.4900;-2.4100
1354.1150;-44.9600;-42.6200;-2.3400
1354.3140;-45.1100;-42.8400;-2.2700
1354.5130;-45.2500;-43.0200;-2.2300
1354.7120;-45.5300;-43.3100;-2.2200
1354.9120;-45.7600;-43.6000;-2.1600
1355.1110;-46.0000;-43.7500;-2.2500
1355.3100;-46.1200;-43.8800;-2.2400
1355.5090;-46.2200;-43.8500;-2.3700
1355.7080;-46.4500;-44.1100;-2.3400
1355.9070;-46.8000;-44.3700;-2.4300
1356.1060;-47.0700;-44.5200;-2.5500
1356.3050;-47.2900;-44.6000;-2.6900
1356.5040;-47.5300;-44.6800;-2.8500
1356.7040;-47.5900;-44.6000;-2.9900
1356.9030;-47.8300;-44.7300;-3.1000
1357.1020;-48.3200;-45.0900;-3.2300
1357.3010;-48.8400;-45.3100;-3.5300
1357.5000;-49.1800;-45.4700;-3.7100
1357.6990;-49.5500;-45.6500;-3.9000
1357.8980;-49.9300;-45.6800;-4.2500
1358.0970;-50.2000;-45.7300;-4.4700
1358.2970;-50.6200;-45.9000;-4.7200
1358.4960;-51.1800;-46.1200;-5.0600
1358.6950;-51.6100;-46.2500;-5.3600
1358.8940;-52.1300;-46.3800;-5.7500
1359.0930;-52.6200;-46.5200;-6.1000
1359.2920;-53.0200;-46.5500;-6.4700
1359.4910;-53.6500;-46.9100;-6.7400
1359.6900;-54.3200;-47.2000;-7.1200
1359.8890;-54.9300;-47.3800;-7.5500
1360.0890;-55.3600;-47.4300;-7.9300
1360.2880;-55.7800;-47.4300;-8.3500
1360.4870;-56.0200;-47.4100;-8.6100
1360.6860;-56.3500;-47.5600;-8.7900
1360.8850;-56.8700;-47.8900;-8.9800
1361.0840;-57.2600;-48.1900;-9.0700
1361.2830;-57.4900;-48.3400;-9.1500
1361.4820;-57.5300;-48.5500;-8.9800
1361.6810;-57.6100;-48.6800;-8.9300
1361.8810;-57.5300;-48.8200;-8.7100
1362.0800;-57.4600;-49.0200;-8.4400
1362.2790;-57.4200;-49.4200;-8.0000
1362.4780;-57.4800;-49.6600;-7.8200
1362.6770;-57.1400;-49.7700;-7.3700
1362.8760;-56.6500;-49.6400;-7.0100
1363.0750;-56.2100;-49.5500;-6.6600
1363.2740;-55.5800;-49.3200;-6.2600
1363.4740;-55.2600;-49.3700;-5.8900
1363.6730;-54.9800;-49.4500;-5.5300
1363.8720;-54.7600;-49.5900;-5.1700
1364.0710;-54.6100;-49.7800;-4.8300
1364.2700;-54.4900;-49.9800;-4.5100
1364.4690;-54.4100;-50.2700;-4.1400
1364.6680;-54.6800;-50.7700;-3.9100
1364.8670;-54.6500;-50.9700;-3.6800
1365.0660;-54.4100;-50.9300;-3.4800
1365.2660;-54.2800;-51.0900;-3.1900
1365.4650;-54.0600;-51.0100;-3.0500
1365.6640;-53.9300;-51.0800;-2.8500
1365.8630;-53.7900;-51.1000;-2.6900
1366.0620;-53.6600;-51.0800;-2.5800
1366.2610;-53.5200;-51.0600;-2.4600
1366.4600;-53.4600;-51.1100;-2.3500
1366.6590;-53.4800;-51.2800;-2.2000
1366.8580;-53.6300;-51.4900;-2.1400
1367.0580;-53.6900;-51.6200;-2.0700
1367.2570;-53.7400;-51.7100;-2.0300
1367.4560;-53.9300;-51.9700;-1.9600
1367.6550;-54.0600;-52.1500;-1.9100
1367.8540;-54.3400;-52.4000;-1.9400
1368.0530;-54.4400;-52.5200;-1.9200
1368.2520;-54.5100;-52.4700;-2.0400
1368.4510;-54.7500;-52.8100;-1.9400
1368.6500;-54.9300;-52.8800;-2.0500
1368.8500;-55.1000;-52.9700;-2.1300
1369.0490;-55.1400;-52.9500;-2.1900
1369.2480;-55.2500;-52.8900;-2.3600
1369.4470;-55.1900;-52.8200;-2.3700
1369.6460;-55.3700;-52.9000;-2.4700
1369.8450;-55.7400;-53.2300;-2.5100
1370.0440;-56.0900;-53.4100;-2.6800
1370.2430;-56.3500;-53.5300;-2.8200
1370.4430;-56.5300;-53.5800;-2.9500
1370.6420;-56.7300;-53.5900;-3.1400
1370.8410;-57.0500;-53.9000;-3.1500
1371.0400;-57.5000;-54.1600;-3.3400
1371.2390;-57.8700;-54.3300;-3.5400
1371.4380;-58.0500;-54.3500;-3.7000
1371.6370;-58.2600;-54.2900;-3.9700
1371.8360;-58.3000;-54.2800;-4.0200
1372.0350;-58.7100;-54.4500;-4.2600
1372.2350;-58.9900;-54.6600;-4.3300
1372.4340;-59.2400;-54.7400;-4.5000
1372.6330;-59.4300;-54.8200;-4.6100
1372.8320;-59.5900;-54.8500;-4.7400
1373.0310;-59.7400;-54.8700;-4.8700
1373.2300;-59.9200;-55.0200;-4.9000
1373.4290;-60.1300;-55.1400;-4.9900
1373.6280;-60.2800;-55.2600;-5.0200
1373.8270;-60.3700;-55.3300;-5.0400
1374.0270;-60.4900;-55.4400;-5.0500
1374.2260;-60.5300;-55.5300;-5.0000
1374.4250;-60.6300;-55.6700;-4.9600
1374.6240;-60.6900;-55.8100;-4.8800
1374.8230;-60.7600;-55.9900;-4.7700
1375.0220;-60.8400;-56.1700;-4.6700
1375.2210;-60.8200;-56.2400;-4.5800
1375.4200;-60.7600;-56.3000;-4.4600
1375.6200;-60.7000;-56.3800;-4.3200
1375.8190;-60.6200;-56.4800;-4.1400
1376.0180;-60.6100;-56.6300;-3.9800
1376.2170;-60.6000;-56.7700;-3.8300
1376.4160;-60.5200;-56.8700;-3.6500
1376.6150;-60.5000;-56.9600;-3.5400
1376.8140;-60.4600;-57.1100;-3.3500
1377.0130;-60.5400;-57.3400;-3.2000
1377.2120;-60.5900;-57.5100;-3.0800
1377.4120;-60.5300;-57.6000;-2.9300
1377.6110;-60.4800;-57.6400;-2.8400
1377.8100;-60.3400;-57.6100;-2.7300
1378.0090;-60.2600;-57.6600;-2.6000
1378.2080;-60.2800;-57.7600;-2.5200
1378.4070;-60.3300;-57.9300;-2.4000
1378.6060;-60.5100;-58.1800;-2.3300
1378.8050;-60.7000;-58.5400;-2.1600
1379.0040;-60.8300;-58.6100;-2.2200
1379.2040;-60.8600;-58.6600;-2.2000
1379.4030;-60.8200;-58.6400;-2.1800
1379.6020;-60.8000;-58.6200;-2.1800
1379.8010;-60.8200;-58.6300;-2.1900
1380.0000;-60.9500;-58.7700;-2.1800
1380.1990;-61.1600;-58.9500;-2.2100
1380.3980;-61.3600;-59.1500;-2.2100
1380.5970;-61.8900;-59.7300;-2.1600
1380.7970;-62.4500;-60.1400;-2.3100
1380.9960;-62.7400;-60.3000;-2.4400
1381.1950;-62.9100;-60.2900;-2.6200
1381.3940;-62.8700;-60.0000;-2.8700
1381.5930;-62.6900;-59.7500;-2.9400
1381.7920;-62.8700;-59.8000;-3.0700
1381.9910;-63.0600;-59.8400;-3.2200
1382.1900;-63.3500;-59.9400;-3.4100
1382.3890;-63.8300;-60.2600;-3.5700
1382.5890;-64.4300;-60.8000;-3.6300
1382.7880;-65.2200;-61.2900;-3.9300
1382.9870;-65.8000;-61.5000;-4.3000
1383.1860;-66.0400;-61.2600;-4.7800
1383.3850;-66.1800;-60.9800;-5.2000
1383.5840;-66.2200;-60.7700;-5.4500
1383.7830;-66.6500;-60.9300;-5.7200
1383.9820;-67.2100;-61.0300;-6.1800
1384.1810;-67.7300;-61.0800;-6.6500
1384.3810;-68.2700;-61.1100;-7.1600
1384.5800;-68.7300;-61.0400;-7.6900
1384.7790;-69.2100;-61.1700;-8.0400
1384.9780;-69.8900;-61.4200;-8.4700
1385.1770;-70.7700;-61.6400;-9.1300
1385.3760;-71.4400;-61.7600;-9.6800
1385.5750;-71.7500;-61.7100;-10.0400
1385.7740;-72.3400;-61.7400;-10.6000
1385.9740;-72.8100;-61.7300;-11.0800
1386.1730;-73.2800;-61.7700;-11.5100
1386.3720;-73.1000;-61.8800;-11.2200
1386.5710;-73.4700;-61.9200;-11.5500
1386.7700;-73.3700;-61.9700;-11.4000
1386.9690;-73.4000;-62.0000;-11.4000
1387.1680;-73.0600;-62.0200;-11.0400
1387.3670;-72.7200;-62.0900;-10.6300
1387.5660;-72.3900;-62.1500;-10.2400
1387.7660;-72.2100;-62.4300;-9.7800
1387.9650;-72.0700;-62.6800;-9.3900
1388.1640;-71.7500;-62.9600;-8.7900
1388.3630;-71.3500;-63.0600;-8.2900
1388.5620;-70.8300;-63.0100;-7.8200
1388.7610;-70.2400;-62.8800;-7.3600
1388.9600;-69.6800;-62.8300;-6.8500
1389.1590;-69.3100;-62.8000;-6.5100
1389.3580;-68.9900;-62.8100;-6.1800
1389.5580;-68.7000;-62.8600;-5.8400
1389.7570;-68.3000;-62.9900;-5.3100
1389.9560;-68.1600;-63.1700;-4.9900
1390.1550;-68.0000;-63.2200;-4.7800
1390.3540;-67.8400;-63.2400;-4.6000
1390.5530;-67.5300;-63.3300;-4.2000
1390.7520;-67.3500;-63.2800;-4.0700
1390.9510;-67.1900;-63.4100;-3.7800
1391.1500;-67.1300;-63.4500;-3.6800
1391.3500;-66.9800;-63.4900;-3.4900
1391.5490;-66.8600;-63.5400;-3.3200
1391.7480;-66.8600;-63.6500;-3.2100
1391.9470;-66.7900;-63.7600;-3.0300
1392.1460;-66.8000;-63.9200;-2.8800
1392.3450;-66.9900;-64.1600;-2.8300
1392.5440;-67.2000;-64.5900;-2.6100
1392.7430;-67.3900;-64.7100;-2.6800
1392.9430;-67.3700;-64.6200;-2.7500
1393.1420;-67.2200;-64.4800;-2.7400
1393.3410;-67.0000;-64.3000;-2.7000
1393.5400;-66.9500;-64.2800;-2.6700
1393.7390;-66.9800;-64.3700;-2.6100
1393.9380;-67.1600;-64.4100;-2.7500
1394.1370;-67.2400;-64.4900;-2.7500
1394.3360;-67.3600;-64.5700;-2.7900
1394.5350;-67.5700;-64.6100;-2.9600
1394.7350;-67.7200;-64.7500;-2.9700
1394.9340;-68.0600;-65.0500;-3.0100
1395.1330;-68.5300;-65.2200;-3.3100
1395.3320;-68.7000;-65.3800;-3.3200
1395.5310;-69.0500;-65.4700;-3.5800
1395.7300;-69.3000;-65.5200;-3.7800
1395.9290;-69.3700;-65.3900;-3.9800
1396.1280;-69.5100;-65.5200;-3.9900
1396.3270;-69.8800;-65.6300;-4.2500
1396.5270;-70.3700;-65.9200;-4.4500
1396.7260;-70.5800;-66.0500;-4.5300
1396.9250;-71.0200;-66.0900;-4.9300
1397.1240;-71.2700;-65.8900;-5.3800
1397.3230;-71.3900;-65.7800;-5.6100
1397.5220;-71.5100;-65.7400;-5.7700
1397.7210;-72.0800;-65.7900;-6.2900
1397.9200;-72.3700;-65.8800;-6.4900
1398.1200;-73.0600;-65.8800;-7.1800
1398.3190;-73.1000;-66.0000;-7.1000
1398.5180;-73.5800;-66.1100;-7.4700
1398.7170;-73.7900;-66.1700;-7.6200
1398.9160;-73.7800;-66.2900;-7.4900
1399.1150;-74.7700;-66.2800;-8.4900
1399.3140;-74.6700;-66.4200;-8.2500
1399.5130;-75.4600;-66.7000;-8.7600
1399.7120;-75.6500;-66.8100;-8.8400
1399.9120;-75.6800;-67.0200;-8.6600
1400.1110;-75.5100;-67.1500;-8.3600
1400.3100;-75.3900;-67.1100;-8.2800
1400.5090;-75.6400;-67.1900;-8.4500
1400.7080;-76.4000;-67.5300;-8.8700
1400.9070;-75.7800;-67.6500;-8.1300
1401.1060;-75.3900;-67.6900;-7.7000
1401.3050;-76.1100;-67.7200;-8.3900
1401.5040;-75.5100;-67.6200;-7.8900
1401.7040;-76.0000;-67.6400;-8.3600
1401.9030;-75.3400;-67.7600;-7.5800
1402.1020;-75.1100;-67.7900;-7.3200
1402.3010;-74.7400;-67.6900;-7.0500
1402.5000;-74.5500;-67.7000;-6.8500
1402.6990;-74.1700;-67.7100;-6.4600
1402.8980;-73.8400;-67.8800;-5.9600
1403.0970;-74.4500;-68.0500;-6.4000
1403.2970;-73.9000;-68.1100;-5.7900
1403.4960;-73.8400;-68.1700;-5.6700
1403.6950;-73.8100;-68.2600;-5.5500
1403.8940;-73.6100;-68.3500;-5.2600
1404.0930;-73.8400;-68.5100;-5.3300
1404.2920;-73.8400;-68.6300;-5.2100
1404.4910;-73.8500;-68.7700;-5.0800
1404.6900;-73.8200;-68.7800;-5.0400
1404.8890;-74.0400;-69.4100;-4.6300
1405.0890;-74.4900;-69.7100;-4.7800
1405.2880;-74.1300;-69.4600;-4.6700
1405.4870;-74.3300;-69.4900;-4.8400
1405.6860;-74.0600;-69.3300;-4.7300
1405.8850;-74.1200;-69.2700;-4.8500
1406.0840;-74.2200;-69.2100;-5.0100
1406.2830;-74.2500;-69.3500;-4.9000
1406.4820;-73.7300;-69.4400;-4.2900
1406.6810;-74.4300;-69.5200;-4.9100
1406.8810;-74.7000;-69.7600;-4.9400
1407.0800;-74.4900;-69.9600;-4.5300
1407.2790;-75.3000;-70.2200;-5.0800
1407.4780;-75.0000;-70.0900;-4.9100
1407.6770;-75.2500;-70.2200;-5.0300
1407.8760;-75.2200;-70.0600;-5.1600
1408.0750;-75.3300;-70.1900;-5.1400
1408.2740;-75.4700;-70.2100;-5.2600
1408.4740;-76.0000;-70.1200;-5.8800
1408.6730;-75.9800;-70.1800;-5.8000
1408.8720;-75.8500;-70.4900;-5.3600
1409.0710;-75.9200;-70.6800;-5.2400
1409.2700;-75.9400;-70.8900;-5.0500
1409.4690;-77.0900;-71.2300;-5.8600
1409.6680;-77.3300;-71.1900;-6.1400
1409.8670;-77.4100;-71.2700;-6.1400
1410.0660;-76.7000;-71.1100;-5.5900
1410.2660;-76.9900;-71.1000;-5.8900
1410.4650;-77.2900;-71.0700;-6.2200
1410.6640;-76.7900;-71.2000;-5.5900
1410.8630;-76.7000;-71.1200;-5.5800
1411.0620;-76.7900;-71.2800;-5.5100
1411.2610;-76.7500;-71.3000;-5.4500
1411.4600;-76.2800;-71.6000;-4.6800
1411.6590;-77.0500;-71.6000;-5.4500
1411.8580;-76.5100;-71.6200;-4.8900
1412.0580;-76.4700;-71.7900;-4.6800
1412.2570;-76.5100;-71.9500;-4.5600
1412.4560;-76.7300;-71.7900;-4.9400
1412.6550;-77.2000;-71.8300;-5.3700
1412.8540;-76.7200;-72.1500;-4.5700
1413.0530;-76.6400;-72.0000;-4.6400
1413.2520;-76.1600;-72.1600;-4.0000
1413.4510;-76.7500;-72.1300;-4.6200
1413.6500;-76.5200;-72.4800;-4.0400
1413.8500;-76.8900;-72.4300;-4.4600
1414.0490;-76.6900;-72.5400;-4.1500
1414.2480;-76.8000;-72.4400;-4.3600
1414.4470;-76.5200;-72.8500;-3.6700
1414.6460;-76.2500;-73.2100;-3.0400
1414.8450;-76.5200;-72.8100;-3.7100
1415.0440;-76.1100;-73.0500;-3.0600
1415.2430;-76.5200;-73.0900;-3.4300
1415.4430;-76.2500;-73.1300;-3.1200
1415.6420;-76.3700;-72.5800;-3.7900
1415.8410;-76.3200;-72.7100;-3.6100
1416.0400;-76.5200;-72.9000;-3.6200
1416.2390;-75.7700;-73.2100;-2.5600
1416.4380;-76.5900;-73.1500;-3.4400
1416.6370;-76.0500;-73.1400;-2.9100
1416.8360;-75.8600;-73.2800;-2.5800
1417.0350;-76.5200;-73.0000;-3.5200
1417.2350;-76.4800;-72.9100;-3.5700
1417.4340;-76.6200;-73.7100;-2.9100
1417.6330;-76.5200;-73.8100;-2.7100
1417.8320;-76.3800;-73.4800;-2.9000
1418.0310;-76.3000;-72.9200;-3.3800
1418.2300;-76.0700;-73.4100;-2.6600
1418.4290;-77.0600;-73.6400;-3.4200
1418.6280;-76.3200;-73.6000;-2.7200
1418.8270;-77.4800;-73.6100;-3.8700
1419.0270;-76.1600;-73.8200;-2.3400
1419.2260;-77.7700;-74.0100;-3.7600
1419.4250;-77.0800;-74.1500;-2.9300
1419.6240;-76.6900;-74.2400;-2.4500
1419.8230;-77.8300;-73.9900;-3.8400
1420.0220;-78.3200;-74.0900;-4.2300
1420.2210;-78.7200;-74.0900;-4.6300
1420.4200;-77.8600;-73.7000;-4.1600
1420.6200;-77.4400;-74.3100;-3.1300
1420.8190;-77.6300;-74.0400;-3.5900
1421.0180;-77.1400;-74.4300;-2.7100
1421.2170;-77.7700;-74.2900;-3.4800
1421.4160;-78.6700;-74.3600;-4.3100
1421.6150;-78.9700;-73.9900;-4.9800
1421.8140;-77.0300;-74.3600;-2.6700
1422.0130;-77.7800;-74.1700;-3.6100
1422.2120;-78.7300;-74.4400;-4.2900
1422.4120;-77.3500;-74.4600;-2.8900
1422.6110;-77.9400;-74.2300;-3.7100
1422.8100;-77.5800;-74.0100;-3.5700
1423.0090;-77.9100;-74.4400;-3.4700
1423.2080;-78.5100;-74.0500;-4.4600
1423.4070;-78.4100;-74.1000;-4.3100
1423.6060;-77.6000;-74.1300;-3.4700
1423.8050;-77.5300;-74.3800;-3.1500
1424.0040;-78.1500;-74.1000;-4.0500
1424.2040;-77.9800;-74.6700;-3.3100
1424.4030;-78.1500;-74.3300;-3.8200
1424.6020;-77.9100;-74.1300;-3.7800
1424.8010;-77.9600;-74.0600;-3.9000
1425.0000;-77.7500;-74.1700;-3.5800
