Wavelength (nm);Intensity (dBm)
1131.0;1131.0
1200.0;-60.54
1200.199;-60.48
1200.398;-60.43
1200.597;-60.43
1200.797;-60.36
1200.996;-60.29
1201.195;-60.24
1201.394;-60.22
1201.593;-60.22
1201.792;-60.15
1201.991;-60.06
1202.19;-60.09
1202.389;-60.08
1202.589;-60.03
1202.788;-59.95
1202.987;-59.93
1203.186;-59.95
1203.385;-59.89
1203.584;-59.84
1203.783;-59.8
1203.982;-59.84
1204.181;-59.82
1204.381;-59.77
1204.58;-59.75
1204.779;-59.79
1204.978;-59.82
1205.177;-59.81
1205.376;-59.8
1205.575;-59.84
1205.774;-59.87
1205.974;-59.86
1206.173;-59.83
1206.372;-59.83
1206.571;-59.88
1206.77;-59.84
1206.969;-59.75
1207.168;-59.73
1207.367;-59.74
1207.566;-59.7
1207.766;-59.57
1207.965;-59.5
1208.164;-59.51
1208.363;-59.45
1208.562;-59.33
1208.761;-59.26
1208.96;-59.22
1209.159;-59.16
1209.358;-59.07
1209.558;-58.96
1209.757;-58.93
1209.956;-58.89
1210.155;-58.82
1210.354;-58.7
1210.553;-58.64
1210.752;-58.65
1210.951;-58.6
1211.15;-58.48
1211.35;-58.42
1211.549;-58.44
1211.748;-58.43
1211.947;-58.33
1212.146;-58.3
1212.345;-58.34
1212.544;-58.35
1212.743;-58.3
1212.943;-58.28
1213.142;-58.33
1213.341;-58.34
1213.54;-58.32
1213.739;-58.3
1213.938;-58.34
1214.137;-58.38
1214.336;-58.31
1214.535;-58.24
1214.735;-58.26
1214.934;-58.27
1215.133;-58.21
1215.332;-58.09
1215.531;-58.06
1215.73;-58.05
1215.929;-57.94
1216.128;-57.83
1216.327;-57.73
1216.527;-57.69
1216.726;-57.61
1216.925;-57.46
1217.124;-57.34
1217.323;-57.28
1217.522;-57.18
1217.721;-57.03
1217.92;-56.9
1218.12;-56.85
1218.319;-56.75
1218.518;-56.61
1218.717;-56.5
1218.916;-56.46
1219.115;-56.42
1219.314;-56.3
1219.513;-56.24
1219.712;-56.24
1219.912;-56.23
1220.111;-56.18
1220.31;-56.13
1220.509;-56.16
1220.708;-56.21
1220.907;-56.19
1221.106;-56.18
1221.305;-56.23
1221.504;-56.28
1221.704;-56.3
1221.903;-56.3
1222.102;-56.35
1222.301;-56.41
1222.5;-56.41
1222.699;-56.42
1222.898;-56.44
1223.097;-56.49
1223.297;-56.48
1223.496;-56.44
1223.695;-56.45
1223.894;-56.46
1224.093;-56.43
1224.292;-56.34
1224.491;-56.3
1224.69;-56.27
1224.889;-56.16
1225.089;-56.05
1225.288;-55.93
1225.487;-55.81
1225.686;-55.67
1225.885;-55.49
1226.084;-55.35
1226.283;-55.22
1226.482;-55.04
1226.681;-54.84
1226.881;-54.69
1227.08;-54.56
1227.279;-54.38
1227.478;-54.22
1227.677;-54.09
1227.876;-53.99
1228.075;-53.87
1228.274;-53.73
1228.474;-53.65
1228.673;-53.59
1228.872;-53.5
1229.071;-53.42
1229.27;-53.37
1229.469;-53.35
1229.668;-53.3
1229.867;-53.25
1230.066;-53.26
1230.266;-53.25
1230.465;-53.23
1230.664;-53.23
1230.863;-53.27
1231.062;-53.32
1231.261;-53.33
1231.46;-53.36
1231.659;-53.43
1231.858;-53.47
1232.058;-53.49
1232.257;-53.5
1232.456;-53.55
1232.655;-53.56
1232.854;-53.53
1233.053;-53.52
1233.252;-53.49
1233.451;-53.42
1233.65;-53.32
1233.85;-53.22
1234.049;-53.16
1234.248;-53.0
1234.447;-52.84
1234.646;-52.71
1234.845;-52.58
1235.044;-52.42
1235.243;-52.25
1235.443;-52.11
1235.642;-51.97
1235.841;-51.8
1236.04;-51.67
1236.239;-51.54
1236.438;-51.42
1236.637;-51.29
1236.836;-51.17
1237.035;-51.11
1237.235;-51.0
1237.434;-50.91
1237.633;-50.84
1237.832;-50.81
1238.031;-50.75
1238.23;-50.7
1238.429;-50.68
1238.628;-50.66
1238.827;-50.62
1239.027;-50.61
1239.226;-50.59
1239.425;-50.58
1239.624;-50.53
1239.823;-50.48
1240.022;-50.46
1240.221;-50.38
1240.42;-50.28
1240.62;-50.18
1240.819;-50.07
1241.018;-49.92
1241.217;-49.74
1241.416;-49.59
1241.615;-49.4
1241.814;-49.2
1242.013;-49.01
1242.212;-48.83
1242.412;-48.66
1242.611;-48.45
1242.81;-48.29
1243.009;-48.14
1243.208;-48.0
1243.407;-47.88
1243.606;-47.76
1243.805;-47.69
1244.004;-47.61
1244.204;-47.56
1244.403;-47.55
1244.602;-47.53
1244.801;-47.54
1245.0;-47.57
1245.199;-47.63
1245.398;-47.71
1245.597;-47.78
1245.797;-47.89
1245.996;-47.99
1246.195;-48.1
1246.394;-48.22
1246.593;-48.31
1246.792;-48.39
1246.991;-48.43
1247.19;-48.43
1247.389;-48.39
1247.589;-48.25
1247.788;-48.06
1247.987;-47.8
1248.186;-47.47
1248.385;-47.1
1248.584;-46.65
1248.783;-46.2
1248.982;-45.64
1249.181;-45.25
1249.381;-44.78
1249.58;-44.3
1249.779;-43.85
1249.978;-43.39
1250.177;-42.98
1250.376;-42.59
1250.575;-42.2
1250.774;-41.87
1250.974;-41.55
1251.173;-41.26
1251.372;-40.99
1251.571;-40.76
1251.77;-40.57
1251.969;-40.37
1252.168;-40.22
1252.367;-40.09
1252.566;-40.0
1252.766;-39.95
1252.965;-39.91
1253.164;-39.9
1253.363;-39.92
1253.562;-39.97
1253.761;-40.05
1253.96;-40.15
1254.159;-40.28
1254.358;-40.41
1254.558;-40.56
1254.757;-40.73
1254.956;-40.87
1255.155;-41.02
1255.354;-41.11
1255.553;-41.17
1255.752;-41.17
1255.951;-41.09
1256.15;-40.95
1256.35;-40.7
1256.549;-40.4
1256.748;-40.03
1256.947;-39.6
1257.146;-39.14
1257.345;-38.64
1257.544;-38.15
1257.743;-37.65
1257.943;-37.13
1258.142;-36.67
1258.341;-36.18
1258.54;-35.68
1258.739;-35.32
1258.938;-34.92
1259.137;-34.56
1259.336;-34.21
1259.535;-33.92
1259.735;-33.63
1259.934;-33.38
1260.133;-33.17
1260.332;-32.97
1260.531;-32.84
1260.73;-32.71
1260.929;-32.62
1261.128;-32.57
1261.327;-32.55
1261.527;-32.59
1261.726;-32.64
1261.925;-32.74
1262.124;-32.87
1262.323;-33.05
1262.522;-33.29
1262.721;-33.55
1262.92;-33.86
1263.12;-34.23
1263.319;-34.64
1263.518;-35.13
1263.717;-35.65
1263.916;-36.22
1264.115;-36.82
1264.314;-37.45
1264.513;-38.2
1264.712;-38.64
1264.912;-39.05
1265.111;-39.22
1265.31;-39.12
1265.509;-38.73
1265.708;-38.11
1265.907;-37.36
1266.106;-36.52
1266.305;-35.54
1266.504;-34.85
1266.704;-34.08
1266.903;-33.34
1267.102;-32.67
1267.301;-32.06
1267.5;-31.5
1267.699;-30.99
1267.898;-30.52
1268.097;-30.1
1268.297;-29.74
1268.496;-29.41
1268.695;-29.12
1268.894;-28.87
1269.093;-28.65
1269.292;-28.49
1269.491;-28.36
1269.69;-28.27
1269.889;-28.2
1270.089;-28.18
1270.288;-28.21
1270.487;-28.26
1270.686;-28.37
1270.885;-28.51
1271.084;-28.68
1271.283;-28.92
1271.482;-29.17
1271.681;-29.49
1271.881;-29.83
1272.08;-30.2
1272.279;-30.62
1272.478;-31.05
1272.677;-31.49
1272.876;-31.9
1273.075;-32.28
1273.274;-32.59
1273.474;-32.77
1273.673;-32.84
1273.872;-32.73
1274.071;-32.47
1274.27;-32.09
1274.469;-31.6
1274.668;-31.06
1274.867;-30.46
1275.066;-29.88
1275.266;-29.3
1275.465;-28.73
1275.664;-28.22
1275.863;-27.71
1276.062;-27.27
1276.261;-26.85
1276.46;-26.47
1276.659;-26.14
1276.858;-25.8
1277.058;-25.61
1277.257;-25.39
1277.456;-25.23
1277.655;-25.1
1277.854;-25.0
1278.053;-24.96
1278.252;-24.94
1278.451;-24.96
1278.65;-25.01
1278.85;-25.1
1279.049;-25.24
1279.248;-25.39
1279.447;-25.6
1279.646;-25.81
1279.845;-26.06
1280.044;-26.34
1280.243;-26.63
1280.443;-26.93
1280.642;-27.18
1280.841;-27.42
1281.04;-27.61
1281.239;-27.69
1281.438;-27.69
1281.637;-27.53
1281.836;-27.28
1282.035;-26.9
1282.235;-26.44
1282.434;-25.92
1282.633;-25.36
1282.832;-24.78
1283.031;-24.2
1283.23;-23.62
1283.429;-23.08
1283.628;-22.55
1283.827;-22.06
1284.027;-21.59
1284.226;-21.16
1284.425;-20.77
1284.624;-20.4
1284.823;-20.08
1285.022;-19.78
1285.221;-19.52
1285.42;-19.3
1285.62;-19.11
1285.819;-18.96
1286.018;-18.83
1286.217;-18.75
1286.416;-18.71
1286.615;-18.71
1286.814;-18.75
1287.013;-18.81
1287.212;-18.92
1287.412;-19.08
1287.611;-19.27
1287.81;-19.53
1288.009;-19.82
1288.208;-20.18
1288.407;-20.59
1288.606;-21.07
1288.805;-21.63
1289.004;-22.26
1289.204;-22.98
1289.403;-23.78
1289.602;-24.7
1289.801;-25.73
1290.0;-26.84
1290.199;-28.0
1290.398;-29.3
1290.597;-29.91
1290.797;-30.08
1290.996;-29.55
1291.195;-28.52
1291.394;-27.27
1291.593;-25.79
1291.792;-24.77
1291.991;-23.71
1292.19;-22.71
1292.389;-21.84
1292.589;-21.04
1292.788;-20.34
1292.987;-19.72
1293.186;-19.16
1293.385;-18.68
1293.584;-18.24
1293.783;-17.86
1293.982;-17.55
1294.181;-17.27
1294.381;-17.05
1294.58;-16.85
1294.779;-16.71
1294.978;-16.62
1295.177;-16.55
1295.376;-16.55
1295.575;-16.55
1295.774;-16.62
1295.974;-16.72
1296.173;-16.87
1296.372;-17.08
1296.571;-17.3
1296.77;-17.61
1296.969;-17.95
1297.168;-18.35
1297.367;-18.84
1297.566;-19.36
1297.766;-19.99
1297.965;-20.68
1298.164;-21.5
1298.363;-22.44
1298.562;-23.49
1298.761;-24.73
1298.96;-26.13
1299.159;-27.7
1299.358;-29.75
1299.558;-30.81
1299.757;-31.32
1299.956;-30.57
1300.155;-29.04
1300.354;-27.34
1300.553;-25.5
1300.752;-24.33
1300.951;-23.11
1301.15;-22.04
1301.35;-21.1
1301.549;-20.3
1301.748;-19.57
1301.947;-18.94
1302.146;-18.38
1302.345;-17.88
1302.544;-17.48
1302.743;-17.1
1302.943;-16.79
1303.142;-16.52
1303.341;-16.3
1303.54;-16.14
1303.739;-15.98
1303.938;-15.92
1304.137;-15.89
1304.336;-15.89
1304.535;-15.93
1304.735;-16.01
1304.934;-16.13
1305.133;-16.29
1305.332;-16.5
1305.531;-16.75
1305.73;-17.05
1305.929;-17.4
1306.128;-17.8
1306.327;-18.36
1306.527;-18.79
1306.726;-19.38
1306.925;-20.02
1307.124;-20.76
1307.323;-21.58
1307.522;-22.46
1307.721;-23.43
1307.92;-24.41
1308.12;-25.4
1308.319;-26.27
1308.518;-26.85
1308.717;-27.02
1308.916;-26.7
1309.115;-26.03
1309.314;-25.16
1309.513;-24.22
1309.712;-23.31
1309.912;-22.42
1310.111;-21.64
1310.31;-20.91
1310.509;-20.27
1310.708;-19.7
1310.907;-19.17
1311.106;-18.75
1311.305;-18.35
1311.504;-18.03
1311.704;-17.77
1311.903;-17.54
1312.102;-17.38
1312.301;-17.24
1312.5;-17.18
1312.699;-17.14
1312.898;-17.15
1313.097;-17.21
1313.297;-17.3
1313.496;-17.46
1313.695;-17.64
1313.894;-17.87
1314.093;-18.17
1314.292;-18.49
1314.491;-18.89
1314.69;-19.32
1314.889;-19.82
1315.089;-20.39
1315.288;-21.03
1315.487;-21.76
1315.686;-22.54
1315.885;-23.43
1316.084;-24.4
1316.283;-25.45
1316.482;-26.59
1316.681;-27.69
1316.881;-28.89
1317.08;-29.38
1317.279;-29.55
1317.478;-29.16
1317.677;-28.37
1317.876;-27.39
1318.075;-26.37
1318.274;-25.24
1318.474;-24.5
1318.673;-23.73
1318.872;-23.0
1319.071;-22.39
1319.27;-21.83
1319.469;-21.34
1319.668;-20.94
1319.867;-20.56
1320.066;-20.27
1320.266;-20.01
1320.465;-19.81
1320.664;-19.67
1320.863;-19.55
1321.062;-19.49
1321.261;-19.45
1321.46;-19.48
1321.659;-19.53
1321.858;-19.61
1322.058;-19.76
1322.257;-19.92
1322.456;-20.14
1322.655;-20.38
1322.854;-20.67
1323.053;-21.01
1323.252;-21.38
1323.451;-21.81
1323.65;-22.26
1323.85;-22.77
1324.049;-23.32
1324.248;-23.91
1324.447;-24.56
1324.646;-25.23
1324.845;-25.96
1325.044;-26.71
1325.243;-27.46
1325.443;-28.2
1325.642;-29.02
1325.841;-29.47
1326.04;-29.86
1326.239;-30.07
1326.438;-30.06
1326.637;-29.87
1326.836;-29.53
1327.035;-29.11
1327.235;-28.66
1327.434;-28.18
1327.633;-27.73
1327.832;-27.3
1328.031;-26.92
1328.23;-26.59
1328.429;-26.24
1328.628;-26.05
1328.827;-25.83
1329.027;-25.69
1329.226;-25.56
1329.425;-25.48
1329.624;-25.44
1329.823;-25.42
1330.022;-25.47
1330.221;-25.53
1330.42;-25.63
1330.62;-25.77
1330.819;-25.94
1331.018;-26.16
1331.217;-26.4
1331.416;-26.68
1331.615;-26.97
1331.814;-27.3
1332.013;-27.67
1332.212;-28.03
1332.412;-28.53
1332.611;-28.89
1332.81;-29.33
1333.009;-29.76
1333.208;-30.2
1333.407;-30.63
1333.606;-31.03
1333.805;-31.41
1334.004;-31.73
1334.204;-32.0
1334.403;-32.19
1334.602;-32.32
1334.801;-32.38
1335.0;-32.38
1335.199;-32.35
1335.398;-32.25
1335.597;-32.14
1335.797;-32.02
1335.996;-31.9
1336.195;-31.78
1336.394;-31.66
1336.593;-31.56
1336.792;-31.47
1336.991;-31.43
1337.19;-31.41
1337.389;-31.41
1337.589;-31.46
1337.788;-31.51
1337.987;-31.61
1338.186;-31.74
1338.385;-31.91
1338.584;-32.12
1338.783;-32.35
1338.982;-32.65
1339.181;-32.96
1339.381;-33.32
1339.58;-33.74
1339.779;-34.19
1339.978;-34.71
1340.177;-35.27
1340.376;-35.91
1340.575;-36.61
1340.774;-37.37
1340.974;-38.22
1341.173;-39.35
1341.372;-40.22
1341.571;-41.39
1341.77;-42.73
1341.969;-44.23
1342.168;-45.91
1342.367;-47.75
1342.566;-49.9
1342.766;-50.74
1342.965;-50.71
1343.164;-49.64
1343.363;-48.15
1343.562;-46.69
1343.761;-45.2
1343.96;-44.31
1344.159;-43.37
1344.358;-42.58
1344.558;-41.92
1344.757;-41.35
1344.956;-40.88
1345.155;-40.47
1345.354;-40.14
1345.553;-39.89
1345.752;-39.69
1345.951;-39.57
1346.15;-39.47
1346.35;-39.44
1346.549;-39.46
1346.748;-39.51
1346.947;-39.61
1347.146;-39.74
1347.345;-39.91
1347.544;-40.16
1347.743;-40.47
1347.943;-40.81
1348.142;-41.16
1348.341;-41.57
1348.54;-41.97
1348.739;-42.45
1348.938;-42.98
1349.137;-43.55
1349.336;-44.19
1349.535;-44.9
1349.735;-45.67
1349.934;-46.53
1350.133;-47.5
1350.332;-48.88
1350.531;-49.86
1350.73;-51.19
1350.929;-52.64
1351.128;-54.11
1351.327;-55.52
1351.527;-56.63
1351.726;-57.12
1351.925;-56.7
1352.124;-55.73
1352.323;-54.61
1352.522;-53.53
1352.721;-52.45
1352.92;-51.52
1353.12;-50.84
1353.319;-50.1
1353.518;-49.53
1353.717;-49.04
1353.916;-48.58
1354.115;-48.23
1354.314;-48.02
1354.513;-47.84
1354.712;-47.84
1354.912;-47.86
1355.111;-47.8
1355.31;-47.75
1355.509;-47.63
1355.708;-47.79
1355.907;-48.04
1356.106;-48.2
1356.305;-48.35
1356.504;-48.56
1356.704;-48.6
1356.903;-48.93
1357.102;-49.49
1357.301;-50.02
1357.5;-50.56
1357.699;-51.14
1357.898;-51.67
1358.097;-52.24
1358.297;-53.01
1358.496;-53.91
1358.695;-54.82
1358.894;-55.87
1359.093;-57.06
1359.292;-58.15
1359.491;-59.96
1359.69;-61.13
1359.889;-62.46
1360.089;-63.31
1360.288;-63.4
1360.487;-62.76
1360.686;-61.83
1360.885;-60.96
1361.084;-60.01
1361.283;-58.92
1361.482;-57.98
1361.681;-57.38
1361.881;-56.68
1362.08;-56.05
1362.279;-55.94
1362.478;-55.66
1362.677;-55.24
1362.876;-54.68
1363.075;-54.26
1363.274;-53.77
1363.474;-53.6
1363.673;-53.49
1363.872;-53.48
1364.071;-53.58
1364.27;-53.73
1364.469;-53.99
1364.668;-54.54
1364.867;-54.85
1365.066;-54.97
1365.266;-55.32
1365.465;-55.44
1365.664;-55.79
1365.863;-56.16
1366.062;-56.55
1366.261;-56.97
1366.46;-57.5
1366.659;-58.23
1366.858;-59.26
1367.058;-59.97
1367.257;-60.9
1367.456;-62.05
1367.655;-63.16
1367.854;-64.48
1368.053;-65.86
1368.252;-66.97
1368.451;-68.13
1368.65;-68.57
1368.85;-68.52
1369.049;-67.7
1369.248;-66.62
1369.447;-65.51
1369.646;-64.54
1369.845;-63.93
1370.044;-63.16
1370.243;-62.42
1370.443;-61.67
1370.642;-61.04
1370.841;-60.84
1371.04;-60.57
1371.239;-60.27
1371.438;-59.84
1371.637;-59.47
1371.836;-59.19
1372.035;-59.12
1372.235;-59.14
1372.434;-59.07
1372.633;-59.04
1372.832;-58.99
1373.031;-59.01
1373.23;-59.13
1373.429;-59.32
1373.628;-59.5
1373.827;-59.71
1374.027;-59.98
1374.226;-60.24
1374.425;-60.63
1374.624;-61.01
1374.823;-61.5
1375.022;-62.04
1375.221;-62.51
1375.42;-63.03
1375.62;-63.58
1375.819;-64.14
1376.018;-64.84
1376.217;-65.54
1376.416;-66.15
1376.615;-66.77
1376.814;-67.35
1377.013;-67.96
1377.212;-68.34
1377.412;-68.58
1377.611;-68.66
1377.81;-68.35
1378.009;-68.09
1378.208;-67.84
1378.407;-67.52
1378.606;-67.18
1378.805;-66.99
1379.004;-66.68
1379.204;-66.18
1379.403;-65.77
1379.602;-65.34
1379.801;-65.05
1380.0;-64.88
1380.199;-64.8
1380.398;-64.72
1380.597;-65.05
1380.797;-65.35
1380.996;-65.33
1381.195;-65.29
1381.394;-64.99
1381.593;-64.73
1381.792;-64.79
1381.991;-64.88
1382.19;-65.08
1382.389;-65.48
1382.589;-66.21
1382.788;-66.9
1382.987;-67.47
1383.186;-67.7
1383.385;-67.71
1383.584;-67.96
1383.783;-68.47
1383.982;-69.04
1384.181;-69.83
1384.381;-70.49
1384.58;-70.95
1384.779;-71.62
1384.978;-72.65
1385.177;-73.8
1385.376;-74.54
1385.575;-74.95
1385.774;-75.24
1385.974;-75.51
1386.173;-75.08
1386.372;-74.72
1386.571;-74.45
1386.77;-73.66
1386.969;-73.22
1387.168;-72.55
1387.367;-71.96
1387.566;-71.4
1387.766;-71.28
1387.965;-71.18
1388.164;-70.71
1388.363;-70.45
1388.562;-69.92
1388.761;-69.56
1388.96;-69.26
1389.159;-69.01
1389.358;-68.69
1389.558;-68.7
1389.757;-68.66
1389.956;-68.63
1390.155;-68.64
1390.354;-68.73
1390.553;-68.81
1390.752;-68.75
1390.951;-68.99
1391.15;-69.3
1391.35;-69.44
1391.549;-69.71
1391.748;-69.9
1391.947;-70.35
1392.146;-70.73
1392.345;-71.36
1392.544;-72.28
1392.743;-72.83
1392.943;-73.34
1393.142;-73.72
1393.341;-73.75
1393.54;-74.34
1393.739;-75.02
1393.938;-75.95
1394.137;-76.8
1394.336;-76.66
1394.535;-77.62
1394.735;-77.9
1394.934;-78.5
1395.133;-77.9
1395.332;-78.02
1395.531;-77.52
1395.73;-77.11
1395.929;-75.9
1396.128;-76.4
1396.327;-75.63
1396.527;-75.52
1396.726;-74.98
1396.925;-74.79
1397.124;-74.26
1397.323;-74.04
1397.522;-73.33
1397.721;-73.25
1397.92;-73.02
1398.12;-72.66
1398.319;-72.58
1398.518;-72.7
1398.717;-72.52
1398.916;-72.4
1399.115;-72.52
1399.314;-72.52
1399.513;-73.09
1399.712;-73.16
1399.912;-72.88
1400.111;-73.56
1400.31;-73.6
1400.509;-74.01
1400.708;-73.77
1400.907;-74.16
1401.106;-74.45
1401.305;-74.94
1401.504;-74.57
1401.704;-74.98
1401.903;-74.92
1402.102;-75.18
1402.301;-74.94
1402.5;-75.58
1402.699;-75.26
1402.898;-76.03
1403.097;-76.2
1403.297;-75.5
1403.496;-76.33
1403.695;-76.2
1403.894;-75.81
1404.093;-76.17
1404.292;-76.09
1404.491;-76.23
1404.69;-76.3
1404.889;-76.33
1405.089;-76.46
1405.288;-76.2
1405.487;-77.59
1405.686;-76.3
1405.885;-75.9
1406.084;-75.67
1406.283;-76.02
1406.482;-75.87
1406.681;-75.94
1406.881;-75.91
1407.08;-77.2
1407.279;-76.41
1407.478;-76.47
1407.677;-76.84
1407.876;-76.99
1408.075;-76.97
1408.274;-76.37
1408.474;-77.05
1408.673;-78.18
1408.872;-78.04
1409.071;-77.76
1409.27;-78.49
1409.469;-78.8
1409.668;-79.48
1409.867;-78.98
1410.066;-78.71
1410.266;-78.49
1410.465;-79.07
1410.664;-78.8
1410.863;-79.94
1411.062;-79.45
1411.261;-78.66
1411.46;-79.01
1411.659;-79.32
1411.858;-77.8
1412.058;-78.44
1412.257;-78.55
1412.456;-79.45
1412.655;-78.21
1412.854;-78.16
1413.053;-77.76
1413.252;-77.89
1413.451;-79.13
1413.65;-78.99
1413.85;-79.2
1414.049;-80.03
1414.248;-78.93
1414.447;-79.53
1414.646;-79.53
1414.845;-79.11
1415.044;-79.14
1415.243;-80.07
1415.443;-79.08
1415.642;-80.27
1415.841;-78.84
1416.04;-81.06
1416.239;-79.33
1416.438;-79.02
1416.637;-79.43
1416.836;-77.81
1417.035;-79.2
1417.235;-78.45
1417.434;-79.77
1417.633;-79.88
1417.832;-78.9
1418.031;-78.75
1418.23;-78.96
1418.429;-78.84
1418.628;-78.56
1418.827;-79.49
1419.027;-79.46
1419.226;-80.51
1419.425;-78.64
1419.624;-80.27
1419.823;-79.77
1420.022;-78.96
1420.221;-78.72
1420.42;-79.74
1420.62;-79.36
1420.819;-77.77
1421.018;-77.95
1421.217;-78.22
1421.416;-78.4
1421.615;-79.03
1421.814;-78.38
1422.013;-78.88
1422.212;-78.18
1422.412;-79.03
1422.611;-78.6
1422.81;-79.44
1423.009;-78.79
1423.208;-79.47
1423.407;-78.57
1423.606;-78.2
1423.805;-78.94
1424.004;-79.0
1424.204;-80.57
1424.403;-78.68
1424.602;-77.94
1424.801;-80.2
1425.0;-78.91
