Wavelength (nm);Intensity (dBm)
1131.0;1131.0
1200.0;-60.51
1200.199;-60.46
1200.398;-60.4
1200.597;-60.39
1200.797;-60.33
1200.996;-60.28
1201.195;-60.2
1201.394;-60.21
1201.593;-60.18
1201.792;-60.11
1201.991;-60.05
1202.19;-60.0
1202.389;-59.99
1202.589;-59.95
1202.788;-59.85
1202.987;-59.81
1203.186;-59.81
1203.385;-59.74
1203.584;-59.68
1203.783;-59.66
1203.982;-59.69
1204.181;-59.67
1204.381;-59.62
1204.58;-59.6
1204.779;-59.65
1204.978;-59.68
1205.177;-59.66
1205.376;-59.65
1205.575;-59.73
1205.774;-59.76
1205.974;-59.77
1206.173;-59.74
1206.372;-59.73
1206.571;-59.8
1206.77;-59.8
1206.969;-59.74
1207.168;-59.69
1207.367;-59.7
1207.566;-59.7
1207.766;-59.56
1207.965;-59.51
1208.164;-59.5
1208.363;-59.45
1208.562;-59.36
1208.761;-59.26
1208.96;-59.24
1209.159;-59.2
1209.358;-59.09
1209.558;-59.0
1209.757;-58.93
1209.956;-58.9
1210.155;-58.82
1210.354;-58.69
1210.553;-58.64
1210.752;-58.6
1210.951;-58.54
1211.15;-58.42
1211.35;-58.35
1211.549;-58.37
1211.748;-58.33
1211.947;-58.23
1212.146;-58.18
1212.345;-58.21
1212.544;-58.24
1212.743;-58.18
1212.943;-58.16
1213.142;-58.22
1213.341;-58.23
1213.54;-58.23
1213.739;-58.2
1213.938;-58.22
1214.137;-58.26
1214.336;-58.21
1214.535;-58.17
1214.735;-58.16
1214.934;-58.19
1215.133;-58.13
1215.332;-58.04
1215.531;-58.02
1215.73;-58.01
1215.929;-57.94
1216.128;-57.82
1216.327;-57.76
1216.527;-57.73
1216.726;-57.64
1216.925;-57.5
1217.124;-57.38
1217.323;-57.31
1217.522;-57.23
1217.721;-57.05
1217.92;-56.92
1218.12;-56.83
1218.319;-56.74
1218.518;-56.6
1218.717;-56.45
1218.916;-56.37
1219.115;-56.29
1219.314;-56.16
1219.513;-56.07
1219.712;-56.03
1219.912;-56.01
1220.111;-55.9
1220.31;-55.87
1220.509;-55.86
1220.708;-55.87
1220.907;-55.86
1221.106;-55.81
1221.305;-55.85
1221.504;-55.87
1221.704;-55.85
1221.903;-55.85
1222.102;-55.86
1222.301;-55.92
1222.5;-55.91
1222.699;-55.9
1222.898;-55.94
1223.097;-55.98
1223.297;-56.01
1223.496;-55.98
1223.695;-56.0
1223.894;-56.07
1224.093;-56.04
1224.292;-56.02
1224.491;-56.02
1224.69;-56.02
1224.889;-55.98
1225.089;-55.89
1225.288;-55.82
1225.487;-55.76
1225.686;-55.63
1225.885;-55.49
1226.084;-55.34
1226.283;-55.22
1226.482;-55.06
1226.681;-54.85
1226.881;-54.71
1227.08;-54.55
1227.279;-54.38
1227.478;-54.2
1227.677;-54.05
1227.876;-53.94
1228.075;-53.78
1228.274;-53.62
1228.474;-53.51
1228.673;-53.42
1228.872;-53.31
1229.071;-53.19
1229.27;-53.12
1229.469;-53.07
1229.668;-52.98
1229.867;-52.9
1230.066;-52.86
1230.266;-52.82
1230.465;-52.78
1230.664;-52.74
1230.863;-52.77
1231.062;-52.79
1231.261;-52.79
1231.46;-52.82
1231.659;-52.87
1231.858;-52.92
1232.058;-52.94
1232.257;-52.97
1232.456;-53.04
1232.655;-53.06
1232.854;-53.07
1233.053;-53.06
1233.252;-53.08
1233.451;-53.05
1233.65;-52.97
1233.85;-52.92
1234.049;-52.86
1234.248;-52.75
1234.447;-52.62
1234.646;-52.52
1234.845;-52.42
1235.044;-52.26
1235.243;-52.11
1235.443;-51.99
1235.642;-51.86
1235.841;-51.72
1236.04;-51.57
1236.239;-51.46
1236.438;-51.33
1236.637;-51.19
1236.836;-51.09
1237.035;-50.99
1237.235;-50.89
1237.434;-50.77
1237.633;-50.69
1237.832;-50.66
1238.031;-50.56
1238.23;-50.5
1238.429;-50.46
1238.628;-50.43
1238.827;-50.39
1239.027;-50.35
1239.226;-50.34
1239.425;-50.31
1239.624;-50.26
1239.823;-50.22
1240.022;-50.18
1240.221;-50.12
1240.42;-50.0
1240.62;-49.9
1240.819;-49.79
1241.018;-49.63
1241.217;-49.46
1241.416;-49.29
1241.615;-49.1
1241.814;-48.91
1242.013;-48.7
1242.212;-48.53
1242.412;-48.34
1242.611;-48.15
1242.81;-47.98
1243.009;-47.82
1243.208;-47.69
1243.407;-47.55
1243.606;-47.44
1243.805;-47.36
1244.004;-47.26
1244.204;-47.22
1244.403;-47.18
1244.602;-47.15
1244.801;-47.14
1245.0;-47.15
1245.199;-47.21
1245.398;-47.26
1245.597;-47.32
1245.797;-47.42
1245.996;-47.51
1246.195;-47.64
1246.394;-47.76
1246.593;-47.89
1246.792;-48.01
1246.991;-48.1
1247.19;-48.2
1247.389;-48.23
1247.589;-48.2
1247.788;-48.09
1247.987;-47.92
1248.186;-47.7
1248.385;-47.37
1248.584;-47.01
1248.783;-46.59
1248.982;-46.14
1249.181;-45.61
1249.381;-45.23
1249.58;-44.77
1249.779;-44.3
1249.978;-43.87
1250.177;-43.45
1250.376;-43.06
1250.575;-42.68
1250.774;-42.32
1250.974;-42.01
1251.173;-41.7
1251.372;-41.42
1251.571;-41.2
1251.77;-40.97
1251.969;-40.78
1252.168;-40.6
1252.367;-40.46
1252.566;-40.37
1252.766;-40.28
1252.965;-40.26
1253.164;-40.24
1253.363;-40.27
1253.562;-40.35
1253.761;-40.45
1253.96;-40.61
1254.159;-40.77
1254.358;-40.98
1254.558;-41.23
1254.757;-41.48
1254.956;-41.77
1255.155;-42.04
1255.354;-42.3
1255.553;-42.52
1255.752;-42.67
1255.951;-42.75
1256.15;-42.71
1256.35;-42.55
1256.549;-42.27
1256.748;-41.88
1256.947;-41.41
1257.146;-40.84
1257.345;-40.25
1257.544;-39.64
1257.743;-39.01
1257.943;-38.41
1258.142;-37.81
1258.341;-37.25
1258.54;-36.7
1258.739;-36.18
1258.938;-35.62
1259.137;-35.26
1259.336;-34.86
1259.535;-34.49
1259.735;-34.16
1259.934;-33.85
1260.133;-33.59
1260.332;-33.37
1260.531;-33.17
1260.73;-33.02
1260.929;-32.88
1261.128;-32.79
1261.327;-32.74
1261.527;-32.72
1261.726;-32.74
1261.925;-32.76
1262.124;-32.84
1262.323;-32.95
1262.522;-33.09
1262.721;-33.28
1262.92;-33.48
1263.12;-33.71
1263.319;-33.99
1263.518;-34.3
1263.717;-34.63
1263.916;-34.96
1264.115;-35.32
1264.314;-35.66
1264.513;-35.98
1264.712;-36.25
1264.912;-36.41
1265.111;-36.47
1265.31;-36.4
1265.509;-36.19
1265.708;-35.88
1265.907;-35.45
1266.106;-34.97
1266.305;-34.46
1266.504;-33.93
1266.704;-33.42
1266.903;-32.9
1267.102;-32.42
1267.301;-31.98
1267.5;-31.57
1267.699;-31.21
1267.898;-30.86
1268.097;-30.56
1268.297;-30.29
1268.496;-30.06
1268.695;-29.88
1268.894;-29.7
1269.093;-29.58
1269.292;-29.48
1269.491;-29.43
1269.69;-29.43
1269.889;-29.44
1270.089;-29.51
1270.288;-29.61
1270.487;-29.78
1270.686;-30.0
1270.885;-30.25
1271.084;-30.57
1271.283;-30.94
1271.482;-31.37
1271.681;-31.87
1271.881;-32.41
1272.08;-33.02
1272.279;-33.66
1272.478;-34.32
1272.677;-34.98
1272.876;-35.55
1273.075;-35.99
1273.274;-36.19
1273.474;-36.11
1273.673;-35.77
1273.872;-35.18
1274.071;-34.48
1274.27;-33.68
1274.469;-32.87
1274.668;-32.07
1274.867;-31.31
1275.066;-30.62
1275.266;-29.96
1275.465;-29.37
1275.664;-28.82
1275.863;-28.34
1276.062;-27.92
1276.261;-27.53
1276.46;-27.2
1276.659;-26.91
1276.858;-26.67
1277.058;-26.5
1277.257;-26.35
1277.456;-26.27
1277.655;-26.21
1277.854;-26.2
1278.053;-26.24
1278.252;-26.31
1278.451;-26.44
1278.65;-26.59
1278.85;-26.79
1279.049;-27.03
1279.248;-27.31
1279.447;-27.62
1279.646;-27.94
1279.845;-28.29
1280.044;-28.63
1280.243;-28.95
1280.443;-29.23
1280.642;-29.39
1280.841;-29.46
1281.04;-29.35
1281.239;-29.09
1281.438;-28.7
1281.637;-28.17
1281.836;-27.58
1282.035;-26.91
1282.235;-26.23
1282.434;-25.46
1282.633;-24.91
1282.832;-24.3
1283.031;-23.69
1283.23;-23.14
1283.429;-22.61
1283.628;-22.12
1283.827;-21.69
1284.027;-21.28
1284.226;-20.91
1284.425;-20.57
1284.624;-20.27
1284.823;-20.03
1285.022;-19.79
1285.221;-19.61
1285.42;-19.45
1285.62;-19.33
1285.819;-19.27
1286.018;-19.21
1286.217;-19.22
1286.416;-19.24
1286.615;-19.32
1286.814;-19.45
1287.013;-19.61
1287.212;-19.84
1287.412;-20.09
1287.611;-20.41
1287.81;-20.8
1288.009;-21.24
1288.208;-21.76
1288.407;-22.35
1288.606;-23.04
1288.805;-23.85
1289.004;-24.76
1289.204;-25.84
1289.403;-27.05
1289.602;-28.78
1289.801;-30.06
1290.0;-31.63
1290.199;-32.81
1290.398;-32.94
1290.597;-31.9
1290.797;-30.22
1290.996;-28.5
1291.195;-26.91
1291.394;-25.32
1291.593;-24.29
1291.792;-23.22
1291.991;-22.31
1292.19;-21.47
1292.389;-20.76
1292.589;-20.1
1292.788;-19.54
1292.987;-19.05
1293.186;-18.61
1293.385;-18.26
1293.584;-17.91
1293.783;-17.65
1293.982;-17.43
1294.181;-17.25
1294.381;-17.14
1294.58;-17.03
1294.779;-16.99
1294.978;-16.99
1295.177;-17.03
1295.376;-17.13
1295.575;-17.24
1295.774;-17.42
1295.974;-17.63
1296.173;-17.91
1296.372;-18.24
1296.571;-18.61
1296.77;-19.07
1296.969;-19.58
1297.168;-20.17
1297.367;-20.85
1297.566;-21.59
1297.766;-22.48
1297.965;-23.46
1298.164;-24.59
1298.363;-25.84
1298.562;-27.18
1298.761;-28.82
1298.96;-29.63
1299.159;-30.0
1299.358;-29.47
1299.558;-28.29
1299.757;-26.9
1299.956;-25.29
1300.155;-24.23
1300.354;-23.09
1300.553;-22.07
1300.752;-21.16
1300.951;-20.37
1301.15;-19.67
1301.35;-19.05
1301.549;-18.52
1301.748;-18.03
1301.947;-17.61
1302.146;-17.25
1302.345;-16.93
1302.544;-16.69
1302.743;-16.47
1302.943;-16.31
1303.142;-16.19
1303.341;-16.1
1303.54;-16.07
1303.739;-16.07
1303.938;-16.13
1304.137;-16.22
1304.336;-16.36
1304.535;-16.54
1304.735;-16.76
1304.934;-17.04
1305.133;-17.35
1305.332;-17.75
1305.531;-18.17
1305.73;-18.79
1305.929;-19.24
1306.128;-19.89
1306.327;-20.6
1306.527;-21.42
1306.726;-22.34
1306.925;-23.34
1307.124;-24.46
1307.323;-25.63
1307.522;-26.78
1307.721;-27.74
1307.92;-28.33
1308.12;-28.15
1308.319;-27.44
1308.518;-26.42
1308.717;-25.06
1308.916;-24.15
1309.115;-23.12
1309.314;-22.18
1309.513;-21.35
1309.712;-20.61
1309.912;-19.97
1310.111;-19.38
1310.31;-18.88
1310.509;-18.45
1310.708;-18.05
1310.907;-17.74
1311.106;-17.47
1311.305;-17.25
1311.504;-17.09
1311.704;-16.96
1311.903;-16.89
1312.102;-16.85
1312.301;-16.88
1312.5;-16.94
1312.699;-17.05
1312.898;-17.21
1313.097;-17.4
1313.297;-17.66
1313.496;-17.96
1313.695;-18.31
1313.894;-18.72
1314.093;-19.19
1314.292;-19.75
1314.491;-20.36
1314.69;-21.06
1314.889;-21.84
1315.089;-22.75
1315.288;-23.79
1315.487;-24.97
1315.686;-26.34
1315.885;-27.9
1316.084;-30.06
1316.283;-31.49
1316.482;-32.91
1316.681;-33.2
1316.881;-32.18
1317.08;-30.56
1317.279;-28.87
1317.478;-27.37
1317.677;-25.85
1317.876;-24.94
1318.075;-23.97
1318.274;-23.14
1318.474;-22.43
1318.673;-21.82
1318.872;-21.3
1319.071;-20.84
1319.27;-20.46
1319.469;-20.14
1319.668;-19.87
1319.867;-19.67
1320.066;-19.51
1320.266;-19.4
1320.465;-19.33
1320.664;-19.31
1320.863;-19.34
1321.062;-19.39
1321.261;-19.52
1321.46;-19.66
1321.659;-19.85
1321.858;-20.09
1322.058;-20.36
1322.257;-20.7
1322.456;-21.06
1322.655;-21.49
1322.854;-21.96
1323.053;-22.49
1323.252;-23.1
1323.451;-23.75
1323.65;-24.49
1323.85;-25.28
1324.049;-26.17
1324.248;-27.16
1324.447;-28.21
1324.646;-29.63
1324.845;-30.61
1325.044;-31.82
1325.243;-32.89
1325.443;-33.63
1325.642;-33.84
1325.841;-33.49
1326.04;-32.77
1326.239;-31.86
1326.438;-30.94
1326.637;-30.05
1326.836;-29.26
1327.035;-28.56
1327.235;-27.94
1327.434;-27.42
1327.633;-26.95
1327.832;-26.58
1328.031;-26.22
1328.23;-26.01
1328.429;-25.83
1328.628;-25.68
1328.827;-25.6
1329.027;-25.56
1329.226;-25.56
1329.425;-25.61
1329.624;-25.68
1329.823;-25.82
1330.022;-25.97
1330.221;-26.18
1330.42;-26.42
1330.62;-26.7
1330.819;-27.04
1331.018;-27.38
1331.217;-27.79
1331.416;-28.22
1331.615;-28.79
1331.814;-29.2
1332.013;-29.73
1332.212;-30.29
1332.412;-30.85
1332.611;-31.44
1332.81;-31.99
1333.009;-32.52
1333.208;-32.99
1333.407;-33.38
1333.606;-33.69
1333.805;-33.87
1334.004;-33.95
1334.204;-33.92
1334.403;-33.8
1334.602;-33.63
1334.801;-33.41
1335.0;-33.18
1335.199;-32.93
1335.398;-32.7
1335.597;-32.5
1335.797;-32.31
1335.996;-32.18
1336.195;-32.05
1336.394;-31.97
1336.593;-31.92
1336.792;-31.9
1336.991;-31.94
1337.19;-32.0
1337.389;-32.12
1337.589;-32.26
1337.788;-32.46
1337.987;-32.7
1338.186;-32.97
1338.385;-33.31
1338.584;-33.67
1338.783;-34.1
1338.982;-34.57
1339.181;-35.11
1339.381;-35.72
1339.58;-36.38
1339.779;-37.14
1339.978;-37.97
1340.177;-39.12
1340.376;-39.98
1340.575;-41.17
1340.774;-42.52
1340.974;-44.03
1341.173;-45.74
1341.372;-47.54
1341.571;-49.61
1341.77;-50.24
1341.969;-49.96
1342.168;-48.72
1342.367;-47.18
1342.566;-45.48
1342.766;-44.43
1342.965;-43.35
1343.164;-42.4
1343.363;-41.62
1343.562;-40.93
1343.761;-40.36
1343.96;-39.89
1344.159;-39.49
1344.358;-39.18
1344.558;-38.91
1344.757;-38.71
1344.956;-38.55
1345.155;-38.44
1345.354;-38.4
1345.553;-38.38
1345.752;-38.43
1345.951;-38.5
1346.15;-38.62
1346.35;-38.8
1346.549;-39.01
1346.748;-39.26
1346.947;-39.53
1347.146;-39.87
1347.345;-40.22
1347.544;-40.67
1347.743;-41.19
1347.943;-41.72
1348.142;-42.3
1348.341;-42.93
1348.54;-43.58
1348.739;-44.32
1348.938;-45.12
1349.137;-46.03
1349.336;-46.99
1349.535;-48.08
1349.735;-49.57
1349.934;-50.65
1350.133;-52.11
1350.332;-53.68
1350.531;-55.21
1350.73;-56.34
1350.929;-56.67
1351.128;-56.13
1351.327;-55.09
1351.527;-53.94
1351.726;-52.87
1351.925;-51.84
1352.124;-50.93
1352.323;-50.18
1352.522;-49.58
1352.721;-48.99
1352.92;-48.51
1353.12;-48.22
1353.319;-47.85
1353.518;-47.61
1353.717;-47.43
1353.916;-47.25
1354.115;-47.15
1354.314;-47.19
1354.513;-47.24
1354.712;-47.45
1354.912;-47.69
1355.111;-47.87
1355.31;-48.06
1355.509;-48.15
1355.708;-48.53
1355.907;-48.98
1356.106;-49.4
1356.305;-49.81
1356.504;-50.3
1356.704;-50.6
1356.903;-51.2
1357.102;-52.06
1357.301;-52.95
1357.5;-53.9
1357.699;-54.94
1357.898;-55.93
1358.097;-57.01
1358.297;-58.35
1358.496;-60.16
1358.695;-61.18
1358.894;-62.32
1359.093;-62.89
1359.292;-62.52
1359.491;-62.01
1359.69;-61.04
1359.889;-59.8
1360.089;-58.55
1360.288;-57.49
1360.487;-56.55
1360.686;-55.7
1360.885;-55.42
1361.084;-55.01
1361.283;-54.54
1361.482;-54.11
1361.681;-53.92
1361.881;-53.65
1362.08;-53.51
1362.279;-53.64
1362.478;-53.66
1362.677;-53.59
1362.876;-53.33
1363.075;-53.2
1363.274;-52.93
1363.474;-53.0
1363.673;-53.15
1363.872;-53.38
1364.071;-53.73
1364.27;-54.1
1364.469;-54.61
1364.668;-55.4
1364.867;-56.02
1365.066;-56.45
1365.266;-57.11
1365.465;-57.49
1365.664;-58.16
1365.863;-59.11
1366.062;-59.76
1366.261;-60.53
1366.46;-61.5
1366.659;-62.62
1366.858;-63.89
1367.058;-64.97
1367.257;-65.88
1367.456;-66.62
1367.655;-66.73
1367.854;-66.45
1368.053;-65.66
1368.252;-64.61
1368.451;-64.04
1368.65;-63.19
1368.85;-62.33
1369.049;-61.44
1369.248;-60.74
1369.447;-60.04
1369.646;-59.58
1369.845;-59.43
1370.044;-59.17
1370.243;-58.9
1370.443;-58.58
1370.642;-58.33
1370.841;-58.41
1371.04;-58.5
1371.239;-58.51
1371.438;-58.41
1371.637;-58.34
1371.836;-58.27
1372.035;-58.48
1372.235;-58.74
1372.434;-58.94
1372.633;-59.19
1372.832;-59.4
1373.031;-59.67
1373.23;-60.06
1373.429;-60.52
1373.628;-60.99
1373.827;-61.51
1374.027;-62.09
1374.226;-62.67
1374.425;-63.41
1374.624;-64.16
1374.823;-65.09
1375.022;-66.02
1375.221;-66.99
1375.42;-67.75
1375.62;-68.7
1375.819;-69.73
1376.018;-70.4
1376.217;-70.65
1376.416;-70.71
1376.615;-70.65
1376.814;-70.2
1377.013;-69.61
1377.212;-68.97
1377.412;-68.39
1377.611;-67.59
1377.81;-66.92
1378.009;-66.29
1378.208;-65.83
1378.407;-65.53
1378.606;-65.37
1378.805;-65.25
1379.004;-65.04
1379.204;-64.79
1379.403;-64.55
1379.602;-64.31
1379.801;-64.24
1380.0;-64.25
1380.199;-64.4
1380.398;-64.53
1380.597;-65.09
1380.797;-65.63
1380.996;-65.97
1381.195;-66.09
1381.394;-66.07
1381.593;-66.02
1381.792;-66.33
1381.991;-66.79
1382.19;-67.19
1382.389;-67.95
1382.589;-68.84
1382.788;-69.88
1382.987;-70.75
1383.186;-71.53
1383.385;-72.04
1383.584;-72.54
1383.783;-73.37
1383.982;-74.24
1384.181;-75.12
1384.381;-75.99
1384.58;-75.95
1384.779;-76.18
1384.978;-75.97
1385.177;-75.39
1385.376;-74.48
1385.575;-74.12
1385.774;-73.23
1385.974;-72.68
1386.173;-71.99
1386.372;-71.47
1386.571;-70.78
1386.77;-70.31
1386.969;-70.06
1387.168;-69.58
1387.367;-69.37
1387.566;-69.19
1387.766;-69.24
1387.965;-69.09
1388.164;-69.21
1388.363;-69.26
1388.562;-69.19
1388.761;-68.96
1388.96;-68.77
1389.159;-68.82
1389.358;-68.84
1389.558;-69.01
1389.757;-69.12
1389.956;-69.43
1390.155;-69.71
1390.354;-70.01
1390.553;-70.36
1390.752;-70.69
1390.951;-70.83
1391.15;-71.39
1391.35;-71.96
1391.549;-72.37
1391.748;-72.74
1391.947;-73.63
1392.146;-74.26
1392.345;-74.85
1392.544;-75.84
1392.743;-75.9
1392.943;-76.88
1393.142;-77.47
1393.341;-76.95
1393.54;-77.15
1393.739;-77.39
1393.938;-77.03
1394.137;-76.82
1394.336;-76.22
1394.535;-76.49
1394.735;-75.83
1394.934;-75.46
1395.133;-75.74
1395.332;-75.25
1395.531;-75.49
1395.73;-75.23
1395.929;-74.98
1396.128;-74.59
1396.327;-74.35
1396.527;-74.85
1396.726;-74.77
1396.925;-74.54
1397.124;-74.2
1397.323;-74.71
1397.522;-74.12
1397.721;-74.19
1397.92;-74.46
1398.12;-74.06
1398.319;-74.16
1398.518;-74.6
1398.717;-74.49
1398.916;-74.45
1399.115;-74.65
1399.314;-74.66
1399.513;-74.74
1399.712;-75.32
1399.912;-74.84
1400.111;-75.65
1400.31;-75.78
1400.509;-75.47
1400.708;-75.58
1400.907;-75.84
1401.106;-76.09
1401.305;-75.41
1401.504;-75.68
1401.704;-75.09
1401.903;-75.08
1402.102;-75.32
1402.301;-75.11
1402.5;-74.94
1402.699;-74.61
1402.898;-75.08
1403.097;-74.82
1403.297;-74.83
1403.496;-74.56
1403.695;-74.34
1403.894;-75.26
1404.093;-74.74
1404.292;-75.15
1404.491;-75.47
1404.69;-74.99
1404.889;-75.67
1405.089;-76.4
1405.288;-76.06
1405.487;-75.87
1405.686;-76.11
1405.885;-75.74
1406.084;-75.79
1406.283;-76.5
1406.482;-76.67
1406.681;-76.51
1406.881;-76.99
1407.08;-77.17
1407.279;-77.43
1407.478;-78.13
1407.677;-78.89
1407.876;-79.01
1408.075;-80.42
1408.274;-78.83
1408.474;-78.77
1408.673;-78.11
1408.872;-79.52
1409.071;-79.48
1409.27;-79.87
1409.469;-79.52
1409.668;-80.63
1409.867;-80.86
1410.066;-80.42
1410.266;-80.77
1410.465;-79.52
1410.664;-79.16
1410.863;-79.13
1411.062;-79.48
1411.261;-78.23
1411.46;-77.71
1411.659;-77.62
1411.858;-79.66
1412.058;-79.87
1412.257;-78.71
1412.456;-77.76
1412.655;-78.26
1412.854;-79.07
1413.053;-78.71
1413.252;-77.92
1413.451;-79.01
1413.65;-78.53
1413.85;-78.9
1414.049;-78.32
1414.248;-79.08
1414.447;-78.29
1414.646;-78.56
1414.845;-79.7
1415.044;-79.46
1415.243;-78.84
1415.443;-79.26
1415.642;-78.56
1415.841;-78.27
1416.04;-79.81
1416.239;-79.3
1416.438;-79.02
1416.637;-79.6
1416.836;-79.02
1417.035;-80.6
1417.235;-79.67
1417.434;-78.64
1417.633;-79.53
1417.832;-80.6
1418.031;-79.81
1418.23;-78.84
1418.429;-79.88
1418.628;-78.61
1418.827;-79.53
1419.027;-79.02
1419.226;-80.31
1419.425;-78.72
1419.624;-79.77
1419.823;-79.39
1420.022;-79.39
1420.221;-79.95
1420.42;-79.36
1420.62;-78.81
1420.819;-79.46
1421.018;-79.26
1421.217;-79.49
1421.416;-78.4
1421.615;-79.27
1421.814;-78.68
1422.013;-79.54
1422.212;-78.82
1422.412;-79.03
1422.611;-77.82
1422.81;-77.91
1423.009;-77.78
1423.208;-78.91
1423.407;-79.96
1423.606;-79.03
1423.805;-78.88
1424.004;-79.44
1424.204;-78.73
1424.403;-79.54
1424.602;-78.65
1424.801;-79.03
1425.0;-80.4
