Wavelength (nm);Intensity (dBm)
1131.0;1131.0
1200.0;-60.51
1200.199;-60.42
1200.398;-60.38
1200.597;-60.37
1200.797;-60.36
1200.996;-60.3
1201.195;-60.24
1201.394;-60.26
1201.593;-60.25
1201.792;-60.22
1201.991;-60.15
1202.19;-60.16
1202.389;-60.16
1202.589;-60.14
1202.788;-60.07
1202.987;-60.05
1203.186;-60.05
1203.385;-60.04
1203.584;-60.0
1203.783;-59.95
1203.982;-59.98
1204.181;-59.97
1204.381;-59.95
1204.58;-59.91
1204.779;-59.94
1204.978;-59.98
1205.177;-59.94
1205.376;-59.94
1205.575;-59.97
1205.774;-60.01
1205.974;-60.02
1206.173;-59.96
1206.372;-59.95
1206.571;-59.99
1206.77;-59.97
1206.969;-59.88
1207.168;-59.82
1207.367;-59.83
1207.566;-59.81
1207.766;-59.67
1207.965;-59.61
1208.164;-59.59
1208.363;-59.56
1208.562;-59.44
1208.761;-59.35
1208.96;-59.31
1209.159;-59.28
1209.358;-59.19
1209.558;-59.1
1209.757;-59.04
1209.956;-59.05
1210.155;-58.96
1210.354;-58.86
1210.553;-58.79
1210.752;-58.79
1210.951;-58.77
1211.15;-58.67
1211.35;-58.6
1211.549;-58.61
1211.748;-58.61
1211.947;-58.55
1212.146;-58.5
1212.345;-58.54
1212.544;-58.56
1212.743;-58.5
1212.943;-58.5
1213.142;-58.54
1213.341;-58.57
1213.54;-58.56
1213.739;-58.51
1213.938;-58.53
1214.137;-58.57
1214.336;-58.52
1214.535;-58.45
1214.735;-58.43
1214.934;-58.45
1215.133;-58.38
1215.332;-58.27
1215.531;-58.22
1215.73;-58.2
1215.929;-58.1
1216.128;-57.98
1216.327;-57.89
1216.527;-57.85
1216.726;-57.76
1216.925;-57.6
1217.124;-57.46
1217.323;-57.41
1217.522;-57.32
1217.721;-57.18
1217.92;-57.03
1218.12;-56.96
1218.319;-56.89
1218.518;-56.76
1218.717;-56.63
1218.916;-56.57
1219.115;-56.53
1219.314;-56.45
1219.513;-56.36
1219.712;-56.35
1219.912;-56.34
1220.111;-56.3
1220.31;-56.27
1220.509;-56.28
1220.708;-56.33
1220.907;-56.34
1221.106;-56.31
1221.305;-56.37
1221.504;-56.42
1221.704;-56.44
1221.903;-56.44
1222.102;-56.48
1222.301;-56.55
1222.5;-56.55
1222.699;-56.55
1222.898;-56.58
1223.097;-56.61
1223.297;-56.63
1223.496;-56.58
1223.695;-56.58
1223.894;-56.61
1224.093;-56.57
1224.292;-56.53
1224.491;-56.47
1224.69;-56.44
1224.889;-56.36
1225.089;-56.23
1225.288;-56.12
1225.487;-56.01
1225.686;-55.88
1225.885;-55.66
1226.084;-55.53
1226.283;-55.4
1226.482;-55.22
1226.681;-55.04
1226.881;-54.87
1227.08;-54.73
1227.279;-54.59
1227.478;-54.41
1227.677;-54.29
1227.876;-54.18
1228.075;-54.05
1228.274;-53.93
1228.474;-53.83
1228.673;-53.79
1228.872;-53.7
1229.071;-53.61
1229.27;-53.58
1229.469;-53.55
1229.668;-53.51
1229.867;-53.45
1230.066;-53.45
1230.266;-53.46
1230.465;-53.44
1230.664;-53.44
1230.863;-53.48
1231.062;-53.52
1231.261;-53.55
1231.46;-53.58
1231.659;-53.65
1231.858;-53.7
1232.058;-53.72
1232.257;-53.75
1232.456;-53.8
1232.655;-53.83
1232.854;-53.79
1233.053;-53.77
1233.252;-53.76
1233.451;-53.68
1233.65;-53.59
1233.85;-53.48
1234.049;-53.39
1234.248;-53.25
1234.447;-53.07
1234.646;-52.95
1234.845;-52.79
1235.044;-52.61
1235.243;-52.44
1235.443;-52.29
1235.642;-52.16
1235.841;-51.97
1236.04;-51.81
1236.239;-51.69
1236.438;-51.55
1236.637;-51.42
1236.836;-51.28
1237.035;-51.2
1237.235;-51.1
1237.434;-50.98
1237.633;-50.91
1237.832;-50.85
1238.031;-50.79
1238.23;-50.73
1238.429;-50.69
1238.628;-50.69
1238.827;-50.64
1239.027;-50.61
1239.226;-50.6
1239.425;-50.58
1239.624;-50.56
1239.823;-50.5
1240.022;-50.47
1240.221;-50.41
1240.42;-50.31
1240.62;-50.23
1240.819;-50.12
1241.018;-49.96
1241.217;-49.79
1241.416;-49.63
1241.615;-49.46
1241.814;-49.25
1242.013;-49.06
1242.212;-48.88
1242.412;-48.7
1242.611;-48.51
1242.81;-48.33
1243.009;-48.18
1243.208;-48.03
1243.407;-47.89
1243.606;-47.79
1243.805;-47.69
1244.004;-47.6
1244.204;-47.53
1244.403;-47.5
1244.602;-47.48
1244.801;-47.46
1245.0;-47.48
1245.199;-47.52
1245.398;-47.57
1245.597;-47.64
1245.797;-47.72
1245.996;-47.81
1246.195;-47.91
1246.394;-48.01
1246.593;-48.11
1246.792;-48.19
1246.991;-48.24
1247.19;-48.26
1247.389;-48.23
1247.589;-48.14
1247.788;-47.97
1247.987;-47.75
1248.186;-47.44
1248.385;-47.08
1248.584;-46.68
1248.783;-46.24
1248.982;-45.71
1249.181;-45.3
1249.381;-44.84
1249.58;-44.35
1249.779;-43.89
1249.978;-43.44
1250.177;-43.01
1250.376;-42.61
1250.575;-42.21
1250.774;-41.84
1250.974;-41.52
1251.173;-41.19
1251.372;-40.91
1251.571;-40.65
1251.77;-40.41
1251.969;-40.2
1252.168;-40.0
1252.367;-39.85
1252.566;-39.71
1252.766;-39.6
1252.965;-39.54
1253.164;-39.48
1253.363;-39.47
1253.562;-39.47
1253.761;-39.49
1253.96;-39.55
1254.159;-39.61
1254.358;-39.71
1254.558;-39.81
1254.757;-39.92
1254.956;-40.03
1255.155;-40.13
1255.354;-40.21
1255.553;-40.25
1255.752;-40.25
1255.951;-40.2
1256.15;-40.1
1256.35;-39.94
1256.549;-39.7
1256.748;-39.4
1256.947;-39.04
1257.146;-38.64
1257.345;-38.22
1257.544;-37.78
1257.743;-37.33
1257.943;-36.86
1258.142;-36.4
1258.341;-35.96
1258.54;-35.46
1258.739;-35.12
1258.938;-34.73
1259.137;-34.38
1259.336;-34.02
1259.535;-33.72
1259.735;-33.45
1259.934;-33.19
1260.133;-32.98
1260.332;-32.78
1260.531;-32.63
1260.73;-32.51
1260.929;-32.41
1261.128;-32.36
1261.327;-32.33
1261.527;-32.34
1261.726;-32.4
1261.925;-32.48
1262.124;-32.62
1262.323;-32.78
1262.522;-33.0
1262.721;-33.27
1262.92;-33.59
1263.12;-33.97
1263.319;-34.39
1263.518;-34.89
1263.717;-35.46
1263.916;-36.1
1264.115;-36.83
1264.314;-37.61
1264.513;-38.65
1264.712;-39.3
1264.912;-40.04
1265.111;-40.59
1265.31;-40.75
1265.509;-40.44
1265.708;-39.72
1265.907;-38.75
1266.106;-37.7
1266.305;-36.63
1266.504;-35.45
1266.704;-34.66
1266.903;-33.82
1267.102;-33.02
1267.301;-32.31
1267.5;-31.68
1267.699;-31.09
1267.898;-30.58
1268.097;-30.11
1268.297;-29.69
1268.496;-29.32
1268.695;-28.98
1268.894;-28.7
1269.093;-28.43
1269.292;-28.22
1269.491;-28.05
1269.69;-27.91
1269.889;-27.82
1270.089;-27.75
1270.288;-27.73
1270.487;-27.76
1270.686;-27.81
1270.885;-27.92
1271.084;-28.04
1271.283;-28.21
1271.482;-28.42
1271.681;-28.67
1271.881;-28.97
1272.08;-29.28
1272.279;-29.64
1272.478;-30.0
1272.677;-30.37
1272.876;-30.75
1273.075;-31.1
1273.274;-31.4
1273.474;-31.62
1273.673;-31.74
1273.872;-31.76
1274.071;-31.63
1274.27;-31.4
1274.469;-31.04
1274.668;-30.6
1274.867;-30.11
1275.066;-29.59
1275.266;-29.07
1275.465;-28.54
1275.664;-28.03
1275.863;-27.54
1276.062;-27.09
1276.261;-26.68
1276.46;-26.29
1276.659;-25.9
1276.858;-25.64
1277.058;-25.39
1277.257;-25.15
1277.456;-24.96
1277.655;-24.81
1277.854;-24.69
1278.053;-24.61
1278.252;-24.55
1278.451;-24.54
1278.65;-24.56
1278.85;-24.61
1279.049;-24.71
1279.248;-24.82
1279.447;-24.96
1279.646;-25.16
1279.845;-25.36
1280.044;-25.61
1280.243;-25.84
1280.443;-26.11
1280.642;-26.37
1280.841;-26.61
1281.04;-26.83
1281.239;-26.98
1281.438;-27.06
1281.637;-27.05
1281.836;-26.92
1282.035;-26.71
1282.235;-26.36
1282.434;-25.95
1282.633;-25.47
1282.832;-24.93
1283.031;-24.41
1283.23;-23.85
1283.429;-23.32
1283.628;-22.79
1283.827;-22.28
1284.027;-21.82
1284.226;-21.37
1284.425;-20.96
1284.624;-20.57
1284.823;-20.21
1285.022;-19.91
1285.221;-19.61
1285.42;-19.37
1285.62;-19.15
1285.819;-18.97
1286.018;-18.83
1286.217;-18.71
1286.416;-18.65
1286.615;-18.61
1286.814;-18.61
1287.013;-18.64
1287.212;-18.71
1287.412;-18.84
1287.611;-18.99
1287.81;-19.2
1288.009;-19.45
1288.208;-19.75
1288.407;-20.12
1288.606;-20.52
1288.805;-21.0
1289.004;-21.54
1289.204;-22.15
1289.403;-22.85
1289.602;-23.61
1289.801;-24.48
1290.0;-25.39
1290.199;-26.36
1290.398;-27.32
1290.597;-28.13
1290.797;-28.71
1290.996;-28.62
1291.195;-28.12
1291.394;-27.24
1291.593;-26.17
1291.792;-24.91
1291.991;-24.03
1292.19;-23.06
1292.389;-22.16
1292.589;-21.36
1292.788;-20.62
1292.987;-19.98
1293.186;-19.39
1293.385;-18.87
1293.584;-18.41
1293.783;-18.0
1293.982;-17.66
1294.181;-17.35
1294.381;-17.1
1294.58;-16.88
1294.779;-16.71
1294.978;-16.6
1295.177;-16.5
1295.376;-16.46
1295.575;-16.45
1295.774;-16.48
1295.974;-16.56
1296.173;-16.67
1296.372;-16.85
1296.571;-17.05
1296.77;-17.3
1296.969;-17.62
1297.168;-17.98
1297.367;-18.42
1297.566;-18.89
1297.766;-19.45
1297.965;-20.1
1298.164;-20.84
1298.363;-21.7
1298.562;-22.65
1298.761;-23.78
1298.96;-25.09
1299.159;-26.56
1299.358;-28.66
1299.558;-30.06
1299.757;-31.43
1299.956;-31.65
1300.155;-30.55
1300.354;-28.82
1300.553;-27.03
1300.752;-25.2
1300.951;-24.03
1301.15;-22.86
1301.35;-21.8
1301.549;-20.89
1301.748;-20.09
1301.947;-19.38
1302.146;-18.78
1302.345;-18.22
1302.544;-17.76
1302.743;-17.35
1302.943;-16.98
1303.142;-16.7
1303.341;-16.43
1303.54;-16.24
1303.739;-16.05
1303.938;-15.96
1304.137;-15.9
1304.336;-15.86
1304.535;-15.89
1304.735;-15.92
1304.934;-16.01
1305.133;-16.15
1305.332;-16.31
1305.531;-16.55
1305.73;-16.8
1305.929;-17.11
1306.128;-17.47
1306.327;-17.87
1306.527;-18.45
1306.726;-18.89
1306.925;-19.49
1307.124;-20.14
1307.323;-20.88
1307.522;-21.68
1307.721;-22.54
1307.92;-23.47
1308.12;-24.41
1308.319;-25.3
1308.518;-26.0
1308.717;-26.41
1308.916;-26.43
1309.115;-26.06
1309.314;-25.4
1309.513;-24.58
1309.712;-23.71
1309.912;-22.85
1310.111;-22.04
1310.31;-21.32
1310.509;-20.64
1310.708;-20.03
1310.907;-19.49
1311.106;-19.02
1311.305;-18.62
1311.504;-18.26
1311.704;-17.97
1311.903;-17.71
1312.102;-17.51
1312.301;-17.37
1312.5;-17.27
1312.699;-17.22
1312.898;-17.2
1313.097;-17.23
1313.297;-17.3
1313.496;-17.42
1313.695;-17.6
1313.894;-17.79
1314.093;-18.06
1314.292;-18.35
1314.491;-18.71
1314.69;-19.12
1314.889;-19.57
1315.089;-20.11
1315.288;-20.69
1315.487;-21.36
1315.686;-22.09
1315.885;-22.9
1316.084;-23.8
1316.283;-24.76
1316.482;-25.8
1316.681;-26.84
1316.881;-27.81
1317.08;-28.72
1317.279;-28.98
1317.478;-28.9
1317.677;-28.35
1317.876;-27.56
1318.075;-26.62
1318.274;-25.55
1318.474;-24.81
1318.673;-24.02
1318.872;-23.29
1319.071;-22.64
1319.27;-22.07
1319.469;-21.55
1319.668;-21.12
1319.867;-20.74
1320.066;-20.41
1320.266;-20.15
1320.465;-19.92
1320.664;-19.77
1320.863;-19.62
1321.062;-19.54
1321.261;-19.5
1321.46;-19.49
1321.659;-19.54
1321.858;-19.61
1322.058;-19.73
1322.257;-19.88
1322.456;-20.07
1322.655;-20.31
1322.854;-20.57
1323.053;-20.9
1323.252;-21.25
1323.451;-21.64
1323.65;-22.09
1323.85;-22.57
1324.049;-23.11
1324.248;-23.67
1324.447;-24.29
1324.646;-24.95
1324.845;-25.65
1325.044;-26.39
1325.243;-27.13
1325.443;-27.87
1325.642;-28.73
1325.841;-29.22
1326.04;-29.68
1326.239;-29.97
1326.438;-30.07
1326.637;-29.95
1326.836;-29.69
1327.035;-29.31
1327.235;-28.87
1327.434;-28.42
1327.633;-27.96
1327.832;-27.54
1328.031;-27.14
1328.23;-26.8
1328.429;-26.48
1328.628;-26.19
1328.827;-26.01
1329.027;-25.84
1329.226;-25.71
1329.425;-25.61
1329.624;-25.57
1329.823;-25.54
1330.022;-25.57
1330.221;-25.63
1330.42;-25.73
1330.62;-25.87
1330.819;-26.02
1331.018;-26.23
1331.217;-26.47
1331.416;-26.73
1331.615;-27.05
1331.814;-27.36
1332.013;-27.73
1332.212;-28.11
1332.412;-28.61
1332.611;-28.98
1332.81;-29.41
1333.009;-29.89
1333.208;-30.33
1333.407;-30.79
1333.606;-31.22
1333.805;-31.62
1334.004;-31.98
1334.204;-32.26
1334.403;-32.49
1334.602;-32.64
1334.801;-32.72
1335.0;-32.74
1335.199;-32.69
1335.398;-32.62
1335.597;-32.49
1335.797;-32.36
1335.996;-32.23
1336.195;-32.09
1336.394;-31.97
1336.593;-31.85
1336.792;-31.76
1336.991;-31.68
1337.19;-31.65
1337.389;-31.64
1337.589;-31.66
1337.788;-31.73
1337.987;-31.81
1338.186;-31.94
1338.385;-32.09
1338.584;-32.28
1338.783;-32.52
1338.982;-32.79
1339.181;-33.11
1339.381;-33.46
1339.58;-33.86
1339.779;-34.31
1339.978;-34.81
1340.177;-35.39
1340.376;-36.0
1340.575;-36.7
1340.774;-37.44
1340.974;-38.28
1341.173;-39.42
1341.372;-40.27
1341.571;-41.44
1341.77;-42.75
1341.969;-44.26
1342.168;-45.92
1342.367;-47.73
1342.566;-49.87
1342.766;-50.7
1342.965;-50.69
1343.164;-49.63
1343.363;-48.18
1343.562;-46.71
1343.761;-45.22
1343.96;-44.31
1344.159;-43.38
1344.358;-42.57
1344.558;-41.9
1344.757;-41.33
1344.956;-40.83
1345.155;-40.44
1345.354;-40.09
1345.553;-39.83
1345.752;-39.62
1345.951;-39.47
1346.15;-39.39
1346.35;-39.33
1346.549;-39.35
1346.748;-39.38
1346.947;-39.46
1347.146;-39.59
1347.345;-39.73
1347.544;-39.99
1347.743;-40.27
1347.943;-40.59
1348.142;-40.93
1348.341;-41.31
1348.54;-41.71
1348.739;-42.15
1348.938;-42.65
1349.137;-43.21
1349.336;-43.8
1349.535;-44.5
1349.735;-45.22
1349.934;-46.06
1350.133;-46.99
1350.332;-48.05
1350.531;-49.5
1350.73;-50.57
1350.929;-52.01
1351.128;-53.57
1351.327;-55.25
1351.527;-56.88
1351.726;-58.16
1351.925;-58.46
1352.124;-57.69
1352.323;-56.44
1352.522;-54.92
1352.721;-53.85
1352.92;-52.74
1353.12;-51.93
1353.319;-51.07
1353.518;-50.4
1353.717;-49.83
1353.916;-49.3
1354.115;-48.89
1354.314;-48.63
1354.513;-48.42
1354.712;-48.38
1354.912;-48.37
1355.111;-48.29
1355.31;-48.21
1355.509;-48.07
1355.708;-48.22
1355.907;-48.46
1356.106;-48.6
1356.305;-48.74
1356.504;-48.94
1356.704;-48.97
1356.903;-49.29
1357.102;-49.86
1357.301;-50.39
1357.5;-50.93
1357.699;-51.51
1357.898;-52.05
1358.097;-52.62
1358.297;-53.4
1358.496;-54.31
1358.695;-55.25
1358.894;-56.33
1359.093;-57.58
1359.292;-59.0
1359.491;-60.28
1359.69;-61.9
1359.889;-63.4
1360.089;-64.31
1360.288;-64.34
1360.487;-63.51
1360.686;-62.42
1360.885;-61.45
1361.084;-60.42
1361.283;-59.27
1361.482;-58.29
1361.681;-57.68
1361.881;-56.97
1362.08;-56.45
1362.279;-56.27
1362.478;-55.94
1362.677;-55.52
1362.876;-54.97
1363.075;-54.56
1363.274;-54.07
1363.474;-53.9
1363.673;-53.81
1363.872;-53.81
1364.071;-53.92
1364.27;-54.09
1364.469;-54.37
1364.668;-54.93
1364.867;-55.26
1365.066;-55.4
1365.266;-55.79
1365.465;-55.92
1365.664;-56.3
1365.863;-56.71
1366.062;-57.15
1366.261;-57.59
1366.46;-58.19
1366.659;-59.11
1366.858;-59.89
1367.058;-60.81
1367.257;-61.86
1367.456;-63.04
1367.655;-64.24
1367.854;-65.71
1368.053;-67.04
1368.252;-68.08
1368.451;-68.9
1368.65;-68.96
1368.85;-68.4
1369.049;-67.33
1369.248;-66.18
1369.447;-65.03
1369.646;-64.07
1369.845;-63.53
1370.044;-62.81
1370.243;-62.07
1370.443;-61.41
1370.642;-60.84
1370.841;-60.69
1371.04;-60.45
1371.239;-60.18
1371.438;-59.79
1371.637;-59.48
1371.836;-59.21
1372.035;-59.18
1372.235;-59.23
1372.434;-59.18
1372.633;-59.17
1372.832;-59.15
1373.031;-59.19
1373.23;-59.33
1373.429;-59.56
1373.628;-59.77
1373.827;-59.98
1374.027;-60.29
1374.226;-60.57
1374.425;-60.95
1374.624;-61.38
1374.823;-61.85
1375.022;-62.38
1375.221;-62.88
1375.42;-63.37
1375.62;-63.85
1375.819;-64.36
1376.018;-64.94
1376.217;-65.59
1376.416;-66.05
1376.615;-66.56
1376.814;-66.97
1377.013;-67.24
1377.212;-67.5
1377.412;-67.52
1377.611;-67.36
1377.81;-67.01
1378.009;-66.76
1378.208;-66.5
1378.407;-66.24
1378.606;-66.02
1378.805;-65.95
1379.004;-65.65
1379.204;-65.32
1379.403;-64.95
1379.602;-64.6
1379.801;-64.39
1380.0;-64.26
1380.199;-64.27
1380.398;-64.24
1380.597;-64.72
1380.797;-65.06
1380.996;-65.15
1381.195;-65.15
1381.394;-64.88
1381.593;-64.67
1381.792;-64.83
1381.991;-64.94
1382.19;-65.21
1382.389;-65.7
1382.589;-66.46
1382.788;-67.27
1382.987;-67.78
1383.186;-68.07
1383.385;-68.18
1383.584;-68.48
1383.783;-69.12
1383.982;-69.75
1384.181;-70.55
1384.381;-71.03
1384.58;-71.45
1384.779;-72.32
1384.978;-73.06
1385.177;-73.8
1385.376;-74.22
1385.575;-74.72
1385.774;-74.58
1385.974;-74.42
1386.173;-74.31
1386.372;-73.37
1386.571;-72.87
1386.77;-72.2
1386.969;-71.78
1387.168;-71.16
1387.367;-70.72
1387.566;-70.23
1387.766;-70.09
1387.965;-69.78
1388.164;-69.77
1388.363;-69.69
1388.562;-69.38
1388.761;-68.97
1388.96;-68.72
1389.159;-68.46
1389.358;-68.42
1389.558;-68.38
1389.757;-68.39
1389.956;-68.52
1390.155;-68.57
1390.354;-68.64
1390.553;-68.89
1390.752;-68.92
1390.951;-69.44
1391.15;-69.56
1391.35;-69.83
1391.549;-70.22
1391.748;-70.46
1391.947;-70.91
1392.146;-71.56
1392.345;-72.01
1392.544;-72.91
1392.743;-73.61
1392.943;-74.16
1393.142;-74.55
1393.341;-74.68
1393.54;-75.33
1393.739;-76.34
1393.938;-76.62
1394.137;-77.11
1394.336;-77.05
1394.535;-76.91
1394.735;-77.9
1394.934;-77.47
1395.133;-76.84
1395.332;-76.73
1395.531;-76.29
1395.73;-75.73
1395.929;-75.44
1396.128;-75.08
1396.327;-74.86
1396.527;-74.47
1396.726;-74.27
1396.925;-73.65
1397.124;-73.18
1397.323;-72.97
1397.522;-72.69
1397.721;-72.98
1397.92;-72.39
1398.12;-72.4
1398.319;-72.62
1398.518;-72.31
1398.717;-72.23
1398.916;-72.34
1399.115;-72.52
1399.314;-72.61
1399.513;-73.02
1399.712;-73.29
1399.912;-73.6
1400.111;-73.79
1400.31;-73.73
1400.509;-73.95
1400.708;-74.52
1400.907;-75.25
1401.106;-75.19
1401.305;-75.58
1401.504;-75.09
1401.704;-75.53
1401.903;-75.3
1402.102;-75.42
1402.301;-76.17
1402.5;-75.62
1402.699;-75.84
1402.898;-75.99
1403.097;-75.67
1403.297;-76.41
1403.496;-75.93
1403.695;-76.5
1403.894;-76.3
1404.093;-76.5
1404.292;-76.45
1404.491;-75.69
1404.69;-76.02
1404.889;-75.72
1405.089;-76.11
1405.288;-76.23
1405.487;-76.11
1405.686;-75.99
1405.885;-75.96
1406.084;-76.33
1406.283;-76.5
1406.482;-75.42
1406.681;-75.66
1406.881;-76.29
1407.08;-76.24
1407.279;-76.16
1407.478;-76.93
1407.677;-77.58
1407.876;-77.62
1408.075;-77.15
1408.274;-77.03
1408.474;-77.71
1408.673;-77.64
1408.872;-77.89
1409.071;-77.64
1409.27;-78.47
1409.469;-78.8
1409.668;-78.23
1409.867;-79.66
1410.066;-79.38
1410.266;-79.69
1410.465;-78.8
1410.664;-79.91
1410.863;-77.94
1411.062;-79.35
1411.261;-79.52
1411.46;-79.73
1411.659;-79.38
1411.858;-77.99
1412.058;-78.71
1412.257;-79.45
1412.456;-81.9
1412.655;-79.73
1412.854;-79.19
1413.053;-79.62
1413.252;-79.07
1413.451;-80.18
1413.65;-79.81
1413.85;-80.03
1414.049;-79.53
1414.248;-79.81
1414.447;-80.19
1414.646;-80.39
1414.845;-80.35
1415.044;-79.53
1415.243;-79.02
1415.443;-78.99
1415.642;-79.81
1415.841;-79.53
1416.04;-79.53
1416.239;-80.6
1416.438;-79.26
1416.637;-79.74
1416.836;-79.11
1417.035;-79.26
1417.235;-79.14
1417.434;-79.53
1417.633;-79.95
1417.832;-79.46
1418.031;-79.08
1418.23;-78.22
1418.429;-78.14
1418.628;-80.07
1418.827;-79.53
1419.027;-78.78
1419.226;-78.99
1419.425;-80.43
1419.624;-78.93
1419.823;-78.96
1420.022;-78.45
1420.221;-78.45
1420.42;-78.42
1420.62;-78.93
1420.819;-78.84
1421.018;-80.87
1421.217;-79.95
1421.416;-77.68
1421.615;-78.13
1421.814;-79.44
1422.013;-78.36
1422.212;-79.34
1422.412;-78.46
1422.611;-79.24
1422.81;-79.03
1423.009;-79.37
1423.208;-77.91
1423.407;-77.91
1423.606;-79.06
1423.805;-79.37
1424.004;-78.11
1424.204;-78.46
1424.403;-77.66
1424.602;-78.33
1424.801;-79.24
1425.0;-80.36
