Wavelength (nm);Intensity (dBm)
1131.0;1131.0
1200.0;-60.51
1200.199;-60.42
1200.398;-60.41
1200.597;-60.37
1200.797;-60.34
1200.996;-60.25
1201.195;-60.19
1201.394;-60.21
1201.593;-60.2
1201.792;-60.11
1201.991;-60.06
1202.19;-60.05
1202.389;-60.06
1202.589;-59.98
1202.788;-59.93
1202.987;-59.92
1203.186;-59.91
1203.385;-59.88
1203.584;-59.81
1203.783;-59.77
1203.982;-59.82
1204.181;-59.81
1204.381;-59.77
1204.58;-59.74
1204.779;-59.78
1204.978;-59.83
1205.177;-59.79
1205.376;-59.78
1205.575;-59.81
1205.774;-59.86
1205.974;-59.86
1206.173;-59.83
1206.372;-59.84
1206.571;-59.88
1206.77;-59.85
1206.969;-59.79
1207.168;-59.72
1207.367;-59.76
1207.566;-59.7
1207.766;-59.57
1207.965;-59.52
1208.164;-59.51
1208.363;-59.48
1208.562;-59.37
1208.761;-59.27
1208.96;-59.23
1209.159;-59.18
1209.358;-59.09
1209.558;-58.98
1209.757;-58.92
1209.956;-58.92
1210.155;-58.83
1210.354;-58.72
1210.553;-58.67
1210.752;-58.65
1210.951;-58.6
1211.15;-58.48
1211.35;-58.43
1211.549;-58.45
1211.748;-58.44
1211.947;-58.36
1212.146;-58.31
1212.345;-58.36
1212.544;-58.37
1212.743;-58.31
1212.943;-58.3
1213.142;-58.34
1213.341;-58.37
1213.54;-58.36
1213.739;-58.32
1213.938;-58.36
1214.137;-58.39
1214.336;-58.35
1214.535;-58.3
1214.735;-58.28
1214.934;-58.32
1215.133;-58.23
1215.332;-58.12
1215.531;-58.09
1215.73;-58.07
1215.929;-57.99
1216.128;-57.85
1216.327;-57.77
1216.527;-57.72
1216.726;-57.63
1216.925;-57.48
1217.124;-57.34
1217.323;-57.29
1217.522;-57.21
1217.721;-57.03
1217.92;-56.91
1218.12;-56.82
1218.319;-56.75
1218.518;-56.6
1218.717;-56.48
1218.916;-56.43
1219.115;-56.38
1219.314;-56.28
1219.513;-56.19
1219.712;-56.17
1219.912;-56.16
1220.111;-56.11
1220.31;-56.07
1220.509;-56.09
1220.708;-56.12
1220.907;-56.12
1221.106;-56.1
1221.305;-56.16
1221.504;-56.21
1221.704;-56.22
1221.903;-56.23
1222.102;-56.27
1222.301;-56.34
1222.5;-56.35
1222.699;-56.35
1222.898;-56.41
1223.097;-56.44
1223.297;-56.45
1223.496;-56.41
1223.695;-56.41
1223.894;-56.44
1224.093;-56.4
1224.292;-56.34
1224.491;-56.3
1224.69;-56.26
1224.889;-56.19
1225.089;-56.06
1225.288;-55.95
1225.487;-55.84
1225.686;-55.68
1225.885;-55.53
1226.084;-55.35
1226.283;-55.24
1226.482;-55.04
1226.681;-54.86
1226.881;-54.69
1227.08;-54.54
1227.279;-54.39
1227.478;-54.2
1227.677;-54.08
1227.876;-53.97
1228.075;-53.83
1228.274;-53.72
1228.474;-53.62
1228.673;-53.56
1228.872;-53.49
1229.071;-53.39
1229.27;-53.37
1229.469;-53.33
1229.668;-53.28
1229.867;-53.23
1230.066;-53.23
1230.266;-53.25
1230.465;-53.22
1230.664;-53.21
1230.863;-53.26
1231.062;-53.3
1231.261;-53.33
1231.46;-53.35
1231.659;-53.41
1231.858;-53.45
1232.058;-53.47
1232.257;-53.5
1232.456;-53.54
1232.655;-53.55
1232.854;-53.52
1233.053;-53.5
1233.252;-53.49
1233.451;-53.4
1233.65;-53.3
1233.85;-53.2
1234.049;-53.11
1234.248;-52.97
1234.447;-52.79
1234.646;-52.66
1234.845;-52.53
1235.044;-52.35
1235.243;-52.2
1235.443;-52.04
1235.642;-51.91
1235.841;-51.74
1236.04;-51.59
1236.239;-51.49
1236.438;-51.35
1236.637;-51.23
1236.836;-51.11
1237.035;-51.04
1237.235;-50.96
1237.434;-50.84
1237.633;-50.78
1237.832;-50.75
1238.031;-50.68
1238.23;-50.64
1238.429;-50.6
1238.628;-50.6
1238.827;-50.55
1239.027;-50.52
1239.226;-50.52
1239.425;-50.49
1239.624;-50.45
1239.823;-50.38
1240.022;-50.34
1240.221;-50.28
1240.42;-50.16
1240.62;-50.07
1240.819;-49.94
1241.018;-49.78
1241.217;-49.62
1241.416;-49.44
1241.615;-49.26
1241.814;-49.06
1242.013;-48.86
1242.212;-48.69
1242.412;-48.51
1242.611;-48.33
1242.81;-48.16
1243.009;-48.01
1243.208;-47.88
1243.407;-47.76
1243.606;-47.66
1243.805;-47.59
1244.004;-47.52
1244.204;-47.48
1244.403;-47.47
1244.602;-47.48
1244.801;-47.49
1245.0;-47.53
1245.199;-47.61
1245.398;-47.68
1245.597;-47.77
1245.797;-47.87
1245.996;-47.98
1246.195;-48.09
1246.394;-48.19
1246.593;-48.29
1246.792;-48.34
1246.991;-48.35
1247.19;-48.33
1247.389;-48.25
1247.589;-48.09
1247.788;-47.86
1247.987;-47.56
1248.186;-47.21
1248.385;-46.79
1248.584;-46.35
1248.783;-45.88
1248.982;-45.33
1249.181;-44.92
1249.381;-44.45
1249.58;-43.97
1249.779;-43.52
1249.978;-43.09
1250.177;-42.68
1250.376;-42.3
1250.575;-41.93
1250.774;-41.59
1250.974;-41.31
1251.173;-41.02
1251.372;-40.77
1251.571;-40.56
1251.77;-40.36
1251.969;-40.2
1252.168;-40.05
1252.367;-39.95
1252.566;-39.87
1252.766;-39.81
1252.965;-39.8
1253.164;-39.8
1253.363;-39.83
1253.562;-39.89
1253.761;-39.96
1253.96;-40.09
1254.159;-40.19
1254.358;-40.33
1254.558;-40.47
1254.757;-40.61
1254.956;-40.75
1255.155;-40.85
1255.354;-40.92
1255.553;-40.93
1255.752;-40.88
1255.951;-40.77
1256.15;-40.58
1256.35;-40.32
1256.549;-39.98
1256.748;-39.59
1256.947;-39.16
1257.146;-38.7
1257.345;-38.22
1257.544;-37.74
1257.743;-37.26
1257.943;-36.78
1258.142;-36.33
1258.341;-35.82
1258.54;-35.48
1258.739;-35.1
1258.938;-34.71
1259.137;-34.39
1259.336;-34.08
1259.535;-33.8
1259.735;-33.56
1259.934;-33.33
1260.133;-33.15
1260.332;-32.99
1260.531;-32.88
1260.73;-32.8
1260.929;-32.74
1261.128;-32.73
1261.327;-32.75
1261.527;-32.81
1261.726;-32.93
1261.925;-33.06
1262.124;-33.25
1262.323;-33.48
1262.522;-33.77
1262.721;-34.11
1262.92;-34.48
1263.12;-34.92
1263.319;-35.41
1263.518;-35.96
1263.717;-36.57
1263.916;-37.2
1264.115;-37.87
1264.314;-38.64
1264.513;-39.09
1264.712;-39.48
1264.912;-39.6
1265.111;-39.42
1265.31;-38.92
1265.509;-38.22
1265.708;-37.37
1265.907;-36.48
1266.106;-35.44
1266.305;-34.72
1266.504;-33.95
1266.704;-33.19
1266.903;-32.51
1267.102;-31.88
1267.301;-31.3
1267.5;-30.81
1267.699;-30.33
1267.898;-29.91
1268.097;-29.54
1268.297;-29.21
1268.496;-28.94
1268.695;-28.68
1268.894;-28.48
1269.093;-28.3
1269.292;-28.16
1269.491;-28.08
1269.69;-28.01
1269.889;-27.99
1270.089;-28.0
1270.288;-28.05
1270.487;-28.15
1270.686;-28.27
1270.885;-28.44
1271.084;-28.64
1271.283;-28.88
1271.482;-29.17
1271.681;-29.48
1271.881;-29.83
1272.08;-30.19
1272.279;-30.57
1272.478;-30.96
1272.677;-31.31
1272.876;-31.65
1273.075;-31.89
1273.274;-32.04
1273.474;-32.07
1273.673;-31.96
1273.872;-31.74
1274.071;-31.37
1274.27;-30.94
1274.469;-30.44
1274.668;-29.9
1274.867;-29.37
1275.066;-28.82
1275.266;-28.3
1275.465;-27.8
1275.664;-27.33
1275.863;-26.9
1276.062;-26.49
1276.261;-26.14
1276.46;-25.76
1276.659;-25.53
1276.858;-25.27
1277.058;-25.06
1277.257;-24.89
1277.456;-24.75
1277.655;-24.66
1277.854;-24.59
1278.053;-24.56
1278.252;-24.56
1278.451;-24.59
1278.65;-24.67
1278.85;-24.75
1279.049;-24.88
1279.248;-25.04
1279.447;-25.21
1279.646;-25.42
1279.845;-25.62
1280.044;-25.84
1280.243;-26.05
1280.443;-26.23
1280.642;-26.41
1280.841;-26.51
1281.04;-26.56
1281.239;-26.52
1281.438;-26.4
1281.637;-26.19
1281.836;-25.89
1282.035;-25.53
1282.235;-25.1
1282.434;-24.64
1282.633;-24.17
1282.832;-23.67
1283.031;-23.19
1283.23;-22.71
1283.429;-22.25
1283.628;-21.81
1283.827;-21.39
1284.027;-21.02
1284.226;-20.66
1284.425;-20.34
1284.624;-20.04
1284.823;-19.78
1285.022;-19.56
1285.221;-19.35
1285.42;-19.2
1285.62;-19.06
1285.819;-18.96
1286.018;-18.92
1286.217;-18.88
1286.416;-18.9
1286.615;-18.96
1286.814;-19.05
1287.013;-19.19
1287.212;-19.36
1287.412;-19.59
1287.611;-19.86
1287.81;-20.18
1288.009;-20.57
1288.208;-21.0
1288.407;-21.52
1288.606;-22.08
1288.805;-22.74
1289.004;-23.49
1289.204;-24.31
1289.403;-25.23
1289.602;-26.21
1289.801;-27.22
1290.0;-28.16
1290.199;-29.02
1290.398;-29.19
1290.597;-28.93
1290.797;-28.2
1290.996;-27.15
1291.195;-25.84
1291.394;-24.91
1291.593;-23.87
1291.792;-22.9
1291.991;-22.04
1292.19;-21.26
1292.389;-20.55
1292.589;-19.93
1292.788;-19.36
1292.987;-18.86
1293.186;-18.43
1293.385;-18.04
1293.584;-17.71
1293.783;-17.42
1293.982;-17.18
1294.181;-16.99
1294.381;-16.84
1294.58;-16.73
1294.779;-16.66
1294.978;-16.64
1295.177;-16.66
1295.376;-16.71
1295.575;-16.81
1295.774;-16.95
1295.974;-17.14
1296.173;-17.37
1296.372;-17.65
1296.571;-17.99
1296.77;-18.39
1296.969;-18.86
1297.168;-19.37
1297.367;-19.98
1297.566;-20.66
1297.766;-21.46
1297.965;-22.39
1298.164;-23.43
1298.363;-24.66
1298.562;-26.05
1298.761;-27.65
1298.96;-29.8
1299.159;-31.05
1299.358;-31.85
1299.558;-31.26
1299.757;-29.72
1299.956;-27.92
1300.155;-26.23
1300.354;-24.55
1300.553;-23.48
1300.752;-22.39
1300.951;-21.4
1301.15;-20.56
1301.35;-19.82
1301.549;-19.17
1301.748;-18.61
1301.947;-18.09
1302.146;-17.67
1302.345;-17.28
1302.544;-16.97
1302.743;-16.7
1302.943;-16.46
1303.142;-16.29
1303.341;-16.15
1303.54;-16.06
1303.739;-16.01
1303.938;-15.99
1304.137;-16.04
1304.336;-16.1
1304.535;-16.22
1304.735;-16.36
1304.934;-16.55
1305.133;-16.8
1305.332;-17.07
1305.531;-17.41
1305.73;-17.76
1305.929;-18.18
1306.128;-18.77
1306.327;-19.2
1306.527;-19.8
1306.726;-20.42
1306.925;-21.11
1307.124;-21.84
1307.323;-22.57
1307.522;-23.32
1307.721;-23.98
1307.92;-24.52
1308.12;-24.85
1308.319;-24.89
1308.518;-24.7
1308.717;-24.25
1308.916;-23.66
1309.115;-23.0
1309.314;-22.3
1309.513;-21.64
1309.712;-20.99
1309.912;-20.41
1310.111;-19.87
1310.31;-19.38
1310.509;-18.96
1310.708;-18.56
1310.907;-18.24
1311.106;-17.96
1311.305;-17.73
1311.504;-17.54
1311.704;-17.4
1311.903;-17.32
1312.102;-17.25
1312.301;-17.26
1312.5;-17.3
1312.699;-17.38
1312.898;-17.51
1313.097;-17.68
1313.297;-17.9
1313.496;-18.17
1313.695;-18.49
1313.894;-18.85
1314.093;-19.28
1314.292;-19.77
1314.491;-20.32
1314.69;-20.94
1314.889;-21.63
1315.089;-22.4
1315.288;-23.27
1315.487;-24.22
1315.686;-25.26
1315.885;-26.36
1316.084;-27.46
1316.283;-28.65
1316.482;-29.18
1316.681;-29.4
1316.881;-29.07
1317.08;-28.34
1317.279;-27.37
1317.478;-26.36
1317.677;-25.2
1317.876;-24.47
1318.075;-23.65
1318.274;-22.92
1318.474;-22.28
1318.673;-21.71
1318.872;-21.23
1319.071;-20.79
1319.27;-20.42
1319.469;-20.11
1319.668;-19.85
1319.867;-19.65
1320.066;-19.48
1320.266;-19.36
1320.465;-19.28
1320.664;-19.25
1320.863;-19.27
1321.062;-19.3
1321.261;-19.4
1321.46;-19.51
1321.659;-19.67
1321.858;-19.88
1322.058;-20.12
1322.257;-20.42
1322.456;-20.73
1322.655;-21.1
1322.854;-21.52
1323.053;-21.97
1323.252;-22.49
1323.451;-23.03
1323.65;-23.64
1323.85;-24.28
1324.049;-24.96
1324.248;-25.7
1324.447;-26.46
1324.646;-27.25
1324.845;-27.99
1325.044;-28.86
1325.243;-29.31
1325.443;-29.74
1325.642;-29.95
1325.841;-29.94
1326.04;-29.73
1326.239;-29.35
1326.438;-28.91
1326.637;-28.4
1326.836;-27.89
1327.035;-27.42
1327.235;-26.97
1327.434;-26.57
1327.633;-26.14
1327.832;-25.91
1328.031;-25.63
1328.23;-25.41
1328.429;-25.24
1328.628;-25.11
1328.827;-25.03
1329.027;-24.97
1329.226;-24.97
1329.425;-24.98
1329.624;-25.04
1329.823;-25.14
1330.022;-25.27
1330.221;-25.44
1330.42;-25.63
1330.62;-25.86
1330.819;-26.13
1331.018;-26.41
1331.217;-26.75
1331.416;-27.09
1331.615;-27.47
1331.814;-27.86
1332.013;-28.27
1332.212;-28.79
1332.412;-29.15
1332.611;-29.6
1332.81;-30.02
1333.009;-30.44
1333.208;-30.8
1333.407;-31.13
1333.606;-31.41
1333.805;-31.62
1334.004;-31.78
1334.204;-31.85
1334.403;-31.87
1334.602;-31.84
1334.801;-31.77
1335.0;-31.68
1335.199;-31.55
1335.398;-31.45
1335.597;-31.31
1335.797;-31.22
1335.996;-31.14
1336.195;-31.06
1336.394;-31.03
1336.593;-31.0
1336.792;-31.0
1336.991;-31.03
1337.19;-31.1
1337.389;-31.22
1337.589;-31.35
1337.788;-31.53
1337.987;-31.73
1338.186;-31.98
1338.385;-32.26
1338.584;-32.58
1338.783;-32.96
1338.982;-33.36
1339.181;-33.83
1339.381;-34.34
1339.58;-34.91
1339.779;-35.55
1339.978;-36.24
1340.177;-37.02
1340.376;-37.86
1340.575;-39.03
1340.774;-39.87
1340.974;-41.0
1341.173;-42.28
1341.372;-43.66
1341.571;-45.14
1341.77;-46.59
1341.969;-47.79
1342.168;-48.36
1342.367;-48.13
1342.566;-47.29
1342.766;-46.16
1342.965;-45.03
1343.164;-43.97
1343.363;-43.04
1343.562;-42.23
1343.761;-41.54
1343.96;-40.97
1344.159;-40.46
1344.358;-40.04
1344.558;-39.71
1344.757;-39.42
1344.956;-39.21
1345.155;-39.03
1345.354;-38.92
1345.553;-38.86
1345.752;-38.85
1345.951;-38.9
1346.15;-38.97
1346.35;-39.1
1346.549;-39.27
1346.748;-39.47
1346.947;-39.73
1347.146;-40.01
1347.345;-40.34
1347.544;-40.75
1347.743;-41.22
1347.943;-41.74
1348.142;-42.27
1348.341;-42.88
1348.54;-43.49
1348.739;-44.19
1348.938;-44.97
1349.137;-45.82
1349.336;-46.77
1349.535;-47.83
1349.735;-49.27
1349.934;-50.35
1350.133;-51.83
1350.332;-53.5
1350.531;-55.23
1350.73;-56.77
1350.929;-57.55
1351.128;-57.22
1351.327;-56.14
1351.527;-54.8
1351.726;-53.57
1351.925;-52.37
1352.124;-51.33
1352.323;-50.47
1352.522;-49.78
1352.721;-49.11
1352.92;-48.56
1353.12;-48.22
1353.319;-47.78
1353.518;-47.49
1353.717;-47.25
1353.916;-47.02
1354.115;-46.87
1354.314;-46.85
1354.513;-46.86
1354.712;-47.02
1354.912;-47.21
1355.111;-47.32
1355.31;-47.44
1355.509;-47.48
1355.708;-47.78
1355.907;-48.18
1356.106;-48.51
1356.305;-48.82
1356.504;-49.21
1356.704;-49.4
1356.903;-49.9
1357.102;-50.64
1357.301;-51.37
1357.5;-52.13
1357.699;-52.94
1357.898;-53.71
1358.097;-54.51
1358.297;-55.53
1358.496;-56.69
1358.695;-57.81
1358.894;-59.26
1359.093;-60.09
1359.292;-60.7
1359.491;-61.29
1359.69;-61.26
1359.889;-60.62
1360.089;-59.67
1360.288;-58.68
1360.487;-57.72
1360.686;-56.92
1360.885;-56.42
1361.084;-55.82
1361.283;-55.32
1361.482;-54.8
1361.681;-54.52
1361.881;-54.17
1362.08;-53.93
1362.279;-53.98
1362.478;-53.92
1362.677;-53.75
1362.876;-53.41
1363.075;-53.2
1363.274;-52.85
1363.474;-52.84
1363.673;-52.9
1363.872;-53.04
1364.071;-53.3
1364.27;-53.6
1364.469;-54.01
1364.668;-54.7
1364.867;-55.19
1365.066;-55.49
1365.266;-56.02
1365.465;-56.28
1365.664;-56.8
1365.863;-57.37
1366.062;-57.96
1366.261;-58.67
1366.46;-59.32
1366.659;-60.23
1366.858;-61.3
1367.058;-62.32
1367.257;-63.38
1367.456;-64.47
1367.655;-65.36
1367.854;-66.06
1368.053;-66.15
1368.252;-65.72
1368.451;-65.54
1368.65;-64.85
1368.85;-64.0
1369.049;-63.05
1369.248;-62.21
1369.447;-61.42
1369.646;-60.83
1369.845;-60.56
1370.044;-60.2
1370.243;-59.78
1370.443;-59.35
1370.642;-58.98
1370.841;-59.0
1371.04;-58.97
1371.239;-58.9
1371.438;-58.68
1371.637;-58.51
1371.836;-58.36
1372.035;-58.48
1372.235;-58.65
1372.434;-58.76
1372.633;-58.9
1372.832;-58.99
1373.031;-59.16
1373.23;-59.44
1373.429;-59.79
1373.628;-60.17
1373.827;-60.53
1374.027;-60.98
1374.226;-61.45
1374.425;-62.03
1374.624;-62.67
1374.823;-63.36
1375.022;-64.16
1375.221;-64.92
1375.42;-65.74
1375.62;-66.55
1375.819;-67.45
1376.018;-68.41
1376.217;-69.29
1376.416;-70.0
1376.615;-70.62
1376.814;-70.99
1377.013;-71.03
1377.212;-70.85
1377.412;-70.19
1377.611;-69.39
1377.81;-68.71
1378.009;-68.09
1378.208;-67.47
1378.407;-66.94
1378.606;-66.63
1378.805;-66.38
1379.004;-66.08
1379.204;-65.67
1379.403;-65.28
1379.602;-64.96
1379.801;-64.73
1380.0;-64.63
1380.199;-64.6
1380.398;-64.67
1380.597;-65.16
1380.797;-65.51
1380.996;-65.67
1381.195;-65.78
1381.394;-65.61
1381.593;-65.41
1381.792;-65.62
1381.991;-65.87
1382.19;-66.21
1382.389;-66.78
1382.589;-67.58
1382.788;-68.56
1382.987;-69.17
1383.186;-69.54
1383.385;-69.86
1383.584;-70.34
1383.783;-70.82
1383.982;-71.86
1384.181;-72.64
1384.381;-73.19
1384.58;-74.05
1384.779;-74.78
1384.978;-75.6
1385.177;-76.48
1385.376;-76.36
1385.575;-75.48
1385.774;-75.27
1385.974;-75.09
1386.173;-74.05
1386.372;-73.32
1386.571;-73.32
1386.77;-72.44
1386.969;-71.68
1387.168;-70.96
1387.367;-70.6
1387.566;-70.31
1387.766;-70.25
1387.965;-69.98
1388.164;-69.94
1388.363;-69.99
1388.562;-69.55
1388.761;-69.17
1388.96;-69.05
1389.159;-68.87
1389.358;-68.9
1389.558;-68.8
1389.757;-68.86
1389.956;-69.04
1390.155;-69.35
1390.354;-69.4
1390.553;-69.69
1390.752;-69.78
1390.951;-70.05
1391.15;-70.41
1391.35;-70.64
1391.549;-71.07
1391.748;-71.4
1391.947;-71.84
1392.146;-72.51
1392.345;-73.13
1392.544;-74.07
1392.743;-74.58
1392.943;-74.84
1393.142;-76.14
1393.341;-75.74
1393.54;-75.67
1393.739;-76.49
1393.938;-77.56
1394.137;-77.52
1394.336;-77.6
1394.535;-77.39
1394.735;-77.54
1394.934;-77.74
1395.133;-77.31
1395.332;-77.56
1395.531;-76.75
1395.73;-76.68
1395.929;-76.05
1396.128;-75.67
1396.327;-75.19
1396.527;-75.31
1396.726;-75.12
1396.925;-75.08
1397.124;-74.59
1397.323;-74.44
1397.522;-73.69
1397.721;-74.17
1397.92;-73.77
1398.12;-73.64
1398.319;-73.29
1398.518;-73.44
1398.717;-73.92
1398.916;-73.61
1399.115;-73.38
1399.314;-73.44
1399.513;-74.13
1399.712;-74.33
1399.912;-74.14
1400.111;-74.68
1400.31;-74.47
1400.509;-74.42
1400.708;-74.87
1400.907;-75.25
1401.106;-74.83
1401.305;-75.11
1401.504;-74.79
1401.704;-74.77
1401.903;-74.82
1402.102;-74.39
1402.301;-74.61
1402.5;-74.65
1402.699;-74.31
1402.898;-74.89
1403.097;-74.62
1403.297;-74.67
1403.496;-75.2
1403.695;-74.49
1403.894;-75.08
1404.093;-74.98
1404.292;-75.37
1404.491;-75.3
1404.69;-75.41
1404.889;-75.64
1405.089;-76.46
1405.288;-75.75
1405.487;-76.5
1405.686;-76.5
1405.885;-75.57
1406.084;-75.77
1406.283;-76.4
1406.482;-75.93
1406.681;-77.2
1406.881;-76.61
1407.08;-77.41
1407.279;-77.37
1407.478;-76.84
1407.677;-76.82
1407.876;-77.22
1408.075;-77.87
1408.274;-77.41
1408.474;-77.71
1408.673;-78.74
1408.872;-78.39
1409.071;-79.38
1409.27;-78.86
1409.469;-78.49
1409.668;-78.23
1409.867;-78.98
1410.066;-79.73
1410.266;-79.19
1410.465;-78.52
1410.664;-79.01
1410.863;-77.92
1411.062;-78.98
1411.261;-78.09
1411.46;-78.83
1411.659;-78.66
1411.858;-77.94
1412.058;-78.89
1412.257;-78.77
1412.456;-77.99
1412.655;-78.6
1412.854;-78.44
1413.053;-77.76
1413.252;-78.49
1413.451;-78.31
1413.65;-79.53
1413.85;-79.14
1414.049;-78.81
1414.248;-79.39
1414.447;-77.95
1414.646;-78.75
1414.845;-78.67
1415.044;-78.24
1415.243;-78.84
1415.443;-79.49
1415.642;-79.46
1415.841;-79.49
1416.04;-79.81
1416.239;-79.23
1416.438;-79.88
1416.637;-78.99
1416.836;-79.53
1417.035;-78.45
1417.235;-81.01
1417.434;-78.35
1417.633;-79.39
1417.832;-78.45
1418.031;-79.53
1418.23;-79.02
1418.429;-79.53
1418.628;-79.53
1418.827;-79.77
1419.027;-80.39
1419.226;-79.53
1419.425;-78.45
1419.624;-78.53
1419.823;-79.2
1420.022;-79.7
1420.221;-80.87
1420.42;-78.87
1420.62;-78.35
1420.819;-78.78
1421.018;-78.19
1421.217;-79.81
1421.416;-78.61
1421.615;-79.78
1421.814;-78.85
1422.013;-79.85
1422.212;-79.34
1422.412;-78.97
1422.611;-78.01
1422.81;-78.62
1423.009;-78.71
1423.208;-78.62
1423.407;-78.79
1423.606;-79.03
1423.805;-78.68
1424.004;-78.82
1424.204;-79.03
1424.403;-78.88
1424.602;-79.54
1424.801;-78.51
1425.0;-78.41
