Wavelength (nm);Intensity (dBm)
1131.0;1131.0
1200.0;-58.3
1200.199;-58.22
1200.398;-58.19
1200.597;-58.25
1200.797;-58.24
1200.996;-58.19
1201.195;-58.14
1201.394;-58.14
1201.593;-58.13
1201.792;-58.07
1201.991;-58.05
1202.19;-58.01
1202.389;-57.95
1202.589;-57.93
1202.788;-57.88
1202.987;-57.79
1203.186;-57.77
1203.385;-57.75
1203.584;-57.69
1203.783;-57.6
1203.982;-57.57
1204.181;-57.58
1204.381;-57.5
1204.58;-57.43
1204.779;-57.4
1204.978;-57.4
1205.177;-57.37
1205.376;-57.29
1205.575;-57.28
1205.774;-57.28
1205.974;-57.27
1206.173;-57.24
1206.372;-57.2
1206.571;-57.22
1206.77;-57.22
1206.969;-57.18
1207.168;-57.15
1207.367;-57.14
1207.566;-57.13
1207.766;-57.12
1207.965;-57.08
1208.164;-57.06
1208.363;-57.05
1208.562;-57.02
1208.761;-56.96
1208.96;-56.91
1209.159;-56.91
1209.358;-56.85
1209.558;-56.78
1209.757;-56.74
1209.956;-56.72
1210.155;-56.66
1210.354;-56.58
1210.553;-56.55
1210.752;-56.53
1210.951;-56.45
1211.15;-56.4
1211.35;-56.34
1211.549;-56.31
1211.748;-56.28
1211.947;-56.22
1212.146;-56.16
1212.345;-56.11
1212.544;-56.1
1212.743;-56.05
1212.943;-55.97
1213.142;-55.96
1213.341;-55.93
1213.54;-55.85
1213.739;-55.8
1213.938;-55.78
1214.137;-55.75
1214.336;-55.67
1214.535;-55.64
1214.735;-55.59
1214.934;-55.53
1215.133;-55.48
1215.332;-55.41
1215.531;-55.35
1215.73;-55.29
1215.929;-55.21
1216.128;-55.14
1216.327;-55.06
1216.527;-55.02
1216.726;-54.93
1216.925;-54.83
1217.124;-54.76
1217.323;-54.69
1217.522;-54.62
1217.721;-54.52
1217.92;-54.45
1218.12;-54.38
1218.319;-54.3
1218.518;-54.24
1218.717;-54.15
1218.916;-54.09
1219.115;-54.03
1219.314;-53.96
1219.513;-53.91
1219.712;-53.85
1219.912;-53.8
1220.111;-53.74
1220.31;-53.68
1220.509;-53.65
1220.708;-53.59
1220.907;-53.52
1221.106;-53.47
1221.305;-53.42
1221.504;-53.36
1221.704;-53.29
1221.903;-53.24
1222.102;-53.18
1222.301;-53.11
1222.5;-53.04
1222.699;-52.96
1222.898;-52.89
1223.097;-52.82
1223.297;-52.74
1223.496;-52.65
1223.695;-52.59
1223.894;-52.51
1224.093;-52.44
1224.292;-52.36
1224.491;-52.28
1224.69;-52.21
1224.889;-52.14
1225.089;-52.08
1225.288;-52.01
1225.487;-51.95
1225.686;-51.89
1225.885;-51.84
1226.084;-51.8
1226.283;-51.75
1226.482;-51.7
1226.681;-51.66
1226.881;-51.63
1227.08;-51.59
1227.279;-51.55
1227.478;-51.51
1227.677;-51.48
1227.876;-51.44
1228.075;-51.4
1228.274;-51.36
1228.474;-51.3
1228.673;-51.26
1228.872;-51.2
1229.071;-51.15
1229.27;-51.1
1229.469;-51.02
1229.668;-50.96
1229.867;-50.89
1230.066;-50.83
1230.266;-50.74
1230.465;-50.66
1230.664;-50.59
1230.863;-50.52
1231.062;-50.45
1231.261;-50.38
1231.46;-50.32
1231.659;-50.25
1231.858;-50.17
1232.058;-50.12
1232.257;-50.04
1232.456;-49.97
1232.655;-49.9
1232.854;-49.82
1233.053;-49.77
1233.252;-49.68
1233.451;-49.6
1233.65;-49.52
1233.85;-49.43
1234.049;-49.36
1234.248;-49.25
1234.447;-49.16
1234.646;-49.06
1234.845;-48.96
1235.044;-48.86
1235.243;-48.75
1235.443;-48.64
1235.642;-48.52
1235.841;-48.4
1236.04;-48.3
1236.239;-48.17
1236.438;-48.06
1236.637;-47.94
1236.836;-47.82
1237.035;-47.72
1237.235;-47.6
1237.434;-47.51
1237.633;-47.4
1237.832;-47.3
1238.031;-47.2
1238.23;-47.1
1238.429;-47.01
1238.628;-46.91
1238.827;-46.81
1239.027;-46.73
1239.226;-46.62
1239.425;-46.54
1239.624;-46.44
1239.823;-46.34
1240.022;-46.25
1240.221;-46.15
1240.42;-46.06
1240.62;-45.94
1240.819;-45.87
1241.018;-45.75
1241.217;-45.66
1241.416;-45.55
1241.615;-45.44
1241.814;-45.36
1242.013;-45.25
1242.212;-45.16
1242.412;-45.07
1242.611;-44.98
1242.81;-44.9
1243.009;-44.81
1243.208;-44.74
1243.407;-44.67
1243.606;-44.59
1243.805;-44.54
1244.004;-44.46
1244.204;-44.42
1244.403;-44.36
1244.602;-44.3
1244.801;-44.28
1245.0;-44.23
1245.199;-44.2
1245.398;-44.16
1245.597;-44.12
1245.797;-44.1
1245.996;-44.06
1246.195;-44.04
1246.394;-44.02
1246.593;-43.98
1246.792;-43.98
1246.991;-43.94
1247.19;-43.93
1247.389;-43.91
1247.589;-43.88
1247.788;-43.88
1247.987;-43.85
1248.186;-43.85
1248.385;-43.83
1248.584;-43.81
1248.783;-43.81
1248.982;-43.8
1249.181;-43.79
1249.381;-43.78
1249.58;-43.77
1249.779;-43.78
1249.978;-43.76
1250.177;-43.77
1250.376;-43.77
1250.575;-43.76
1250.774;-43.77
1250.974;-43.77
1251.173;-43.77
1251.372;-43.76
1251.571;-43.76
1251.77;-43.76
1251.969;-43.73
1252.168;-43.71
1252.367;-43.67
1252.566;-43.63
1252.766;-43.59
1252.965;-43.53
1253.164;-43.46
1253.363;-43.37
1253.562;-43.28
1253.761;-43.17
1253.96;-43.06
1254.159;-42.93
1254.358;-42.77
1254.558;-42.63
1254.757;-42.46
1254.956;-42.27
1255.155;-42.11
1255.354;-41.9
1255.553;-41.7
1255.752;-41.49
1255.951;-41.26
1256.15;-41.06
1256.35;-40.81
1256.549;-40.59
1256.748;-40.35
1256.947;-40.1
1257.146;-39.87
1257.345;-39.62
1257.544;-39.39
1257.743;-39.13
1257.943;-38.88
1258.142;-38.65
1258.341;-38.4
1258.54;-38.17
1258.739;-37.92
1258.938;-37.67
1259.137;-37.45
1259.336;-37.2
1259.535;-36.99
1259.735;-36.75
1259.934;-36.52
1260.133;-36.3
1260.332;-36.08
1260.531;-35.83
1260.73;-35.65
1260.929;-35.45
1261.128;-35.23
1261.327;-35.03
1261.527;-34.84
1261.726;-34.64
1261.925;-34.46
1262.124;-34.25
1262.323;-34.08
1262.522;-33.9
1262.721;-33.72
1262.92;-33.55
1263.12;-33.37
1263.319;-33.21
1263.518;-33.05
1263.717;-32.89
1263.916;-32.74
1264.115;-32.57
1264.314;-32.43
1264.513;-32.28
1264.712;-32.14
1264.912;-32.01
1265.111;-31.86
1265.31;-31.74
1265.509;-31.61
1265.708;-31.49
1265.907;-31.38
1266.106;-31.26
1266.305;-31.16
1266.504;-31.06
1266.704;-30.97
1266.903;-30.88
1267.102;-30.79
1267.301;-30.72
1267.5;-30.65
1267.699;-30.57
1267.898;-30.51
1268.097;-30.46
1268.297;-30.41
1268.496;-30.35
1268.695;-30.3
1268.894;-30.26
1269.093;-30.22
1269.292;-30.19
1269.491;-30.16
1269.69;-30.13
1269.889;-30.11
1270.089;-30.08
1270.288;-30.08
1270.487;-30.07
1270.686;-30.06
1270.885;-30.06
1271.084;-30.06
1271.283;-30.08
1271.482;-30.09
1271.681;-30.11
1271.881;-30.14
1272.08;-30.17
1272.279;-30.22
1272.478;-30.26
1272.677;-30.32
1272.876;-30.38
1273.075;-30.45
1273.274;-30.54
1273.474;-30.62
1273.673;-30.72
1273.872;-30.81
1274.071;-30.92
1274.27;-31.04
1274.469;-31.15
1274.668;-31.3
1274.867;-31.42
1275.066;-31.56
1275.266;-31.71
1275.465;-31.85
1275.664;-32.02
1275.863;-32.18
1276.062;-32.35
1276.261;-32.53
1276.46;-32.71
1276.659;-32.9
1276.858;-33.09
1277.058;-33.3
1277.257;-33.5
1277.456;-33.7
1277.655;-33.92
1277.854;-34.13
1278.053;-34.34
1278.252;-34.54
1278.451;-34.73
1278.65;-34.92
1278.85;-35.06
1279.049;-35.21
1279.248;-35.3
1279.447;-35.38
1279.646;-35.41
1279.845;-35.4
1280.044;-35.36
1280.243;-35.25
1280.443;-35.1
1280.642;-34.91
1280.841;-34.68
1281.04;-34.43
1281.239;-34.12
1281.438;-33.8
1281.637;-33.45
1281.836;-33.09
1282.035;-32.73
1282.235;-32.33
1282.434;-31.95
1282.633;-31.57
1282.832;-31.17
1283.031;-30.8
1283.23;-30.4
1283.429;-30.03
1283.628;-29.65
1283.827;-29.28
1284.027;-28.93
1284.226;-28.57
1284.425;-28.24
1284.624;-27.89
1284.823;-27.57
1285.022;-27.26
1285.221;-26.94
1285.42;-26.65
1285.62;-26.35
1285.819;-26.03
1286.018;-25.8
1286.217;-25.54
1286.416;-25.27
1286.615;-25.02
1286.814;-24.79
1287.013;-24.54
1287.212;-24.31
1287.412;-24.08
1287.611;-23.86
1287.81;-23.66
1288.009;-23.44
1288.208;-23.26
1288.407;-23.06
1288.606;-22.88
1288.805;-22.71
1289.004;-22.53
1289.204;-22.37
1289.403;-22.2
1289.602;-22.05
1289.801;-21.91
1290.0;-21.77
1290.199;-21.64
1290.398;-21.5
1290.597;-21.39
1290.797;-21.27
1290.996;-21.14
1291.195;-21.04
1291.394;-20.93
1291.593;-20.82
1291.792;-20.73
1291.991;-20.64
1292.19;-20.57
1292.389;-20.48
1292.589;-20.41
1292.788;-20.33
1292.987;-20.27
1293.186;-20.22
1293.385;-20.17
1293.584;-20.12
1293.783;-20.08
1293.982;-20.05
1294.181;-20.02
1294.381;-19.99
1294.58;-19.98
1294.779;-19.95
1294.978;-19.95
1295.177;-19.95
1295.376;-19.94
1295.575;-19.95
1295.774;-19.96
1295.974;-19.98
1296.173;-19.99
1296.372;-20.02
1296.571;-20.05
1296.77;-20.08
1296.969;-20.14
1297.168;-20.18
1297.367;-20.24
1297.566;-20.29
1297.766;-20.35
1297.965;-20.44
1298.164;-20.51
1298.363;-20.61
1298.562;-20.69
1298.761;-20.79
1298.96;-20.91
1299.159;-21.02
1299.358;-21.16
1299.558;-21.27
1299.757;-21.42
1299.956;-21.58
1300.155;-21.73
1300.354;-21.91
1300.553;-22.06
1300.752;-22.25
1300.951;-22.45
1301.15;-22.66
1301.35;-22.89
1301.549;-23.12
1301.748;-23.36
1301.947;-23.61
1302.146;-23.88
1302.345;-24.17
1302.544;-24.47
1302.743;-24.79
1302.943;-25.11
1303.142;-25.47
1303.341;-25.84
1303.54;-26.22
1303.739;-26.65
1303.938;-27.06
1304.137;-27.53
1304.336;-28.01
1304.535;-28.64
1304.735;-29.08
1304.934;-29.64
1305.133;-30.25
1305.332;-30.84
1305.531;-31.49
1305.73;-32.11
1305.929;-32.72
1306.128;-33.31
1306.327;-33.79
1306.527;-34.18
1306.726;-34.38
1306.925;-34.4
1307.124;-34.25
1307.323;-33.9
1307.522;-33.46
1307.721;-32.88
1307.92;-32.27
1308.12;-31.63
1308.319;-30.98
1308.518;-30.36
1308.717;-29.73
1308.916;-29.13
1309.115;-28.57
1309.314;-28.02
1309.513;-27.53
1309.712;-27.03
1309.912;-26.57
1310.111;-26.06
1310.31;-25.72
1310.509;-25.34
1310.708;-24.95
1310.907;-24.6
1311.106;-24.25
1311.305;-23.94
1311.504;-23.63
1311.704;-23.34
1311.903;-23.07
1312.102;-22.8
1312.301;-22.57
1312.5;-22.33
1312.699;-22.11
1312.898;-21.89
1313.097;-21.69
1313.297;-21.51
1313.496;-21.33
1313.695;-21.17
1313.894;-21.0
1314.093;-20.85
1314.292;-20.71
1314.491;-20.58
1314.69;-20.46
1314.889;-20.34
1315.089;-20.22
1315.288;-20.13
1315.487;-20.04
1315.686;-19.97
1315.885;-19.87
1316.084;-19.81
1316.283;-19.75
1316.482;-19.69
1316.681;-19.66
1316.881;-19.6
1317.08;-19.59
1317.279;-19.55
1317.478;-19.53
1317.677;-19.52
1317.876;-19.5
1318.075;-19.51
1318.274;-19.5
1318.474;-19.51
1318.673;-19.53
1318.872;-19.55
1319.071;-19.6
1319.27;-19.61
1319.469;-19.66
1319.668;-19.7
1319.867;-19.74
1320.066;-19.81
1320.266;-19.86
1320.465;-19.93
1320.664;-20.0
1320.863;-20.07
1321.062;-20.15
1321.261;-20.23
1321.46;-20.33
1321.659;-20.42
1321.858;-20.52
1322.058;-20.62
1322.257;-20.72
1322.456;-20.85
1322.655;-20.96
1322.854;-21.09
1323.053;-21.22
1323.252;-21.35
1323.451;-21.5
1323.65;-21.63
1323.85;-21.79
1324.049;-21.93
1324.248;-22.09
1324.447;-22.26
1324.646;-22.41
1324.845;-22.59
1325.044;-22.76
1325.243;-22.94
1325.443;-23.12
1325.642;-23.31
1325.841;-23.51
1326.04;-23.69
1326.239;-23.89
1326.438;-24.08
1326.637;-24.28
1326.836;-24.49
1327.035;-24.69
1327.235;-24.91
1327.434;-25.11
1327.633;-25.32
1327.832;-25.54
1328.031;-25.75
1328.23;-25.98
1328.429;-26.18
1328.628;-26.4
1328.827;-26.61
1329.027;-26.83
1329.226;-27.05
1329.425;-27.26
1329.624;-27.47
1329.823;-27.67
1330.022;-27.88
1330.221;-28.09
1330.42;-28.27
1330.62;-28.53
1330.819;-28.68
1331.018;-28.88
1331.217;-29.07
1331.416;-29.25
1331.615;-29.42
1331.814;-29.58
1332.013;-29.76
1332.212;-29.9
1332.412;-30.06
1332.611;-30.21
1332.81;-30.34
1333.009;-30.48
1333.208;-30.59
1333.407;-30.72
1333.606;-30.82
1333.805;-30.93
1334.004;-31.02
1334.204;-31.11
1334.403;-31.21
1334.602;-31.28
1334.801;-31.37
1335.0;-31.44
1335.199;-31.51
1335.398;-31.58
1335.597;-31.64
1335.797;-31.72
1335.996;-31.78
1336.195;-31.85
1336.394;-31.9
1336.593;-31.95
1336.792;-32.01
1336.991;-32.06
1337.19;-32.13
1337.389;-32.19
1337.589;-32.25
1337.788;-32.31
1337.987;-32.37
1338.186;-32.45
1338.385;-32.5
1338.584;-32.58
1338.783;-32.64
1338.982;-32.72
1339.181;-32.81
1339.381;-32.88
1339.58;-32.97
1339.779;-33.05
1339.978;-33.13
1340.177;-33.24
1340.376;-33.33
1340.575;-33.45
1340.774;-33.54
1340.974;-33.65
1341.173;-33.75
1341.372;-33.86
1341.571;-33.99
1341.77;-34.1
1341.969;-34.23
1342.168;-34.34
1342.367;-34.47
1342.566;-34.61
1342.766;-34.74
1342.965;-34.89
1343.164;-35.02
1343.363;-35.17
1343.562;-35.32
1343.761;-35.47
1343.96;-35.64
1344.159;-35.8
1344.358;-35.97
1344.558;-36.14
1344.757;-36.31
1344.956;-36.49
1345.155;-36.65
1345.354;-36.83
1345.553;-37.01
1345.752;-37.19
1345.951;-37.39
1346.15;-37.57
1346.35;-37.79
1346.549;-37.99
1346.748;-38.19
1346.947;-38.39
1347.146;-38.66
1347.345;-38.8
1347.544;-39.06
1347.743;-39.33
1347.943;-39.58
1348.142;-39.81
1348.341;-40.04
1348.54;-40.25
1348.739;-40.47
1348.938;-40.69
1349.137;-40.93
1349.336;-41.14
1349.535;-41.38
1349.735;-41.61
1349.934;-41.86
1350.133;-42.15
1350.332;-42.47
1350.531;-42.78
1350.73;-43.04
1350.929;-43.3
1351.128;-43.53
1351.327;-43.78
1351.527;-44.08
1351.726;-44.41
1351.925;-44.73
1352.124;-45.03
1352.323;-45.32
1352.522;-45.66
1352.721;-45.94
1352.92;-46.24
1353.12;-46.63
1353.319;-46.88
1353.518;-47.2
1353.717;-47.53
1353.916;-47.79
1354.115;-48.08
1354.314;-48.55
1354.513;-48.8
1354.712;-49.27
1354.912;-49.7
1355.111;-50.04
1355.31;-50.34
1355.509;-50.48
1355.708;-50.89
1355.907;-51.28
1356.106;-51.58
1356.305;-51.8
1356.504;-52.04
1356.704;-52.06
1356.903;-52.3
1357.102;-52.75
1357.301;-53.04
1357.5;-53.28
1357.699;-53.51
1357.898;-53.58
1358.097;-53.65
1358.297;-53.8
1358.496;-54.01
1358.695;-54.09
1358.894;-54.16
1359.093;-54.23
1359.292;-54.17
1359.491;-54.44
1359.69;-54.6
1359.889;-54.63
1360.089;-54.53
1360.288;-54.39
1360.487;-54.21
1360.686;-54.18
1360.885;-54.34
1361.084;-54.44
1361.283;-54.38
1361.482;-54.34
1361.681;-54.38
1361.881;-54.31
1362.08;-54.3
1362.279;-54.55
1362.478;-54.58
1362.677;-54.49
1362.876;-54.17
1363.075;-53.9
1363.274;-53.5
1363.474;-53.4
1363.673;-53.31
1363.872;-53.28
1364.071;-53.32
1364.27;-53.36
1364.469;-53.51
1364.668;-53.88
1364.867;-53.93
1365.066;-53.73
1365.266;-53.77
1365.465;-53.58
1365.664;-53.53
1365.863;-53.43
1366.062;-53.31
1366.261;-53.18
1366.46;-53.14
1366.659;-53.2
1366.858;-53.34
1367.058;-53.38
1367.257;-53.38
1367.456;-53.57
1367.655;-53.68
1367.854;-53.86
1368.053;-53.91
1368.252;-53.81
1368.451;-54.1
1368.65;-54.11
1368.85;-54.15
1369.049;-54.08
1369.248;-53.98
1369.447;-53.88
1369.646;-53.93
1369.845;-54.24
1370.044;-54.38
1370.243;-54.48
1370.443;-54.51
1370.642;-54.49
1370.841;-54.81
1371.04;-55.05
1371.239;-55.23
1371.438;-55.24
1371.637;-55.19
1371.836;-55.17
1372.035;-55.36
1372.235;-55.58
1372.434;-55.68
1372.633;-55.78
1372.832;-55.83
1373.031;-55.88
1373.23;-56.05
1373.429;-56.22
1373.628;-56.37
1373.827;-56.5
1374.027;-56.67
1374.226;-56.79
1374.425;-56.98
1374.624;-57.17
1374.823;-57.43
1375.022;-57.69
1375.221;-57.84
1375.42;-58.01
1375.62;-58.14
1375.819;-58.34
1376.018;-58.66
1376.217;-58.84
1376.416;-59.08
1376.615;-59.26
1376.814;-59.56
1377.013;-59.92
1377.212;-60.22
1377.412;-60.43
1377.611;-60.66
1377.81;-60.79
1378.009;-60.98
1378.208;-61.26
1378.407;-61.61
1378.606;-62.03
1378.805;-62.54
1379.004;-62.86
1379.204;-63.14
1379.403;-63.31
1379.602;-63.5
1379.801;-63.75
1380.0;-64.1
1380.199;-64.51
1380.398;-65.03
1380.597;-65.75
1380.797;-66.47
1380.996;-66.87
1381.195;-67.21
1381.394;-67.17
1381.593;-67.09
1381.792;-67.38
1381.991;-67.74
1382.19;-68.05
1382.389;-68.49
1382.589;-69.33
1382.788;-69.81
1382.987;-70.22
1383.186;-70.03
1383.385;-69.9
1383.584;-69.6
1383.783;-69.82
1383.982;-69.78
1384.181;-69.82
1384.381;-69.66
1384.58;-69.28
1384.779;-69.29
1384.978;-69.28
1385.177;-69.35
1385.376;-69.07
1385.575;-68.77
1385.774;-68.55
1385.974;-68.24
1386.173;-67.86
1386.372;-67.88
1386.571;-67.56
1386.77;-67.37
1386.969;-67.07
1387.168;-66.86
1387.367;-66.61
1387.566;-66.46
1387.766;-66.45
1387.965;-66.54
1388.164;-66.48
1388.363;-66.34
1388.562;-66.06
1388.761;-65.65
1388.96;-65.46
1389.159;-65.17
1389.358;-65.03
1389.558;-64.88
1389.757;-64.78
1389.956;-64.75
1390.155;-64.65
1390.354;-64.53
1390.553;-64.42
1390.752;-64.23
1390.951;-64.18
1391.15;-64.07
1391.35;-63.97
1391.549;-63.93
1391.748;-63.86
1391.947;-63.82
1392.146;-63.85
1392.345;-64.01
1392.544;-64.3
1392.743;-64.32
1392.943;-64.13
1393.142;-63.93
1393.341;-63.58
1393.54;-63.49
1393.739;-63.46
1393.938;-63.44
1394.137;-63.44
1394.336;-63.41
1394.535;-63.45
1394.735;-63.51
1394.934;-63.7
1395.133;-63.87
1395.332;-63.92
1395.531;-63.97
1395.73;-63.95
1395.929;-63.81
1396.128;-63.84
1396.327;-63.92
1396.527;-64.17
1396.726;-64.3
1396.925;-64.26
1397.124;-64.05
1397.323;-63.97
1397.522;-63.93
1397.721;-63.96
1397.92;-64.01
1398.12;-64.06
1398.319;-64.15
1398.518;-64.28
1398.717;-64.31
1398.916;-64.4
1399.115;-64.5
1399.314;-64.61
1399.513;-64.94
1399.712;-65.14
1399.912;-65.28
1400.111;-65.38
1400.31;-65.41
1400.509;-65.6
1400.708;-66.01
1400.907;-66.19
1401.106;-66.22
1401.305;-66.27
1401.504;-66.19
1401.704;-66.36
1401.903;-66.52
1402.102;-66.55
1402.301;-66.66
1402.5;-66.74
1402.699;-66.94
1402.898;-67.07
1403.097;-67.2
1403.297;-67.49
1403.496;-67.53
1403.695;-67.74
1403.894;-67.93
1404.093;-68.18
1404.292;-68.47
1404.491;-68.61
1404.69;-68.76
1404.889;-69.51
1405.089;-69.75
1405.288;-69.86
1405.487;-69.93
1405.686;-69.89
1405.885;-69.9
1406.084;-70.08
1406.283;-70.17
1406.482;-70.38
1406.681;-70.64
1406.881;-70.81
1407.08;-71.33
1407.279;-71.54
1407.478;-71.8
1407.677;-71.78
1407.876;-71.94
1408.075;-71.84
1408.274;-72.02
1408.474;-72.16
1408.673;-72.26
1408.872;-72.36
1409.071;-72.47
1409.27;-72.68
1409.469;-73.05
1409.668;-73.36
1409.867;-73.45
1410.066;-73.14
1410.266;-73.08
1410.465;-72.99
1410.664;-72.97
1410.863;-73.1
1411.062;-73.14
1411.261;-73.21
1411.46;-73.13
1411.659;-73.18
1411.858;-73.11
1412.058;-73.2
1412.257;-73.24
1412.456;-73.39
1412.655;-73.21
1412.854;-73.22
1413.053;-72.96
1413.252;-73.13
1413.451;-73.23
1413.65;-73.0
1413.85;-73.0
1414.049;-73.03
1414.248;-72.92
1414.447;-73.15
1414.646;-73.24
1414.845;-73.22
1415.044;-72.95
1415.243;-72.93
1415.443;-72.95
1415.642;-73.04
1415.841;-72.84
1416.04;-72.82
1416.239;-72.82
1416.438;-72.91
1416.637;-72.68
1416.836;-72.97
1417.035;-72.72
1417.235;-72.78
1417.434;-72.88
1417.633;-73.22
1417.832;-72.88
1418.031;-72.94
1418.23;-72.94
1418.429;-73.0
1418.628;-73.13
1418.827;-73.23
1419.027;-73.36
1419.226;-73.37
1419.425;-73.75
1419.624;-73.41
1419.823;-73.55
1420.022;-73.73
1420.221;-73.73
1420.42;-73.68
1420.62;-73.46
1420.819;-73.47
1421.018;-74.04
1421.217;-74.34
1421.416;-74.09
1421.615;-74.05
1421.814;-73.93
1422.013;-74.39
1422.212;-74.55
1422.412;-74.64
1422.611;-74.56
1422.81;-74.43
1423.009;-74.63
1423.208;-75.29
1423.407;-75.06
1423.606;-75.31
1423.805;-75.56
1424.004;-75.56
1424.204;-75.82
1424.403;-76.06
1424.602;-75.87
1424.801;-75.77
1425.0;-75.93
