Wavelength;Intensity_Meas;Intensity_Ref;Difference_dB
1200.0000;-62.1700;-57.0700;-5.1000
1200.1990;-62.1700;-57.0400;-5.1300
1200.3980;-62.0900;-57.0000;-5.0900
1200.5970;-61.9900;-56.9900;-5.0000
1200.7970;-61.9300;-56.9700;-4.9600
1200.9960;-61.9100;-56.9200;-4.9900
1201.1950;-61.8600;-56.8900;-4.9700
1201.3940;-61.7600;-56.8600;-4.9000
1201.5930;-61.6500;-56.8100;-4.8400
1201.7920;-61.6200;-56.7700;-4.8500
1201.9910;-61.6100;-56.7100;-4.9000
1202.1900;-61.5100;-56.6600;-4.8500
1202.3890;-61.4400;-56.6200;-4.8200
1202.5890;-61.4100;-56.5700;-4.8400
1202.7880;-61.3500;-56.5200;-4.8300
1202.9870;-61.3300;-56.4600;-4.8700
1203.1860;-61.2600;-56.4100;-4.8500
1203.3850;-61.2000;-56.3700;-4.8300
1203.5840;-61.2300;-56.3200;-4.9100
1203.7830;-61.2200;-56.2800;-4.9400
1203.9820;-61.1800;-56.2400;-4.9400
1204.1810;-61.1000;-56.1900;-4.9100
1204.3810;-61.1200;-56.1700;-4.9500
1204.5800;-61.1500;-56.1300;-5.0200
1204.7790;-61.1200;-56.0900;-5.0300
1204.9780;-61.1000;-56.0600;-5.0400
1205.1770;-61.1200;-56.0400;-5.0800
1205.3760;-61.1500;-56.0100;-5.1400
1205.5750;-61.2100;-55.9900;-5.2200
1205.7740;-61.1800;-55.9800;-5.2000
1205.9740;-61.1900;-55.9500;-5.2400
1206.1730;-61.2500;-55.9400;-5.3100
1206.3720;-61.2500;-55.9300;-5.3200
1206.5710;-61.2300;-55.9100;-5.3200
1206.7700;-61.1900;-55.8800;-5.3100
1206.9690;-61.2200;-55.8600;-5.3600
1207.1680;-61.2000;-55.8300;-5.3700
1207.3670;-61.1000;-55.8100;-5.2900
1207.5660;-61.0100;-55.7800;-5.2300
1207.7660;-60.9600;-55.7500;-5.2100
1207.9650;-60.9400;-55.7100;-5.2300
1208.1640;-60.8400;-55.6800;-5.1600
1208.3630;-60.7400;-55.6600;-5.0800
1208.5620;-60.6300;-55.6000;-5.0300
1208.7610;-60.5600;-55.5600;-5.0000
1208.9600;-60.4900;-55.5100;-4.9800
1209.1590;-60.3800;-55.4500;-4.9300
1209.3580;-60.2900;-55.4100;-4.8800
1209.5580;-60.2600;-55.3600;-4.9000
1209.7570;-60.1800;-55.3100;-4.8700
1209.9560;-60.1000;-55.2600;-4.8400
1210.1550;-60.0300;-55.2100;-4.8200
1210.3540;-60.0000;-55.1800;-4.8200
1210.5530;-59.9800;-55.1100;-4.8700
1210.7520;-59.9500;-55.0700;-4.8800
1210.9510;-59.9000;-55.0300;-4.8700
1211.1500;-59.8700;-54.9800;-4.8900
1211.3500;-59.9200;-54.9500;-4.9700
1211.5490;-59.9400;-54.9100;-5.0300
1211.7480;-59.9100;-54.8700;-5.0400
1211.9470;-59.9300;-54.8400;-5.0900
1212.1460;-59.9800;-54.8100;-5.1700
1212.3450;-60.0200;-54.7800;-5.2400
1212.5440;-60.0600;-54.7600;-5.3000
1212.7430;-60.0700;-54.7400;-5.3300
1212.9430;-60.1200;-54.7100;-5.4100
1213.1420;-60.1600;-54.6700;-5.4900
1213.3410;-60.1600;-54.6500;-5.5100
1213.5400;-60.1800;-54.6200;-5.5600
1213.7390;-60.1800;-54.6000;-5.5800
1213.9380;-60.1600;-54.5600;-5.6000
1214.1370;-60.1200;-54.5300;-5.5900
1214.3360;-60.0100;-54.5100;-5.5000
1214.5350;-60.0100;-54.4600;-5.5500
1214.7350;-59.9200;-54.4300;-5.4900
1214.9340;-59.8300;-54.3900;-5.4400
1215.1330;-59.7100;-54.3400;-5.3700
1215.3320;-59.6000;-54.3000;-5.3000
1215.5310;-59.5500;-54.2500;-5.3000
1215.7300;-59.4200;-54.2000;-5.2200
1215.9290;-59.2900;-54.1500;-5.1400
1216.1280;-59.1800;-54.1000;-5.0800
1216.3270;-59.1000;-54.0400;-5.0600
1216.5270;-59.0000;-53.9900;-5.0100
1216.7260;-58.8800;-53.9300;-4.9500
1216.9250;-58.7800;-53.8800;-4.9000
1217.1240;-58.7000;-53.8100;-4.8900
1217.3230;-58.6200;-53.7700;-4.8500
1217.5220;-58.5600;-53.7200;-4.8400
1217.7210;-58.4700;-53.6700;-4.8000
1217.9200;-58.4400;-53.6200;-4.8200
1218.1200;-58.4200;-53.5700;-4.8500
1218.3190;-58.3800;-53.5300;-4.8500
1218.5180;-58.3900;-53.4800;-4.9100
1218.7170;-58.4100;-53.4500;-4.9600
1218.9160;-58.4700;-53.4100;-5.0600
1219.1150;-58.4900;-53.3600;-5.1300
1219.3140;-58.5300;-53.3500;-5.1800
1219.5130;-58.5900;-53.3200;-5.2700
1219.7120;-58.6700;-53.2800;-5.3900
1219.9120;-58.7400;-53.2400;-5.5000
1220.1110;-58.7400;-53.2100;-5.5300
1220.3100;-58.7800;-53.1800;-5.6000
1220.5090;-58.8400;-53.1400;-5.7000
1220.7080;-58.8500;-53.1100;-5.7400
1220.9070;-58.8200;-53.0700;-5.7500
1221.1060;-58.7700;-53.0200;-5.7500
1221.3050;-58.7600;-52.9800;-5.7800
1221.5040;-58.7000;-52.9100;-5.7900
1221.7040;-58.6000;-52.8700;-5.7300
1221.9030;-58.5200;-52.8100;-5.7100
1222.1020;-58.4100;-52.7400;-5.6700
1222.3010;-58.3100;-52.7000;-5.6100
1222.5000;-58.1900;-52.6200;-5.5700
1222.6990;-58.0500;-52.5600;-5.4900
1222.8980;-57.9500;-52.4900;-5.4600
1223.0970;-57.8000;-52.4200;-5.3800
1223.2970;-57.6500;-52.3700;-5.2800
1223.4960;-57.5000;-52.2800;-5.2200
1223.6950;-57.3800;-52.2200;-5.1600
1223.8940;-57.2600;-52.1600;-5.1000
1224.0930;-57.0800;-52.0800;-5.0000
1224.2920;-56.9500;-52.0300;-4.9200
1224.4910;-56.8400;-51.9500;-4.8900
1224.6900;-56.7200;-51.8900;-4.8300
1224.8890;-56.6100;-51.8300;-4.7800
1225.0890;-56.4900;-51.7700;-4.7200
1225.2880;-56.4100;-51.7200;-4.6900
1225.4870;-56.3500;-51.6500;-4.7000
1225.6860;-56.2600;-51.6100;-4.6500
1225.8850;-56.2100;-51.5600;-4.6500
1226.0840;-56.1700;-51.5000;-4.6700
1226.2830;-56.1300;-51.4700;-4.6600
1226.4820;-56.0800;-51.4000;-4.6800
1226.6810;-56.0400;-51.3600;-4.6800
1226.8810;-56.0300;-51.3100;-4.7200
1227.0800;-55.9800;-51.2500;-4.7300
1227.2790;-55.9200;-51.2200;-4.7000
1227.4780;-55.8800;-51.1500;-4.7300
1227.6770;-55.8200;-51.1000;-4.7200
1227.8760;-55.7600;-51.0500;-4.7100
1228.0750;-55.6900;-50.9800;-4.7100
1228.2740;-55.6200;-50.9300;-4.6900
1228.4740;-55.5700;-50.8500;-4.7200
1228.6730;-55.5100;-50.7900;-4.7200
1228.8720;-55.4600;-50.7300;-4.7300
1229.0710;-55.3800;-50.6500;-4.7300
1229.2700;-55.3600;-50.5900;-4.7700
1229.4690;-55.3300;-50.5000;-4.8300
1229.6680;-55.2700;-50.4300;-4.8400
1229.8670;-55.2500;-50.3500;-4.9000
1230.0660;-55.2500;-50.2700;-4.9800
1230.2660;-55.2300;-50.2100;-5.0200
1230.4650;-55.2300;-50.1100;-5.1200
1230.6640;-55.2400;-50.0300;-5.2100
1230.8630;-55.3000;-49.9800;-5.3200
1231.0620;-55.3300;-49.9000;-5.4300
1231.2610;-55.3700;-49.8500;-5.5200
1231.4600;-55.4500;-49.7900;-5.6600
1231.6590;-55.5000;-49.7200;-5.7800
1231.8580;-55.5700;-49.6600;-5.9100
1232.0580;-55.6300;-49.6000;-6.0300
1232.2570;-55.7100;-49.5500;-6.1600
1232.4560;-55.8000;-49.4900;-6.3100
1232.6550;-55.8300;-49.4400;-6.3900
1232.8540;-55.8600;-49.3700;-6.4900
1233.0530;-55.8700;-49.3200;-6.5500
1233.2520;-55.8600;-49.2800;-6.5800
1233.4510;-55.8100;-49.2100;-6.6000
1233.6500;-55.7200;-49.1700;-6.5500
1233.8500;-55.6300;-49.1000;-6.5300
1234.0490;-55.4800;-49.0400;-6.4400
1234.2480;-55.2900;-48.9800;-6.3100
1234.4470;-55.1100;-48.9000;-6.2100
1234.6460;-54.9200;-48.8500;-6.0700
1234.8450;-54.7400;-48.7800;-5.9600
1235.0440;-54.4900;-48.7000;-5.7900
1235.2430;-54.3000;-48.6300;-5.6700
1235.4430;-54.1000;-48.5400;-5.5600
1235.6420;-53.9200;-48.4800;-5.4400
1235.8410;-53.7400;-48.3800;-5.3600
1236.0400;-53.5700;-48.3000;-5.2700
1236.2390;-53.4300;-48.2100;-5.2200
1236.4380;-53.2900;-48.1100;-5.1800
1236.6370;-53.1700;-48.0400;-5.1300
1236.8360;-53.0700;-47.9400;-5.1300
1237.0350;-52.9800;-47.8600;-5.1200
1237.2350;-52.9000;-47.7700;-5.1300
1237.4340;-52.8300;-47.6800;-5.1500
1237.6330;-52.8000;-47.6100;-5.1900
1237.8320;-52.7800;-47.5200;-5.2600
1238.0310;-52.7400;-47.4400;-5.3000
1238.2300;-52.7300;-47.3600;-5.3700
1238.4290;-52.7300;-47.2700;-5.4600
1238.6280;-52.7300;-47.2100;-5.5200
1238.8270;-52.7400;-47.1200;-5.6200
1239.0270;-52.7400;-47.0600;-5.6800
1239.2260;-52.7400;-46.9600;-5.7800
1239.4250;-52.7200;-46.8800;-5.8400
1239.6240;-52.7000;-46.8100;-5.8900
1239.8230;-52.6700;-46.7200;-5.9500
1240.0220;-52.6200;-46.6500;-5.9700
1240.2210;-52.5500;-46.5400;-6.0100
1240.4200;-52.4400;-46.4500;-5.9900
1240.6200;-52.3300;-46.3700;-5.9600
1240.8190;-52.2200;-46.2600;-5.9600
1241.0180;-52.0600;-46.1600;-5.9000
1241.2170;-51.9300;-46.0400;-5.8900
1241.4160;-51.7800;-45.9100;-5.8700
1241.6150;-51.6300;-45.8000;-5.8300
1241.8140;-51.5000;-45.6900;-5.8100
1242.0130;-51.3600;-45.5700;-5.7900
1242.2120;-51.2600;-45.4400;-5.8200
1242.4120;-51.1500;-45.3300;-5.8200
1242.6110;-51.0400;-45.1800;-5.8600
1242.8100;-50.9600;-45.0600;-5.9000
1243.0090;-50.8600;-44.9200;-5.9400
1243.2080;-50.7900;-44.8000;-5.9900
1243.4070;-50.6900;-44.6800;-6.0100
1243.6060;-50.5900;-44.5300;-6.0600
1243.8050;-50.5100;-44.4100;-6.1000
1244.0040;-50.3900;-44.2800;-6.1100
1244.2040;-50.2700;-44.1500;-6.1200
1244.4030;-50.1400;-44.0300;-6.1100
1244.6020;-49.9800;-43.8800;-6.1000
1244.8010;-49.8400;-43.7600;-6.0800
1245.0000;-49.6600;-43.6400;-6.0200
1245.1990;-49.5000;-43.5100;-5.9900
1245.3980;-49.3000;-43.4000;-5.9000
1245.5970;-49.1000;-43.2500;-5.8500
1245.7970;-48.9100;-43.1300;-5.7800
1245.9960;-48.7000;-42.9900;-5.7100
1246.1950;-48.5100;-42.8500;-5.6600
1246.3940;-48.3000;-42.7300;-5.5700
1246.5930;-48.1100;-42.5700;-5.5400
1246.7920;-47.9300;-42.4300;-5.5000
1246.9910;-47.7400;-42.2800;-5.4600
1247.1900;-47.5900;-42.1200;-5.4700
1247.3890;-47.4500;-41.9800;-5.4700
1247.5890;-47.3200;-41.8100;-5.5100
1247.7880;-47.2300;-41.6600;-5.5700
1247.9870;-47.1600;-41.4900;-5.6700
1248.1860;-47.1400;-41.3300;-5.8100
1248.3850;-47.1200;-41.1800;-5.9400
1248.5840;-47.1400;-41.0000;-6.1400
1248.7830;-47.2000;-40.8400;-6.3600
1248.9820;-47.2800;-40.6800;-6.6000
1249.1810;-47.3800;-40.5200;-6.8600
1249.3810;-47.4800;-40.3600;-7.1200
1249.5800;-47.5700;-40.1800;-7.3900
1249.7790;-47.6500;-40.0300;-7.6200
1249.9780;-47.6700;-39.8600;-7.8100
1250.1770;-47.6600;-39.7000;-7.9600
1250.3760;-47.5500;-39.5600;-7.9900
1250.5750;-47.3500;-39.3900;-7.9600
1250.7740;-47.0700;-39.2300;-7.8400
1250.9740;-46.7100;-39.0900;-7.6200
1251.1730;-46.2600;-38.9300;-7.3300
1251.3720;-45.6600;-38.7900;-6.8700
1251.5710;-45.2100;-38.6400;-6.5700
1251.7700;-44.6300;-38.4900;-6.1400
1251.9690;-44.0500;-38.3300;-5.7200
1252.1680;-43.4700;-38.1700;-5.3000
1252.3670;-42.9000;-38.0300;-4.8700
1252.5660;-42.3800;-37.8700;-4.5100
1252.7660;-41.8500;-37.7100;-4.1400
1252.9650;-41.3900;-37.5600;-3.8300
1253.1640;-40.9500;-37.3900;-3.5600
1253.3630;-40.5400;-37.2400;-3.3000
1253.5620;-40.2000;-37.0800;-3.1200
1253.7610;-39.8700;-36.9200;-2.9500
1253.9600;-39.6200;-36.7600;-2.8600
1254.1590;-39.4000;-36.5900;-2.8100
1254.3580;-39.2200;-36.4400;-2.7800
1254.5580;-39.1300;-36.2700;-2.8600
1254.7570;-39.0400;-36.1200;-2.9200
1254.9560;-39.0300;-35.9500;-3.0800
1255.1550;-39.0700;-35.7800;-3.2900
1255.3540;-39.1500;-35.6400;-3.5100
1255.5530;-39.3000;-35.4900;-3.8100
1255.7520;-39.4700;-35.3400;-4.1300
1255.9510;-39.7000;-35.1700;-4.5300
1256.1500;-39.9700;-35.0400;-4.9300
1256.3500;-40.2800;-34.8700;-5.4100
1256.5490;-40.6400;-34.7200;-5.9200
1256.7480;-40.9700;-34.5700;-6.4000
1256.9470;-41.3200;-34.4200;-6.9000
1257.1460;-41.6300;-34.2700;-7.3600
1257.3450;-41.8800;-34.1000;-7.7800
1257.5440;-42.0500;-33.9600;-8.0900
1257.7430;-42.0600;-33.8100;-8.2500
1257.9430;-41.9200;-33.6500;-8.2700
1258.1420;-41.6100;-33.5100;-8.1000
1258.3410;-41.1600;-33.3400;-7.8200
1258.5400;-40.6000;-33.1900;-7.4100
1258.7390;-39.9500;-33.0300;-6.9200
1258.9380;-39.2900;-32.8700;-6.4200
1259.1370;-38.6100;-32.7300;-5.8800
1259.3360;-37.9600;-32.5600;-5.4000
1259.5350;-37.3500;-32.4200;-4.9300
1259.7350;-36.7700;-32.2700;-4.5000
1259.9340;-36.2500;-32.1100;-4.1400
1260.1330;-35.7000;-31.9700;-3.7300
1260.3320;-35.3700;-31.8100;-3.5600
1260.5310;-35.0200;-31.6800;-3.3400
1260.7300;-34.7200;-31.5300;-3.1900
1260.9290;-34.4800;-31.3800;-3.1000
1261.1280;-34.2800;-31.2500;-3.0300
1261.3270;-34.1600;-31.0900;-3.0700
1261.5270;-34.0800;-30.9700;-3.1100
1261.7260;-34.0400;-30.8200;-3.2200
1261.9250;-34.0600;-30.6800;-3.3800
1262.1240;-34.1200;-30.5500;-3.5700
1262.3230;-34.2400;-30.4000;-3.8400
1262.5220;-34.3900;-30.2700;-4.1200
1262.7210;-34.5800;-30.1300;-4.4500
1262.9200;-34.8000;-29.9800;-4.8200
1263.1200;-35.0300;-29.8500;-5.1800
1263.3190;-35.2700;-29.6900;-5.5800
1263.5180;-35.5000;-29.5600;-5.9400
1263.7170;-35.7000;-29.4100;-6.2900
1263.9160;-35.8300;-29.2600;-6.5700
1264.1150;-35.8900;-29.1300;-6.7600
1264.3140;-35.8500;-28.9600;-6.8900
1264.5130;-35.6800;-28.8300;-6.8500
1264.7120;-35.3900;-28.6800;-6.7100
1264.9120;-35.0000;-28.5300;-6.4700
1265.1110;-34.5300;-28.3900;-6.1400
1265.3100;-34.0200;-28.2300;-5.7900
1265.5090;-33.4700;-28.1000;-5.3700
1265.7080;-32.9400;-27.9500;-4.9900
1265.9070;-32.4100;-27.8100;-4.6000
1266.1060;-31.9100;-27.6800;-4.2300
1266.3050;-31.4700;-27.5400;-3.9300
1266.5040;-31.0600;-27.4200;-3.6400
1266.7040;-30.7000;-27.2900;-3.4100
1266.9030;-30.4000;-27.1600;-3.2400
1267.1020;-30.1400;-27.0400;-3.1000
1267.3010;-29.9700;-26.9100;-3.0600
1267.5000;-29.8400;-26.8000;-3.0400
1267.6990;-29.7800;-26.6800;-3.1000
1267.8980;-29.7700;-26.5600;-3.2100
1268.0970;-29.8300;-26.4600;-3.3700
1268.2970;-29.9600;-26.3300;-3.6300
1268.4960;-30.1500;-26.2300;-3.9200
1268.6950;-30.4100;-26.0800;-4.3300
1268.8940;-30.7500;-25.9900;-4.7600
1269.0930;-31.1700;-25.8800;-5.2900
1269.2920;-31.7000;-25.7500;-5.9500
1269.4910;-32.3300;-25.6500;-6.6800
1269.6900;-33.0800;-25.5100;-7.5700
1269.8890;-33.9600;-25.3900;-8.5700
1270.0890;-35.0100;-25.2600;-9.7500
1270.2880;-36.2400;-25.1300;-11.1100
1270.4870;-37.6400;-25.0300;-12.6100
1270.6860;-39.4100;-24.8900;-14.5200
1270.8850;-40.2700;-24.7600;-15.5100
1271.0840;-40.5200;-24.6300;-15.8900
1271.2830;-39.6200;-24.5100;-15.1100
1271.4820;-38.0500;-24.3900;-13.6600
1271.6810;-36.3600;-24.2600;-12.1000
1271.8810;-34.5200;-24.1500;-10.3700
1272.0800;-33.3500;-24.0300;-9.3200
1272.2790;-32.1300;-23.9100;-8.2200
1272.4780;-31.0800;-23.8200;-7.2600
1272.6770;-30.1400;-23.7000;-6.4400
1272.8760;-29.3400;-23.6100;-5.7300
1273.0750;-28.6300;-23.5000;-5.1300
1273.2740;-28.0100;-23.4000;-4.6100
1273.4740;-27.4800;-23.3200;-4.1600
1273.6730;-27.0100;-23.2100;-3.8000
1273.8720;-26.6200;-23.1300;-3.4900
1274.0710;-26.2800;-23.0300;-3.2500
1274.2700;-25.9600;-22.9300;-3.0300
1274.4690;-25.7700;-22.8500;-2.9200
1274.6680;-25.5900;-22.7500;-2.8400
1274.8670;-25.4600;-22.6600;-2.8000
1275.0660;-25.3700;-22.5600;-2.8100
1275.2660;-25.3400;-22.4700;-2.8700
1275.4650;-25.3200;-22.3800;-2.9400
1275.6640;-25.3600;-22.2700;-3.0900
1275.8630;-25.4400;-22.1800;-3.2600
1276.0620;-25.5400;-22.0700;-3.4700
1276.2610;-25.7000;-21.9700;-3.7300
1276.4600;-25.8600;-21.8700;-3.9900
1276.6590;-26.0400;-21.7500;-4.2900
1276.8580;-26.2300;-21.6600;-4.5700
1277.0580;-26.4100;-21.5400;-4.8700
1277.2570;-26.6100;-21.4500;-5.1600
1277.4560;-26.7500;-21.3500;-5.4000
1277.6550;-26.8600;-21.2400;-5.6200
1277.8540;-26.9100;-21.1600;-5.7500
1278.0530;-26.9000;-21.0500;-5.8500
1278.2520;-26.8400;-20.9600;-5.8800
1278.4510;-26.6900;-20.8700;-5.8200
1278.6500;-26.5000;-20.7700;-5.7300
1278.8500;-26.2400;-20.7000;-5.5400
1279.0490;-25.9600;-20.6000;-5.3600
1279.2480;-25.6500;-20.5200;-5.1300
1279.4470;-25.3100;-20.4400;-4.8700
1279.6460;-24.9700;-20.3500;-4.6200
1279.8450;-24.6100;-20.2800;-4.3300
1280.0440;-24.2800;-20.1900;-4.0900
1280.2430;-23.9600;-20.1300;-3.8300
1280.4430;-23.6400;-20.0400;-3.6000
1280.6420;-23.3600;-19.9700;-3.3900
1280.8410;-23.0700;-19.9000;-3.1700
1281.0400;-22.8300;-19.8200;-3.0100
1281.2390;-22.6000;-19.7500;-2.8500
1281.4380;-22.4000;-19.6700;-2.7300
1281.6370;-22.2300;-19.6000;-2.6300
1281.8360;-22.0500;-19.5300;-2.5200
1282.0350;-21.9200;-19.4500;-2.4700
1282.2350;-21.8000;-19.3900;-2.4100
1282.4340;-21.6800;-19.3000;-2.3800
1282.6330;-21.6200;-19.2400;-2.3800
1282.8320;-21.5200;-19.1700;-2.3500
1283.0310;-21.4500;-19.0900;-2.3600
1283.2300;-21.3700;-19.0200;-2.3500
1283.4290;-21.3000;-18.9400;-2.3600
1283.6280;-21.2400;-18.8700;-2.3700
1283.8270;-21.1600;-18.8000;-2.3600
1284.0270;-21.0900;-18.7200;-2.3700
1284.2260;-21.0100;-18.6600;-2.3500
1284.4250;-20.9200;-18.5800;-2.3400
1284.6240;-20.8500;-18.5100;-2.3400
1284.8230;-20.7500;-18.4300;-2.3200
1285.0220;-20.6600;-18.3600;-2.3000
1285.2210;-20.5600;-18.3000;-2.2600
1285.4200;-20.4700;-18.2200;-2.2500
1285.6200;-20.3900;-18.1600;-2.2300
1285.8190;-20.3000;-18.1000;-2.2000
1286.0180;-20.2400;-18.0300;-2.2100
1286.2170;-20.1600;-17.9800;-2.1800
1286.4160;-20.1000;-17.9100;-2.1900
1286.6150;-20.0700;-17.8800;-2.1900
1286.8140;-20.0400;-17.8200;-2.2200
1287.0130;-20.0300;-17.7600;-2.2700
1287.2120;-20.0200;-17.7200;-2.3000
1287.4120;-20.0300;-17.6600;-2.3700
1287.6110;-20.0600;-17.6300;-2.4300
1287.8100;-20.0900;-17.5700;-2.5200
1288.0090;-20.1400;-17.5200;-2.6200
1288.2080;-20.1800;-17.4800;-2.7000
1288.4070;-20.2300;-17.4300;-2.8000
1288.6060;-20.2800;-17.4000;-2.8800
1288.8050;-20.3100;-17.3400;-2.9700
1289.0040;-20.3500;-17.3000;-3.0500
1289.2040;-20.3400;-17.2500;-3.0900
1289.4030;-20.3300;-17.1900;-3.1400
1289.6020;-20.2800;-17.1600;-3.1200
1289.8010;-20.2100;-17.0900;-3.1200
1290.0000;-20.1200;-17.0400;-3.0800
1290.1990;-19.9800;-16.9900;-2.9900
1290.3980;-19.8400;-16.9300;-2.9100
1290.5970;-19.6600;-16.8900;-2.7700
1290.7970;-19.4700;-16.8200;-2.6500
1290.9960;-19.2600;-16.7600;-2.5000
1291.1950;-19.0500;-16.7000;-2.3500
1291.3940;-18.8500;-16.6400;-2.2100
1291.5930;-18.6200;-16.5800;-2.0400
1291.7920;-18.4400;-16.5200;-1.9200
1291.9910;-18.2700;-16.4800;-1.7900
1292.1900;-18.1100;-16.4200;-1.6900
1292.3890;-18.0000;-16.3800;-1.6200
1292.5890;-17.8800;-16.3300;-1.5500
1292.7880;-17.8100;-16.2800;-1.5300
1292.9870;-17.7700;-16.2500;-1.5200
1293.1860;-17.7700;-16.2100;-1.5600
1293.3850;-17.8100;-16.1800;-1.6300
1293.5840;-17.8600;-16.1400;-1.7200
1293.7830;-17.9900;-16.1200;-1.8700
1293.9820;-18.1300;-16.0900;-2.0400
1294.1810;-18.3200;-16.0700;-2.2500
1294.3810;-18.5700;-16.0600;-2.5100
1294.5800;-18.8300;-16.0200;-2.8100
1294.7790;-19.1700;-16.0100;-3.1600
1294.9780;-19.5200;-15.9800;-3.5400
1295.1770;-19.9300;-15.9600;-3.9700
1295.3760;-20.3700;-15.9400;-4.4300
1295.5750;-20.8300;-15.9000;-4.9300
1295.7740;-21.3200;-15.8900;-5.4300
1295.9740;-21.7800;-15.8400;-5.9400
1296.1730;-22.2400;-15.8200;-6.4200
1296.3720;-22.6100;-15.7900;-6.8200
1296.5710;-22.8800;-15.7400;-7.1400
1296.7700;-23.0300;-15.7200;-7.3100
1296.9690;-23.0100;-15.6800;-7.3300
1297.1680;-22.8500;-15.6500;-7.2000
1297.3670;-22.5400;-15.6100;-6.9300
1297.5660;-22.1200;-15.5600;-6.5600
1297.7660;-21.6300;-15.5400;-6.0900
1297.9650;-21.1100;-15.4900;-5.6200
1298.1640;-20.5900;-15.4600;-5.1300
1298.3630;-20.0600;-15.4300;-4.6300
1298.5620;-19.5700;-15.3800;-4.1900
1298.7610;-19.1000;-15.3600;-3.7400
1298.9600;-18.6800;-15.3300;-3.3500
1299.1590;-18.3100;-15.3200;-2.9900
1299.3580;-17.9600;-15.2900;-2.6700
1299.5580;-17.6700;-15.2600;-2.4100
1299.7570;-17.4100;-15.2500;-2.1600
1299.9560;-17.2000;-15.2400;-1.9600
1300.1550;-17.0300;-15.2400;-1.7900
1300.3540;-16.9000;-15.2200;-1.6800
1300.5530;-16.8100;-15.2100;-1.6000
1300.7520;-16.7500;-15.2100;-1.5400
1300.9510;-16.7400;-15.2000;-1.5400
1301.1500;-16.7700;-15.2200;-1.5500
1301.3500;-16.8200;-15.2100;-1.6100
1301.5490;-16.9400;-15.2200;-1.7200
1301.7480;-17.0600;-15.2200;-1.8400
1301.9470;-17.2400;-15.2200;-2.0200
1302.1460;-17.4400;-15.2400;-2.2000
1302.3450;-17.6700;-15.2300;-2.4400
1302.5440;-17.9600;-15.2500;-2.7100
1302.7430;-18.2700;-15.2400;-3.0300
1302.9430;-18.6200;-15.2400;-3.3800
1303.1420;-19.0000;-15.2600;-3.7400
1303.3410;-19.4200;-15.2500;-4.1700
1303.5400;-19.8900;-15.2700;-4.6200
1303.7390;-20.3700;-15.2500;-5.1200
1303.9380;-20.9000;-15.2600;-5.6400
1304.1370;-21.4600;-15.2700;-6.1900
1304.3360;-22.0600;-15.2700;-6.7900
1304.5350;-22.6900;-15.2800;-7.4100
1304.7350;-23.3400;-15.2700;-8.0700
1304.9340;-24.0400;-15.2800;-8.7600
1305.1330;-24.7300;-15.2800;-9.4500
1305.3320;-25.4400;-15.2800;-10.1600
1305.5310;-26.1400;-15.3100;-10.8300
1305.7300;-26.7900;-15.3000;-11.4900
1305.9290;-27.3600;-15.3100;-12.0500
1306.1280;-27.7900;-15.3200;-12.4700
1306.3270;-28.0400;-15.3300;-12.7100
1306.5270;-28.0500;-15.3600;-12.6900
1306.7260;-27.8300;-15.3700;-12.4600
1306.9250;-27.4000;-15.3900;-12.0100
1307.1240;-26.8300;-15.4000;-11.4300
1307.3230;-26.1600;-15.4200;-10.7400
1307.5220;-25.4300;-15.4600;-9.9700
1307.7210;-24.7100;-15.4700;-9.2400
1307.9200;-23.9800;-15.4900;-8.4900
1308.1200;-23.2900;-15.5200;-7.7700
1308.3190;-22.6300;-15.5400;-7.0900
1308.5180;-22.0100;-15.5700;-6.4400
1308.7170;-21.4300;-15.5900;-5.8400
1308.9160;-20.8700;-15.6200;-5.2500
1309.1150;-20.3800;-15.6400;-4.7400
1309.3140;-19.9200;-15.6700;-4.2500
1309.5130;-19.5000;-15.7000;-3.8000
1309.7120;-19.1300;-15.7100;-3.4200
1309.9120;-18.7800;-15.7500;-3.0300
1310.1110;-18.4900;-15.7700;-2.7200
1310.3100;-18.2300;-15.8000;-2.4300
1310.5090;-18.0200;-15.8200;-2.2000
1310.7080;-17.8400;-15.8400;-2.0000
1310.9070;-17.6900;-15.8800;-1.8100
1311.1060;-17.6200;-15.9100;-1.7100
1311.3050;-17.5600;-15.9400;-1.6200
1311.5040;-17.5600;-15.9800;-1.5800
1311.7040;-17.6000;-16.0100;-1.5900
1311.9030;-17.6700;-16.0500;-1.6200
1312.1020;-17.8100;-16.0800;-1.7300
1312.3010;-17.9800;-16.1400;-1.8400
1312.5000;-18.2300;-16.1800;-2.0500
1312.6990;-18.5100;-16.2300;-2.2800
1312.8980;-18.8400;-16.2700;-2.5700
1313.0970;-19.2500;-16.3200;-2.9300
1313.2970;-19.7000;-16.3800;-3.3200
1313.4960;-20.2500;-16.4400;-3.8100
1313.6950;-20.8400;-16.5000;-4.3400
1313.8940;-21.5200;-16.5400;-4.9800
1314.0930;-22.2800;-16.6100;-5.6700
1314.2920;-23.1100;-16.6700;-6.4400
1314.4910;-24.0200;-16.7300;-7.2900
1314.6900;-24.9600;-16.8000;-8.1600
1314.8890;-25.9100;-16.8400;-9.0700
1315.0890;-26.7500;-16.9000;-9.8500
1315.2880;-27.3800;-16.9500;-10.4300
1315.4870;-27.6600;-17.0100;-10.6500
1315.6860;-27.5000;-17.0800;-10.4200
1315.8850;-26.9900;-17.1200;-9.8700
1316.0840;-26.2300;-17.1800;-9.0500
1316.2830;-25.4000;-17.2300;-8.1700
1316.4820;-24.5700;-17.2900;-7.2800
1316.6810;-23.7700;-17.3500;-6.4200
1316.8810;-23.0600;-17.4000;-5.6600
1317.0800;-22.4200;-17.4900;-4.9300
1317.2790;-21.8700;-17.5300;-4.3400
1317.4780;-21.3800;-17.6100;-3.7700
1317.6770;-20.9800;-17.6700;-3.3100
1317.8760;-20.6400;-17.7300;-2.9100
1318.0750;-20.3600;-17.8000;-2.5600
1318.2740;-20.1700;-17.8600;-2.3100
1318.4740;-20.0200;-17.9400;-2.0800
1318.6730;-19.9600;-18.0200;-1.9400
1318.8720;-19.9200;-18.0900;-1.8300
1319.0710;-19.9700;-18.1800;-1.7900
1319.2700;-20.0700;-18.2500;-1.8200
1319.4690;-20.2100;-18.3500;-1.8600
1319.6680;-20.4400;-18.4300;-2.0100
1319.8670;-20.6900;-18.5500;-2.1400
1320.0660;-21.0200;-18.6100;-2.4100
1320.2660;-21.4000;-18.7100;-2.6900
1320.4650;-21.8500;-18.8000;-3.0500
1320.6640;-22.3700;-18.9000;-3.4700
1320.8630;-22.9300;-18.9900;-3.9400
1321.0620;-23.5700;-19.0800;-4.4900
1321.2610;-24.2500;-19.1900;-5.0600
1321.4600;-24.9800;-19.2700;-5.7100
1321.6590;-25.7400;-19.3700;-6.3700
1321.8580;-26.4800;-19.4700;-7.0100
1322.0580;-27.1900;-19.5600;-7.6300
1322.2570;-27.7700;-19.6700;-8.1000
1322.4560;-28.1900;-19.7500;-8.4400
1322.6550;-28.3400;-19.8500;-8.4900
1322.8540;-28.2600;-19.9500;-8.3100
1323.0530;-27.9700;-20.0500;-7.9200
1323.2520;-27.5200;-20.1700;-7.3500
1323.4510;-27.0200;-20.2600;-6.7600
1323.6500;-26.4700;-20.3700;-6.1000
1323.8500;-25.9600;-20.4700;-5.4900
1324.0490;-25.4800;-20.5800;-4.9000
1324.2480;-25.0600;-20.7000;-4.3600
1324.4470;-24.7100;-20.8000;-3.9100
1324.6460;-24.4000;-20.9200;-3.4800
1324.8450;-24.1700;-21.0300;-3.1400
1325.0440;-23.9900;-21.1500;-2.8400
1325.2430;-23.8800;-21.2800;-2.6000
1325.4430;-23.8300;-21.4000;-2.4300
1325.6420;-23.8500;-21.5500;-2.3000
1325.8410;-23.9400;-21.6700;-2.2700
1326.0400;-24.0700;-21.8000;-2.2700
1326.2390;-24.2800;-21.9400;-2.3400
1326.4380;-24.5300;-22.0700;-2.4600
1326.6370;-24.8600;-22.2200;-2.6400
1326.8360;-25.2500;-22.3400;-2.9100
1327.0350;-25.7100;-22.4800;-3.2300
1327.2350;-26.2600;-22.6200;-3.6400
1327.4340;-26.8700;-22.7500;-4.1200
1327.6330;-27.5800;-22.9000;-4.6800
1327.8320;-28.3800;-23.0200;-5.3600
1328.0310;-29.4600;-23.1700;-6.2900
1328.2300;-30.3100;-23.3000;-7.0100
1328.4290;-31.4700;-23.4400;-8.0300
1328.6280;-32.7900;-23.5800;-9.2100
1328.8270;-34.2500;-23.7100;-10.5400
1329.0270;-35.8800;-23.8600;-12.0200
1329.2260;-37.5200;-23.9800;-13.5400
1329.4250;-39.2300;-24.1200;-15.1100
1329.6240;-39.6400;-24.2500;-15.3900
1329.8230;-39.3300;-24.3800;-14.9500
1330.0220;-38.3200;-24.5300;-13.7900
1330.2210;-37.0600;-24.6600;-12.4000
1330.4200;-35.6300;-24.8000;-10.8300
1330.6200;-34.7400;-24.9300;-9.8100
1330.8190;-33.8200;-25.0800;-8.7400
1331.0180;-33.0300;-25.2300;-7.8000
1331.2170;-32.4000;-25.3800;-7.0200
1331.4160;-31.8600;-25.5400;-6.3200
1331.6150;-31.4400;-25.6800;-5.7600
1331.8140;-31.1100;-25.8400;-5.2700
1332.0130;-30.8600;-26.0000;-4.8600
1332.2120;-30.7000;-26.1500;-4.5500
1332.4120;-30.5800;-26.3300;-4.2500
1332.6110;-30.5500;-26.4900;-4.0600
1332.8100;-30.5500;-26.6600;-3.8900
1333.0090;-30.6100;-26.8200;-3.7900
1333.2080;-30.7100;-26.9900;-3.7200
1333.4070;-30.8300;-27.1600;-3.6700
1333.6060;-31.0100;-27.3300;-3.6800
1333.8050;-31.2000;-27.5100;-3.6900
1334.0040;-31.4100;-27.6600;-3.7500
1334.2040;-31.6300;-27.8400;-3.7900
1334.4030;-31.8500;-28.0100;-3.8400
1334.6020;-32.0700;-28.1600;-3.9100
1334.8010;-32.2600;-28.3400;-3.9200
1335.0000;-32.4600;-28.5400;-3.9200
1335.1990;-32.6200;-28.6800;-3.9400
1335.3980;-32.7500;-28.8300;-3.9200
1335.5970;-32.8600;-29.0100;-3.8500
1335.7970;-32.9400;-29.1700;-3.7700
1335.9960;-33.0100;-29.3400;-3.6700
1336.1950;-33.0400;-29.5100;-3.5300
1336.3940;-33.0600;-29.6700;-3.3900
1336.5930;-33.0800;-29.8500;-3.2300
1336.7920;-33.0900;-30.0000;-3.0900
1336.9910;-33.1300;-30.1700;-2.9600
1337.1900;-33.1500;-30.3400;-2.8100
1337.3890;-33.2200;-30.5100;-2.7100
1337.5890;-33.2900;-30.6900;-2.6000
1337.7880;-33.4000;-30.8600;-2.5400
1337.9870;-33.5400;-31.0500;-2.4900
1338.1860;-33.6900;-31.2100;-2.4800
1338.3850;-33.9000;-31.3900;-2.5100
1338.5840;-34.1300;-31.5800;-2.5500
1338.7830;-34.4000;-31.7500;-2.6500
1338.9820;-34.7200;-31.9500;-2.7700
1339.1810;-35.0600;-32.1300;-2.9300
1339.3810;-35.4500;-32.3200;-3.1300
1339.5800;-35.8500;-32.5000;-3.3500
1339.7790;-36.3000;-32.6800;-3.6200
1339.9780;-36.7700;-32.8800;-3.8900
1340.1770;-37.2500;-33.0600;-4.1900
1340.3760;-37.7600;-33.2700;-4.4900
1340.5750;-38.2300;-33.4500;-4.7800
1340.7740;-38.7800;-33.6400;-5.1400
1340.9740;-39.0900;-33.8200;-5.2700
1341.1730;-39.4300;-34.0000;-5.4300
1341.3720;-39.6700;-34.1900;-5.4800
1341.5710;-39.8400;-34.3700;-5.4700
1341.7700;-39.9100;-34.5600;-5.3500
1341.9690;-39.8900;-34.7400;-5.1500
1342.1680;-39.8100;-34.9100;-4.9000
1342.3670;-39.6600;-35.0900;-4.5700
1342.5660;-39.4900;-35.2700;-4.2200
1342.7660;-39.3100;-35.4600;-3.8500
1342.9650;-39.1300;-35.6300;-3.5000
1343.1640;-38.9800;-35.8100;-3.1700
1343.3630;-38.8400;-35.9900;-2.8500
1343.5620;-38.7400;-36.1600;-2.5800
1343.7610;-38.6700;-36.3600;-2.3100
1343.9600;-38.6500;-36.5400;-2.1100
1344.1590;-38.6800;-36.7300;-1.9500
1344.3580;-38.7400;-36.9100;-1.8300
1344.5580;-38.8700;-37.1000;-1.7700
1344.7570;-39.0200;-37.3000;-1.7200
1344.9560;-39.2300;-37.4700;-1.7600
1345.1550;-39.5000;-37.6600;-1.8400
1345.3540;-39.8100;-37.8300;-1.9800
1345.5530;-40.1900;-38.0200;-2.1700
1345.7520;-40.6200;-38.2100;-2.4100
1345.9510;-41.1300;-38.3900;-2.7400
1346.1500;-41.7000;-38.6300;-3.0700
1346.3500;-42.3500;-38.7900;-3.5600
1346.5490;-43.1000;-39.0000;-4.1000
1346.7480;-43.9000;-39.1800;-4.7200
1346.9470;-44.8300;-39.3700;-5.4600
1347.1460;-45.8500;-39.5500;-6.3000
1347.3450;-46.9900;-39.7200;-7.2700
1347.5440;-48.3100;-39.9500;-8.3600
1347.7430;-50.1600;-40.1800;-9.9800
1347.9430;-51.4900;-40.4000;-11.0900
1348.1420;-53.2200;-40.5700;-12.6500
1348.3410;-54.8800;-40.7600;-14.1200
1348.5400;-55.9400;-40.9100;-15.0300
1348.7390;-56.0600;-41.0700;-14.9900
1348.9380;-55.2600;-41.2400;-14.0200
1349.1370;-54.0500;-41.3900;-12.6600
1349.3360;-52.8100;-41.5500;-11.2600
1349.5350;-51.6800;-41.7100;-9.9700
1349.7350;-50.7300;-41.8600;-8.8700
1349.9340;-49.9400;-42.0500;-7.8900
1350.1330;-49.3300;-42.2300;-7.1000
1350.3320;-48.9100;-42.4800;-6.4300
1350.5310;-48.5200;-42.6800;-5.8400
1350.7300;-48.2300;-42.8500;-5.3800
1350.9290;-47.9800;-43.0100;-4.9700
1351.1280;-47.8300;-43.1300;-4.7000
1351.3270;-47.7900;-43.3000;-4.4900
1351.5270;-47.8600;-43.4800;-4.3800
1351.7260;-48.0800;-43.7100;-4.3700
1351.9250;-48.3100;-43.9100;-4.4000
1352.1240;-48.6400;-44.0800;-4.5600
1352.3230;-49.0300;-44.2800;-4.7500
1352.5220;-49.5500;-44.4800;-5.0700
1352.7210;-50.1200;-44.6600;-5.4600
1352.9200;-50.8000;-44.8100;-5.9900
1353.1200;-51.7000;-45.0800;-6.6200
1353.3190;-52.5500;-45.2000;-7.3500
1353.5180;-53.6600;-45.3800;-8.2800
1353.7170;-54.9500;-45.5800;-9.3700
1353.9160;-56.3200;-45.6800;-10.6400
1354.1150;-57.9500;-45.8500;-12.1000
1354.3140;-60.1900;-46.0700;-14.1200
1354.5130;-61.4100;-46.2700;-15.1400
1354.7120;-62.3800;-46.5900;-15.7900
1354.9120;-62.1600;-46.8600;-15.3000
1355.1110;-60.7600;-47.0600;-13.7000
1355.3100;-59.0900;-47.1600;-11.9300
1355.5090;-57.4700;-47.1700;-10.3000
1355.7080;-56.4400;-47.4200;-9.0200
1355.9070;-55.3000;-47.6900;-7.6100
1356.1060;-54.4900;-47.8500;-6.6400
1356.3050;-53.6000;-47.9300;-5.6700
1356.5040;-52.8800;-48.0300;-4.8500
1356.7040;-52.2000;-47.9300;-4.2700
1356.9030;-51.7700;-48.0800;-3.6900
1357.1020;-51.6900;-48.5100;-3.1800
1357.3010;-51.4900;-48.6600;-2.8300
1357.5000;-51.3200;-48.8300;-2.4900
1357.6990;-51.2400;-49.0000;-2.2400
1357.8980;-51.1200;-49.0700;-2.0500
1358.0970;-51.0700;-49.1200;-1.9500
1358.2970;-51.1900;-49.3000;-1.8900
1358.4960;-51.4500;-49.5200;-1.9300
1358.6950;-51.6800;-49.6600;-2.0200
1358.8940;-51.9900;-49.8200;-2.1700
1359.0930;-52.3800;-49.9700;-2.4100
1359.2920;-52.7200;-50.0300;-2.6900
1359.4910;-53.4200;-50.3900;-3.0300
1359.6900;-54.1800;-50.7000;-3.4800
1359.8890;-54.9800;-50.9000;-4.0800
1360.0890;-55.7700;-50.9500;-4.8200
1360.2880;-56.5800;-51.0100;-5.5700
1360.4870;-57.4200;-50.9900;-6.4300
1360.6860;-58.8400;-51.1700;-7.6700
1360.8850;-60.0700;-51.5100;-8.5600
1361.0840;-61.6100;-51.8000;-9.8100
1361.2830;-63.1400;-51.9900;-11.1500
1361.4820;-64.4800;-52.1300;-12.3500
1361.6810;-65.2100;-52.3600;-12.8500
1361.8810;-64.9600;-52.4800;-12.4800
1362.0800;-64.1400;-52.7100;-11.4300
1362.2790;-63.3600;-53.1200;-10.2400
1362.4780;-62.3200;-53.3500;-8.9700
1362.6770;-61.0900;-53.4900;-7.6000
1362.8760;-59.8400;-53.3600;-6.4800
1363.0750;-58.8200;-53.3200;-5.5000
1363.2740;-57.9200;-53.0700;-4.8500
1363.4740;-57.3300;-53.1500;-4.1800
1363.6730;-56.8700;-53.2300;-3.6400
1363.8720;-56.5400;-53.3700;-3.1700
1364.0710;-56.3600;-53.5900;-2.7700
1364.2700;-56.2500;-53.7800;-2.4700
1364.4690;-56.3400;-54.0900;-2.2500
1364.6680;-56.7100;-54.5900;-2.1200
1364.8670;-56.8600;-54.8200;-2.0400
1365.0660;-56.8500;-54.8100;-2.0400
1365.2660;-57.0700;-54.9800;-2.0900
1365.4650;-57.1400;-54.9400;-2.2000
1365.6640;-57.4200;-55.0100;-2.4100
1365.8630;-57.7700;-55.0800;-2.6900
1366.0620;-58.1600;-55.0800;-3.0800
1366.2610;-58.6400;-55.1000;-3.5400
1366.4600;-59.1800;-55.1900;-3.9900
1366.6590;-59.9500;-55.3600;-4.5900
1366.8580;-60.8800;-55.6300;-5.2500
1367.0580;-61.8700;-55.7800;-6.0900
1367.2570;-62.9200;-55.9100;-7.0100
1367.4560;-64.2300;-56.1700;-8.0600
1367.6550;-65.3900;-56.3800;-9.0100
1367.8540;-66.7400;-56.6800;-10.0600
1368.0530;-67.7900;-56.8000;-10.9900
1368.2520;-68.4700;-56.8100;-11.6600
1368.4510;-68.8700;-57.1300;-11.7400
1368.6500;-68.2400;-57.2400;-11.0000
1368.8500;-67.2900;-57.3800;-9.9100
1369.0490;-66.2100;-57.3500;-8.8600
1369.2480;-65.2100;-57.3400;-7.8700
1369.4470;-64.2700;-57.2800;-6.9900
1369.6460;-63.4800;-57.4000;-6.0800
1369.8450;-63.1300;-57.7300;-5.4000
1370.0440;-62.6200;-57.9200;-4.7000
1370.2430;-62.1800;-58.0800;-4.1000
1370.4430;-61.7100;-58.1300;-3.5800
1370.6420;-61.3700;-58.1900;-3.1800
1370.8410;-61.4100;-58.6200;-2.7900
1371.0400;-61.4400;-58.8100;-2.6300
1371.2390;-61.4400;-58.9800;-2.4600
1371.4380;-61.3500;-59.0300;-2.3200
1371.6370;-61.2900;-59.0200;-2.2700
1371.8360;-61.3000;-59.0300;-2.2700
1372.0350;-61.5800;-59.2400;-2.3400
1372.2350;-61.9300;-59.4500;-2.4800
1372.4340;-62.2800;-59.5800;-2.7000
1372.6330;-62.7300;-59.7100;-3.0200
1372.8320;-63.1200;-59.7700;-3.3500
1373.0310;-63.5800;-59.8200;-3.7600
1373.2300;-64.2300;-59.9800;-4.2500
1373.4290;-64.9600;-60.1800;-4.7800
1373.6280;-65.8600;-60.3000;-5.5600
1373.8270;-66.7800;-60.4400;-6.3400
1374.0270;-67.8900;-60.5500;-7.3400
1374.2260;-68.9300;-60.6800;-8.2500
1374.4250;-70.2300;-60.8800;-9.3500
1374.6240;-71.4700;-61.0400;-10.4300
1374.8230;-72.5600;-61.2800;-11.2800
1375.0220;-73.9400;-61.4500;-12.4900
1375.2210;-74.5400;-61.5800;-12.9600
1375.4200;-74.1600;-61.6900;-12.4700
1375.6200;-73.6400;-61.7900;-11.8500
1375.8190;-72.2900;-61.9200;-10.3700
1376.0180;-71.5500;-62.1300;-9.4200
1376.2170;-70.5300;-62.2900;-8.2400
1376.4160;-69.6800;-62.4300;-7.2500
1376.6150;-68.9000;-62.5700;-6.3300
1376.8140;-68.4100;-62.7600;-5.6500
1377.0130;-68.1600;-63.0000;-5.1600
1377.2120;-67.6700;-63.2300;-4.4400
1377.4120;-67.3200;-63.3200;-4.0000
1377.6110;-66.9500;-63.4600;-3.4900
1377.8100;-66.6000;-63.4800;-3.1200
1378.0090;-66.4900;-63.5200;-2.9700
1378.2080;-66.4700;-63.7000;-2.7700
1378.4070;-66.5100;-63.8900;-2.6200
1378.6060;-66.7600;-64.1800;-2.5800
1378.8050;-67.0200;-64.4700;-2.5500
1379.0040;-67.1900;-64.7000;-2.4900
1379.2040;-67.3500;-64.8500;-2.5000
1379.4030;-67.4800;-64.7900;-2.6900
1379.6020;-67.6800;-64.8000;-2.8800
1379.8010;-68.0500;-64.8500;-3.2000
1380.0000;-68.5000;-65.1000;-3.4000
1380.1990;-69.0800;-65.3400;-3.7400
1380.3980;-69.6500;-65.5600;-4.0900
1380.5970;-70.5600;-66.0700;-4.4900
1380.7970;-71.6800;-66.5800;-5.1000
1380.9960;-72.4300;-66.7200;-5.7100
1381.1950;-73.4400;-66.7100;-6.7300
1381.3940;-73.6000;-66.5200;-7.0800
1381.5930;-74.2700;-66.3200;-7.9500
1381.7920;-75.1600;-66.3800;-8.7800
1381.9910;-75.4300;-66.3600;-9.0700
1382.1900;-76.0300;-66.5100;-9.5200
1382.3890;-77.4300;-66.8700;-10.5600
1382.5890;-78.9100;-67.4100;-11.5000
1382.7880;-78.7300;-67.8600;-10.8700
1382.9870;-79.7900;-68.0900;-11.7000
1383.1860;-78.2200;-67.9400;-10.2800
1383.3850;-76.9700;-67.6000;-9.3700
1383.5840;-76.1700;-67.4500;-8.7200
1383.7830;-76.2400;-67.7100;-8.5300
1383.9820;-76.1900;-67.7800;-8.4100
1384.1810;-75.3200;-67.8100;-7.5100
1384.3810;-75.2300;-67.9300;-7.3000
1384.5800;-74.7800;-67.8100;-6.9700
1384.7790;-74.3500;-67.9700;-6.3800
1384.9780;-73.8000;-68.2800;-5.5200
1385.1770;-74.0800;-68.6200;-5.4600
1385.3760;-74.1700;-68.6300;-5.5400
1385.5750;-73.6400;-68.5100;-5.1300
1385.7740;-73.7500;-68.5700;-5.1800
1385.9740;-73.2400;-68.6500;-4.5900
1386.1730;-73.3300;-68.7400;-4.5900
1386.3720;-73.3800;-68.8400;-4.5400
1386.5710;-72.9900;-68.9800;-4.0100
1386.7700;-73.1000;-69.0500;-4.0500
1386.9690;-73.0700;-68.9900;-4.0800
1387.1680;-72.9900;-69.0500;-3.9400
1387.3670;-73.0300;-69.0700;-3.9600
1387.5660;-72.9600;-69.2200;-3.7400
1387.7660;-73.5400;-69.4900;-4.0500
1387.9650;-73.7100;-69.7600;-3.9500
1388.1640;-74.1400;-69.9600;-4.1800
1388.3630;-73.7700;-70.0600;-3.7100
1388.5620;-74.2500;-70.2400;-4.0100
1388.7610;-73.9900;-69.9400;-4.0500
1388.9600;-74.1800;-70.0200;-4.1600
1389.1590;-73.7800;-69.8400;-3.9400
1389.3580;-74.3200;-69.9300;-4.3900
1389.5580;-74.3800;-70.0100;-4.3700
1389.7570;-74.4500;-70.1500;-4.3000
1389.9560;-74.5600;-70.3000;-4.2600
1390.1550;-74.7700;-70.2500;-4.5200
1390.3540;-74.4100;-70.3600;-4.0500
1390.5530;-75.5100;-70.3900;-5.1200
1390.7520;-75.3500;-70.4600;-4.8900
1390.9510;-76.0600;-70.6800;-5.3800
1391.1500;-75.9400;-70.8500;-5.0900
1391.3500;-77.0600;-70.7800;-6.2800
1391.5490;-77.4900;-70.9100;-6.5800
1391.7480;-77.5600;-70.9300;-6.6300
1391.9470;-77.6900;-70.9200;-6.7700
1392.1460;-78.8700;-71.3600;-7.5100
1392.3450;-78.0200;-71.4700;-6.5500
1392.5440;-79.4300;-71.9400;-7.4900
1392.7430;-79.3600;-72.0600;-7.3000
1392.9430;-79.7800;-72.1400;-7.6400
1393.1420;-80.5700;-71.9400;-8.6300
1393.3410;-79.3600;-71.5800;-7.7800
1393.5400;-78.9600;-71.5500;-7.4100
1393.7390;-79.7100;-71.6200;-8.0900
1393.9380;-79.6700;-71.8500;-7.8200
1394.1370;-78.2100;-71.8300;-6.3800
1394.3360;-78.5300;-72.0400;-6.4900
1394.5350;-80.0800;-72.0500;-8.0300
1394.7350;-79.7400;-72.1200;-7.6200
1394.9340;-79.3300;-72.3700;-6.9600
1395.1330;-79.1700;-72.7900;-6.3800
1395.3320;-77.6700;-72.8000;-4.8700
1395.5310;-77.7100;-72.9900;-4.7200
1395.7300;-78.2400;-72.8700;-5.3700
1395.9290;-77.8500;-73.2600;-4.5900
1396.1280;-77.4300;-72.8800;-4.5500
1396.3270;-77.1700;-73.0700;-4.1000
1396.5270;-76.7000;-73.3100;-3.3900
1396.7260;-76.2100;-73.4800;-2.7300
1396.9250;-76.4900;-73.4800;-3.0100
1397.1240;-76.7900;-73.5800;-3.2100
1397.3230;-76.6200;-73.2300;-3.3900
1397.5220;-75.9800;-73.0300;-2.9500
1397.7210;-75.7300;-73.1700;-2.5600
1397.9200;-75.8100;-73.5500;-2.2600
1398.1200;-76.1900;-73.6700;-2.5200
1398.3190;-76.3200;-73.5200;-2.8000
1398.5180;-76.2000;-73.5900;-2.6100
1398.7170;-76.8500;-73.8200;-3.0300
1398.9160;-76.4000;-73.6100;-2.7900
1399.1150;-76.2800;-73.6400;-2.6400
1399.3140;-76.3600;-73.7900;-2.5700
1399.5130;-76.7400;-74.4200;-2.3200
1399.7120;-76.9200;-74.1900;-2.7300
1399.9120;-76.9600;-74.2200;-2.7400
1400.1110;-77.9800;-74.6900;-3.2900
1400.3100;-77.0800;-74.5900;-2.4900
1400.5090;-77.0600;-74.6700;-2.3900
1400.7080;-78.1000;-75.0900;-3.0100
1400.9070;-77.7500;-75.0900;-2.6600
1401.1060;-77.8100;-74.8500;-2.9600
1401.3050;-76.8900;-74.9200;-1.9700
1401.5040;-77.6100;-74.6700;-2.9400
1401.7040;-77.9800;-74.9200;-3.0600
1401.9030;-77.7500;-74.9000;-2.8500
1402.1020;-77.8400;-75.2600;-2.5800
1402.3010;-78.1200;-75.0600;-3.0600
1402.5000;-78.8200;-74.9400;-3.8800
1402.6990;-77.5500;-74.9700;-2.5800
1402.8980;-78.1000;-75.1500;-2.9500
1403.0970;-78.3300;-74.8000;-3.5300
1403.2970;-79.7900;-75.5000;-4.2900
1403.4960;-79.0000;-75.3700;-3.6300
1403.6950;-78.1000;-75.3200;-2.7800
1403.8940;-77.8800;-75.5300;-2.3500
1404.0930;-78.2700;-75.3200;-2.9500
1404.2920;-79.3400;-75.3000;-4.0400
1404.4910;-79.4700;-75.9000;-3.5700
1404.6900;-80.4900;-75.7700;-4.7200
1404.8890;-79.9700;-76.4800;-3.4900
1405.0890;-79.1200;-76.1200;-3.0000
1405.2880;-80.1700;-75.9300;-4.2400
1405.4870;-81.4900;-76.3600;-5.1300
1405.6860;-82.1300;-75.3900;-6.7400
1405.8850;-79.4400;-76.2300;-3.2100
1406.0840;-79.6500;-75.9000;-3.7500
1406.2830;-80.2500;-75.9000;-4.3500
1406.4820;-79.9000;-75.9900;-3.9100
1406.6810;-79.4500;-75.3900;-4.0600
1406.8810;-80.3800;-75.9200;-4.4600
1407.0800;-81.8400;-75.9700;-5.8700
1407.2790;-83.6900;-76.2000;-7.4900
1407.4780;-80.9500;-75.9700;-4.9800
1407.6770;-81.7800;-76.2100;-5.5700
1407.8760;-81.3000;-76.4900;-4.8100
1408.0750;-80.4200;-76.1600;-4.2600
1408.2740;-79.5200;-76.8600;-2.6600
1408.4740;-81.7200;-76.0000;-5.7200
1408.6730;-80.0200;-76.9300;-3.0900
1408.8720;-82.2000;-76.5100;-5.6900
1409.0710;-81.8400;-76.5100;-5.3300
1409.2700;-80.3400;-76.3400;-4.0000
1409.4690;-81.5000;-77.5400;-3.9600
1409.6680;-81.3500;-76.7900;-4.5600
1409.8670;-81.5000;-76.6100;-4.8900
1410.0660;-80.9500;-76.2800;-4.6700
1410.2660;-80.5900;-75.8500;-4.7400
1410.4650;-79.7600;-76.0300;-3.7300
1410.6640;-81.5600;-76.1800;-5.3800
1410.8630;-79.8700;-76.3100;-3.5600
1411.0620;-81.8400;-76.4200;-5.4200
1411.2610;-80.0600;-76.4100;-3.6500
1411.4600;-80.1800;-76.4400;-3.7400
1411.6590;-80.1800;-76.4700;-3.7100
1411.8580;-79.3800;-76.4700;-2.9100
1412.0580;-80.5900;-76.5100;-4.0800
1412.2570;-80.2200;-76.1300;-4.0900
1412.4560;-80.7700;-76.0900;-4.6800
1412.6550;-79.8000;-76.5900;-3.2100
1412.8540;-80.1800;-76.2600;-3.9200
1413.0530;-80.5000;-75.9200;-4.5800
1413.2520;-81.4500;-76.9700;-4.4800
1413.4510;-81.1000;-76.3400;-4.7600
1413.6500;-80.9100;-75.9500;-4.9600
1413.8500;-81.2500;-76.1000;-5.1500
1414.0490;-80.8200;-77.2100;-3.6100
1414.2480;-80.1100;-76.9300;-3.1800
1414.4470;-79.9200;-76.8300;-3.0900
1414.6460;-79.9500;-76.5000;-3.4500
1414.8450;-78.9900;-76.9400;-2.0500
1415.0440;-80.7800;-76.7100;-4.0700
1415.2430;-80.5100;-76.1700;-4.3400
1415.4430;-81.3600;-76.6000;-4.7600
1415.6420;-80.1500;-76.2100;-3.9400
1415.8410;-80.9100;-76.0800;-4.8300
1416.0400;-80.7800;-75.8900;-4.8900
1416.2390;-80.2300;-76.2200;-4.0100
1416.4380;-79.1100;-76.0500;-3.0600
1416.6370;-79.8100;-76.5200;-3.2900
1416.8360;-80.5600;-76.4200;-4.1400
1417.0350;-80.4300;-76.5200;-3.9100
1417.2350;-81.5700;-75.9800;-5.5900
1417.4340;-80.8700;-76.0500;-4.8200
1417.6330;-80.1100;-76.3500;-3.7600
1417.8320;-81.5700;-76.5200;-5.0500
1418.0310;-82.9700;-76.6200;-6.3500
1418.2300;-79.2300;-76.3500;-2.8800
1418.4290;-78.8400;-75.6300;-3.2100
1418.6280;-80.7300;-75.9500;-4.7800
1418.8270;-79.9500;-76.1600;-3.7900
1419.0270;-80.6900;-76.5200;-4.1700
1419.2260;-79.9200;-76.7600;-3.1600
1419.4250;-79.8100;-76.3500;-3.4600
1419.6240;-79.3900;-76.8900;-2.5000
1419.8230;-80.4700;-76.0100;-4.4600
1420.0220;-80.6400;-75.6200;-5.0200
1420.2210;-80.1100;-76.1000;-4.0100
1420.4200;-81.0600;-75.8400;-5.2200
1420.6200;-80.0300;-75.9500;-4.0800
1420.8190;-79.1400;-76.0800;-3.0600
1421.0180;-82.5400;-75.5100;-7.0300
1421.2170;-79.1400;-75.8300;-3.3100
1421.4160;-80.6000;-75.6400;-4.9600
1421.6150;-79.6800;-76.0500;-3.6300
1421.8140;-79.4700;-76.0200;-3.4500
1422.0130;-80.3200;-75.8100;-4.5100
1422.2120;-80.7400;-76.1400;-4.6000
1422.4120;-80.6100;-76.0800;-4.5300
1422.6110;-80.9200;-76.2000;-4.7200
1422.8100;-80.7900;-75.8100;-4.9800
1423.0090;-80.3600;-76.1800;-4.1800
1423.2080;-80.2400;-75.7800;-4.4600
1423.4070;-79.9600;-76.0200;-3.9400
1423.6060;-79.5000;-76.6300;-2.8700
1423.8050;-79.4700;-75.9600;-3.5100
1424.0040;-82.9800;-75.4900;-7.4900
1424.2040;-80.8800;-75.3300;-5.5500
1424.4030;-79.6800;-75.4500;-4.2300
1424.6020;-80.5200;-75.5000;-5.0200
1424.8010;-78.7900;-75.6300;-3.1600
1425.0000;-79.8200;-76.0500;-3.7700
