Wavelength;Intensity_Meas;Intensity_Ref;Difference_dB
1200.0000;-62.2900;-57.0700;-5.2200
1200.1990;-62.2300;-57.0400;-5.1900
1200.3980;-62.1500;-57.0000;-5.1500
1200.5970;-62.0900;-56.9900;-5.1000
1200.7970;-62.0500;-56.9700;-5.0800
1200.9960;-62.0300;-56.9200;-5.1100
1201.1950;-61.9700;-56.8900;-5.0800
1201.3940;-61.8600;-56.8600;-5.0000
1201.5930;-61.7800;-56.8100;-4.9700
1201.7920;-61.7500;-56.7700;-4.9800
1201.9910;-61.7600;-56.7100;-5.0500
1202.1900;-61.6400;-56.6600;-4.9800
1202.3890;-61.5800;-56.6200;-4.9600
1202.5890;-61.6500;-56.5700;-5.0800
1202.7880;-61.5900;-56.5200;-5.0700
1202.9870;-61.5700;-56.4600;-5.1100
1203.1860;-61.5300;-56.4100;-5.1200
1203.3850;-61.4600;-56.3700;-5.0900
1203.5840;-61.4900;-56.3200;-5.1700
1203.7830;-61.4800;-56.2800;-5.2000
1203.9820;-61.4000;-56.2400;-5.1600
1204.1810;-61.3500;-56.1900;-5.1600
1204.3810;-61.3600;-56.1700;-5.1900
1204.5800;-61.4100;-56.1300;-5.2800
1204.7790;-61.3100;-56.0900;-5.2200
1204.9780;-61.3000;-56.0600;-5.2400
1205.1770;-61.2900;-56.0400;-5.2500
1205.3760;-61.3100;-56.0100;-5.3000
1205.5750;-61.2900;-55.9900;-5.3000
1205.7740;-61.2500;-55.9800;-5.2700
1205.9740;-61.2300;-55.9500;-5.2800
1206.1730;-61.2500;-55.9400;-5.3100
1206.3720;-61.2200;-55.9300;-5.2900
1206.5710;-61.1500;-55.9100;-5.2400
1206.7700;-61.1000;-55.8800;-5.2200
1206.9690;-61.0900;-55.8600;-5.2300
1207.1680;-61.0300;-55.8300;-5.2000
1207.3670;-60.9400;-55.8100;-5.1300
1207.5660;-60.8500;-55.7800;-5.0700
1207.7660;-60.8000;-55.7500;-5.0500
1207.9650;-60.7300;-55.7100;-5.0200
1208.1640;-60.6500;-55.6800;-4.9700
1208.3630;-60.5500;-55.6600;-4.8900
1208.5620;-60.5000;-55.6000;-4.9000
1208.7610;-60.4700;-55.5600;-4.9100
1208.9600;-60.3900;-55.5100;-4.8800
1209.1590;-60.3100;-55.4500;-4.8600
1209.3580;-60.2700;-55.4100;-4.8600
1209.5580;-60.3000;-55.3600;-4.9400
1209.7570;-60.2700;-55.3100;-4.9600
1209.9560;-60.2300;-55.2600;-4.9700
1210.1550;-60.2400;-55.2100;-5.0300
1210.3540;-60.2500;-55.1800;-5.0700
1210.5530;-60.2700;-55.1100;-5.1600
1210.7520;-60.2500;-55.0700;-5.1800
1210.9510;-60.2600;-55.0300;-5.2300
1211.1500;-60.2800;-54.9800;-5.3000
1211.3500;-60.3100;-54.9500;-5.3600
1211.5490;-60.3100;-54.9100;-5.4000
1211.7480;-60.2900;-54.8700;-5.4200
1211.9470;-60.2800;-54.8400;-5.4400
1212.1460;-60.3200;-54.8100;-5.5100
1212.3450;-60.3200;-54.7800;-5.5400
1212.5440;-60.3200;-54.7600;-5.5600
1212.7430;-60.2900;-54.7400;-5.5500
1212.9430;-60.2900;-54.7100;-5.5800
1213.1420;-60.3000;-54.6700;-5.6300
1213.3410;-60.2100;-54.6500;-5.5600
1213.5400;-60.1600;-54.6200;-5.5400
1213.7390;-60.1200;-54.6000;-5.5200
1213.9380;-60.0500;-54.5600;-5.4900
1214.1370;-59.9400;-54.5300;-5.4100
1214.3360;-59.8200;-54.5100;-5.3100
1214.5350;-59.7600;-54.4600;-5.3000
1214.7350;-59.6700;-54.4300;-5.2400
1214.9340;-59.5300;-54.3900;-5.1400
1215.1330;-59.4300;-54.3400;-5.0900
1215.3320;-59.3500;-54.3000;-5.0500
1215.5310;-59.3000;-54.2500;-5.0500
1215.7300;-59.2100;-54.2000;-5.0100
1215.9290;-59.1300;-54.1500;-4.9800
1216.1280;-59.0900;-54.1000;-4.9900
1216.3270;-59.0500;-54.0400;-5.0100
1216.5270;-59.0300;-53.9900;-5.0400
1216.7260;-58.9800;-53.9300;-5.0500
1216.9250;-58.9400;-53.8800;-5.0600
1217.1240;-58.9600;-53.8100;-5.1500
1217.3230;-58.9400;-53.7700;-5.1700
1217.5220;-58.9600;-53.7200;-5.2400
1217.7210;-58.9400;-53.6700;-5.2700
1217.9200;-58.9600;-53.6200;-5.3400
1218.1200;-58.9900;-53.5700;-5.4200
1218.3190;-58.9800;-53.5300;-5.4500
1218.5180;-59.0000;-53.4800;-5.5200
1218.7170;-59.0400;-53.4500;-5.5900
1218.9160;-59.0600;-53.4100;-5.6500
1219.1150;-59.0800;-53.3600;-5.7200
1219.3140;-59.0800;-53.3500;-5.7300
1219.5130;-59.1100;-53.3200;-5.7900
1219.7120;-59.0900;-53.2800;-5.8100
1219.9120;-59.0700;-53.2400;-5.8300
1220.1110;-59.0100;-53.2100;-5.8000
1220.3100;-58.9600;-53.1800;-5.7800
1220.5090;-58.9300;-53.1400;-5.7900
1220.7080;-58.8200;-53.1100;-5.7100
1220.9070;-58.6900;-53.0700;-5.6200
1221.1060;-58.5700;-53.0200;-5.5500
1221.3050;-58.4700;-52.9800;-5.4900
1221.5040;-58.3500;-52.9100;-5.4400
1221.7040;-58.1900;-52.8700;-5.3200
1221.9030;-58.0800;-52.8100;-5.2700
1222.1020;-57.9700;-52.7400;-5.2300
1222.3010;-57.8600;-52.7000;-5.1600
1222.5000;-57.7700;-52.6200;-5.1500
1222.6990;-57.6700;-52.5600;-5.1100
1222.8980;-57.6000;-52.4900;-5.1100
1223.0970;-57.5400;-52.4200;-5.1200
1223.2970;-57.4900;-52.3700;-5.1200
1223.4960;-57.4500;-52.2800;-5.1700
1223.6950;-57.4400;-52.2200;-5.2200
1223.8940;-57.4100;-52.1600;-5.2500
1224.0930;-57.3900;-52.0800;-5.3100
1224.2920;-57.3700;-52.0300;-5.3400
1224.4910;-57.3700;-51.9500;-5.4200
1224.6900;-57.3500;-51.8900;-5.4600
1224.8890;-57.3400;-51.8300;-5.5100
1225.0890;-57.3300;-51.7700;-5.5600
1225.2880;-57.3000;-51.7200;-5.5800
1225.4870;-57.2700;-51.6500;-5.6200
1225.6860;-57.2300;-51.6100;-5.6200
1225.8850;-57.1600;-51.5600;-5.6000
1226.0840;-57.1100;-51.5000;-5.6100
1226.2830;-57.0300;-51.4700;-5.5600
1226.4820;-56.9400;-51.4000;-5.5400
1226.6810;-56.8100;-51.3600;-5.4500
1226.8810;-56.7100;-51.3100;-5.4000
1227.0800;-56.5700;-51.2500;-5.3200
1227.2790;-56.4000;-51.2200;-5.1800
1227.4780;-56.2500;-51.1500;-5.1000
1227.6770;-56.0900;-51.1000;-4.9900
1227.8760;-55.9300;-51.0500;-4.8800
1228.0750;-55.7000;-50.9800;-4.7200
1228.2740;-55.5600;-50.9300;-4.6300
1228.4740;-55.4300;-50.8500;-4.5800
1228.6730;-55.2900;-50.7900;-4.5000
1228.8720;-55.1800;-50.7300;-4.4500
1229.0710;-55.0800;-50.6500;-4.4300
1229.2700;-55.0100;-50.5900;-4.4200
1229.4690;-54.9600;-50.5000;-4.4600
1229.6680;-54.9100;-50.4300;-4.4800
1229.8670;-54.9000;-50.3500;-4.5500
1230.0660;-54.9100;-50.2700;-4.6400
1230.2660;-54.9100;-50.2100;-4.7000
1230.4650;-54.9600;-50.1100;-4.8500
1230.6640;-55.0100;-50.0300;-4.9800
1230.8630;-55.1000;-49.9800;-5.1200
1231.0620;-55.1600;-49.9000;-5.2600
1231.2610;-55.2400;-49.8500;-5.3900
1231.4600;-55.3500;-49.7900;-5.5600
1231.6590;-55.4100;-49.7200;-5.6900
1231.8580;-55.4900;-49.6600;-5.8300
1232.0580;-55.5300;-49.6000;-5.9300
1232.2570;-55.5500;-49.5500;-6.0000
1232.4560;-55.5900;-49.4900;-6.1000
1232.6550;-55.5500;-49.4400;-6.1100
1232.8540;-55.4800;-49.3700;-6.1100
1233.0530;-55.4000;-49.3200;-6.0800
1233.2520;-55.2800;-49.2800;-6.0000
1233.4510;-55.1300;-49.2100;-5.9200
1233.6500;-54.9500;-49.1700;-5.7800
1233.8500;-54.7700;-49.1000;-5.6700
1234.0490;-54.5600;-49.0400;-5.5200
1234.2480;-54.3400;-48.9800;-5.3600
1234.4470;-54.1300;-48.9000;-5.2300
1234.6460;-53.9400;-48.8500;-5.0900
1234.8450;-53.7700;-48.7800;-4.9900
1235.0440;-53.5700;-48.7000;-4.8700
1235.2430;-53.4200;-48.6300;-4.7900
1235.4430;-53.3000;-48.5400;-4.7600
1235.6420;-53.2000;-48.4800;-4.7200
1235.8410;-53.1200;-48.3800;-4.7400
1236.0400;-53.0600;-48.3000;-4.7600
1236.2390;-53.0300;-48.2100;-4.8200
1236.4380;-53.0300;-48.1100;-4.9200
1236.6370;-53.0300;-48.0400;-4.9900
1236.8360;-53.0600;-47.9400;-5.1200
1237.0350;-53.1000;-47.8600;-5.2400
1237.2350;-53.1400;-47.7700;-5.3700
1237.4340;-53.1900;-47.6800;-5.5100
1237.6330;-53.2400;-47.6100;-5.6300
1237.8320;-53.3200;-47.5200;-5.8000
1238.0310;-53.3400;-47.4400;-5.9000
1238.2300;-53.3700;-47.3600;-6.0100
1238.4290;-53.3900;-47.2700;-6.1200
1238.6280;-53.4000;-47.2100;-6.1900
1238.8270;-53.3800;-47.1200;-6.2600
1239.0270;-53.3300;-47.0600;-6.2700
1239.2260;-53.2700;-46.9600;-6.3100
1239.4250;-53.1900;-46.8800;-6.3100
1239.6240;-53.0800;-46.8100;-6.2700
1239.8230;-52.9700;-46.7200;-6.2500
1240.0220;-52.8300;-46.6500;-6.1800
1240.2210;-52.6800;-46.5400;-6.1400
1240.4200;-52.5100;-46.4500;-6.0600
1240.6200;-52.3600;-46.3700;-5.9900
1240.8190;-52.2100;-46.2600;-5.9500
1241.0180;-52.0300;-46.1600;-5.8700
1241.2170;-51.8900;-46.0400;-5.8500
1241.4160;-51.7500;-45.9100;-5.8400
1241.6150;-51.6300;-45.8000;-5.8300
1241.8140;-51.5400;-45.6900;-5.8500
1242.0130;-51.4400;-45.5700;-5.8700
1242.2120;-51.3800;-45.4400;-5.9400
1242.4120;-51.3200;-45.3300;-5.9900
1242.6110;-51.2500;-45.1800;-6.0700
1242.8100;-51.2100;-45.0600;-6.1500
1243.0090;-51.1400;-44.9200;-6.2200
1243.2080;-51.0800;-44.8000;-6.2800
1243.4070;-50.9800;-44.6800;-6.3000
1243.6060;-50.8600;-44.5300;-6.3300
1243.8050;-50.7300;-44.4100;-6.3200
1244.0040;-50.5300;-44.2800;-6.2500
1244.2040;-50.3200;-44.1500;-6.1700
1244.4030;-50.0800;-44.0300;-6.0500
1244.6020;-49.8100;-43.8800;-5.9300
1244.8010;-49.5400;-43.7600;-5.7800
1245.0000;-49.2400;-43.6400;-5.6000
1245.1990;-48.9600;-43.5100;-5.4500
1245.3980;-48.6700;-43.4000;-5.2700
1245.5970;-48.3700;-43.2500;-5.1200
1245.7970;-48.1300;-43.1300;-5.0000
1245.9960;-47.8600;-42.9900;-4.8700
1246.1950;-47.6400;-42.8500;-4.7900
1246.3940;-47.4200;-42.7300;-4.6900
1246.5930;-47.2400;-42.5700;-4.6700
1246.7920;-47.0900;-42.4300;-4.6600
1246.9910;-46.9300;-42.2800;-4.6500
1247.1900;-46.8300;-42.1200;-4.7100
1247.3890;-46.7400;-41.9800;-4.7600
1247.5890;-46.6600;-41.8100;-4.8500
1247.7880;-46.6300;-41.6600;-4.9700
1247.9870;-46.5900;-41.4900;-5.1000
1248.1860;-46.5800;-41.3300;-5.2500
1248.3850;-46.5700;-41.1800;-5.3900
1248.5840;-46.5500;-41.0000;-5.5500
1248.7830;-46.5500;-40.8400;-5.7100
1248.9820;-46.5000;-40.6800;-5.8200
1249.1810;-46.4400;-40.5200;-5.9200
1249.3810;-46.3200;-40.3600;-5.9600
1249.5800;-46.1600;-40.1800;-5.9800
1249.7790;-45.9500;-40.0300;-5.9200
1249.9780;-45.6300;-39.8600;-5.7700
1250.1770;-45.3800;-39.7000;-5.6800
1250.3760;-45.0300;-39.5600;-5.4700
1250.5750;-44.6500;-39.3900;-5.2600
1250.7740;-44.2500;-39.2300;-5.0200
1250.9740;-43.8500;-39.0900;-4.7600
1251.1730;-43.4600;-38.9300;-4.5300
1251.3720;-43.0600;-38.7900;-4.2700
1251.5710;-42.7100;-38.6400;-4.0700
1251.7700;-42.3500;-38.4900;-3.8600
1251.9690;-42.0300;-38.3300;-3.7000
1252.1680;-41.7400;-38.1700;-3.5700
1252.3670;-41.4800;-38.0300;-3.4500
1252.5660;-41.2700;-37.8700;-3.4000
1252.7660;-41.0600;-37.7100;-3.3500
1252.9650;-40.9300;-37.5600;-3.3700
1253.1640;-40.8100;-37.3900;-3.4200
1253.3630;-40.7300;-37.2400;-3.4900
1253.5620;-40.7200;-37.0800;-3.6400
1253.7610;-40.7200;-36.9200;-3.8000
1253.9600;-40.7800;-36.7600;-4.0200
1254.1590;-40.8700;-36.5900;-4.2800
1254.3580;-41.0000;-36.4400;-4.5600
1254.5580;-41.1700;-36.2700;-4.9000
1254.7570;-41.3400;-36.1200;-5.2200
1254.9560;-41.5300;-35.9500;-5.5800
1255.1550;-41.7200;-35.7800;-5.9400
1255.3540;-41.8400;-35.6400;-6.2000
1255.5530;-41.9300;-35.4900;-6.4400
1255.7520;-41.8800;-35.3400;-6.5400
1255.9510;-41.7300;-35.1700;-6.5600
1256.1500;-41.4600;-35.0400;-6.4200
1256.3500;-41.0800;-34.8700;-6.2100
1256.5490;-40.6200;-34.7200;-5.9000
1256.7480;-40.0800;-34.5700;-5.5100
1256.9470;-39.5200;-34.4200;-5.1000
1257.1460;-38.9400;-34.2700;-4.6700
1257.3450;-38.3800;-34.1000;-4.2800
1257.5440;-37.8600;-33.9600;-3.9000
1257.7430;-37.3500;-33.8100;-3.5400
1257.9430;-36.8900;-33.6500;-3.2400
1258.1420;-36.4700;-33.5100;-2.9600
1258.3410;-36.0900;-33.3400;-2.7500
1258.5400;-35.7200;-33.1900;-2.5300
1258.7390;-35.4800;-33.0300;-2.4500
1258.9380;-35.2500;-32.8700;-2.3800
1259.1370;-35.0600;-32.7300;-2.3300
1259.3360;-34.9400;-32.5600;-2.3800
1259.5350;-34.8500;-32.4200;-2.4300
1259.7350;-34.8200;-32.2700;-2.5500
1259.9340;-34.8700;-32.1100;-2.7600
1260.1330;-34.9600;-31.9700;-2.9900
1260.3320;-35.1400;-31.8100;-3.3300
1260.5310;-35.3900;-31.6800;-3.7100
1260.7300;-35.7200;-31.5300;-4.1900
1260.9290;-36.1600;-31.3800;-4.7800
1261.1280;-36.6800;-31.2500;-5.4300
1261.3270;-37.3300;-31.0900;-6.2400
1261.5270;-38.2400;-30.9700;-7.2700
1261.7260;-38.9900;-30.8200;-8.1700
1261.9250;-39.9400;-30.6800;-9.2600
1262.1240;-40.9200;-30.5500;-10.3700
1262.3230;-41.7700;-30.4000;-11.3700
1262.5220;-42.1900;-30.2700;-11.9200
1262.7210;-41.9900;-30.1300;-11.8600
1262.9200;-41.1500;-29.9800;-11.1700
1263.1200;-39.9600;-29.8500;-10.1100
1263.3190;-38.6400;-29.6900;-8.9500
1263.5180;-37.3600;-29.5600;-7.8000
1263.7170;-36.1800;-29.4100;-6.7700
1263.9160;-34.9000;-29.2600;-5.6400
1264.1150;-34.1100;-29.1300;-4.9800
1264.3140;-33.2400;-28.9600;-4.2800
1264.5130;-32.4900;-28.8300;-3.6600
1264.7120;-31.8100;-28.6800;-3.1300
1264.9120;-31.2100;-28.5300;-2.6800
1265.1110;-30.7000;-28.3900;-2.3100
1265.3100;-30.2500;-28.2300;-2.0200
1265.5090;-29.8900;-28.1000;-1.7900
1265.7080;-29.5800;-27.9500;-1.6300
1265.9070;-29.3300;-27.8100;-1.5200
1266.1060;-29.1700;-27.6800;-1.4900
1266.3050;-29.0500;-27.5400;-1.5100
1266.5040;-29.0300;-27.4200;-1.6100
1266.7040;-29.0600;-27.2900;-1.7700
1266.9030;-29.1600;-27.1600;-2.0000
1267.1020;-29.3500;-27.0400;-2.3100
1267.3010;-29.6000;-26.9100;-2.6900
1267.5000;-29.9600;-26.8000;-3.1600
1267.6990;-30.4100;-26.6800;-3.7300
1267.8980;-30.9500;-26.5600;-4.3900
1268.0970;-31.6200;-26.4600;-5.1600
1268.2970;-32.3900;-26.3300;-6.0600
1268.4960;-33.3200;-26.2300;-7.0900
1268.6950;-34.3600;-26.0800;-8.2800
1268.8940;-35.5300;-25.9900;-9.5400
1269.0930;-36.7700;-25.8800;-10.8900
1269.2920;-37.8700;-25.7500;-12.1200
1269.4910;-38.6800;-25.6500;-13.0300
1269.6900;-38.4800;-25.5100;-12.9700
1269.8890;-37.6400;-25.3900;-12.2500
1270.0890;-36.3600;-25.2600;-11.1000
1270.2880;-34.7700;-25.1300;-9.6400
1270.4870;-33.6600;-25.0300;-8.6300
1270.6860;-32.4600;-24.8900;-7.5700
1270.8850;-31.3900;-24.7600;-6.6300
1271.0840;-30.4400;-24.6300;-5.8100
1271.2830;-29.6200;-24.5100;-5.1100
1271.4820;-28.9000;-24.3900;-4.5100
1271.6810;-28.2900;-24.2600;-4.0300
1271.8810;-27.7700;-24.1500;-3.6200
1272.0800;-27.3400;-24.0300;-3.3100
1272.2790;-27.0100;-23.9100;-3.1000
1272.4780;-26.7400;-23.8200;-2.9200
1272.6770;-26.5600;-23.7000;-2.8600
1272.8760;-26.4500;-23.6100;-2.8400
1273.0750;-26.4100;-23.5000;-2.9100
1273.2740;-26.4600;-23.4000;-3.0600
1273.4740;-26.5500;-23.3200;-3.2300
1273.6730;-26.7300;-23.2100;-3.5200
1273.8720;-26.9600;-23.1300;-3.8300
1274.0710;-27.2600;-23.0300;-4.2300
1274.2700;-27.6300;-22.9300;-4.7000
1274.4690;-28.0200;-22.8500;-5.1700
1274.6680;-28.4600;-22.7500;-5.7100
1274.8670;-28.9100;-22.6600;-6.2500
1275.0660;-29.3400;-22.5600;-6.7800
1275.2660;-29.7200;-22.4700;-7.2500
1275.4650;-29.9700;-22.3800;-7.5900
1275.6640;-30.0700;-22.2700;-7.8000
1275.8630;-29.9600;-22.1800;-7.7800
1276.0620;-29.6600;-22.0700;-7.5900
1276.2610;-29.2000;-21.9700;-7.2300
1276.4600;-28.5900;-21.8700;-6.7200
1276.6590;-27.9300;-21.7500;-6.1800
1276.8580;-27.2200;-21.6600;-5.5600
1277.0580;-26.5400;-21.5400;-5.0000
1277.2570;-25.7800;-21.4500;-4.3300
1277.4560;-25.2700;-21.3500;-3.9200
1277.6550;-24.7200;-21.2400;-3.4800
1277.8540;-24.2100;-21.1600;-3.0500
1278.0530;-23.7800;-21.0500;-2.7300
1278.2520;-23.3800;-20.9600;-2.4200
1278.4510;-23.0600;-20.8700;-2.1900
1278.6500;-22.7900;-20.7700;-2.0200
1278.8500;-22.5800;-20.7000;-1.8800
1279.0490;-22.4400;-20.6000;-1.8400
1279.2480;-22.3400;-20.5200;-1.8200
1279.4470;-22.3100;-20.4400;-1.8700
1279.6460;-22.3300;-20.3500;-1.9800
1279.8450;-22.4000;-20.2800;-2.1200
1280.0440;-22.5500;-20.1900;-2.3600
1280.2430;-22.7200;-20.1300;-2.5900
1280.4430;-22.9600;-20.0400;-2.9200
1280.6420;-23.2400;-19.9700;-3.2700
1280.8410;-23.5700;-19.9000;-3.6700
1281.0400;-23.9400;-19.8200;-4.1200
1281.2390;-24.3300;-19.7500;-4.5800
1281.4380;-24.7400;-19.6700;-5.0700
1281.6370;-25.1200;-19.6000;-5.5200
1281.8360;-25.4600;-19.5300;-5.9300
1282.0350;-25.7200;-19.4500;-6.2700
1282.2350;-25.8300;-19.3900;-6.4400
1282.4340;-25.8100;-19.3000;-6.5100
1282.6330;-25.6000;-19.2400;-6.3600
1282.8320;-25.2400;-19.1700;-6.0700
1283.0310;-24.7800;-19.0900;-5.6900
1283.2300;-24.2200;-19.0200;-5.2000
1283.4290;-23.6400;-18.9400;-4.7000
1283.6280;-23.0300;-18.8700;-4.1600
1283.8270;-22.4600;-18.8000;-3.6600
1284.0270;-21.9300;-18.7200;-3.2100
1284.2260;-21.4300;-18.6600;-2.7700
1284.4250;-21.0000;-18.5800;-2.4200
1284.6240;-20.5900;-18.5100;-2.0800
1284.8230;-20.2700;-18.4300;-1.8400
1285.0220;-20.0000;-18.3600;-1.6400
1285.2210;-19.7800;-18.3000;-1.4800
1285.4200;-19.6400;-18.2200;-1.4200
1285.6200;-19.5300;-18.1600;-1.3700
1285.8190;-19.5100;-18.1000;-1.4100
1286.0180;-19.5400;-18.0300;-1.5100
1286.2170;-19.6300;-17.9800;-1.6500
1286.4160;-19.8100;-17.9100;-1.9000
1286.6150;-20.0500;-17.8800;-2.1700
1286.8140;-20.3700;-17.8200;-2.5500
1287.0130;-20.7700;-17.7600;-3.0100
1287.2120;-21.2600;-17.7200;-3.5400
1287.4120;-21.8600;-17.6600;-4.2000
1287.6110;-22.5400;-17.6300;-4.9100
1287.8100;-23.3500;-17.5700;-5.7800
1288.0090;-24.2700;-17.5200;-6.7500
1288.2080;-25.3100;-17.4800;-7.8300
1288.4070;-26.4400;-17.4300;-9.0100
1288.6060;-27.5600;-17.4000;-10.1600
1288.8050;-28.6900;-17.3400;-11.3500
1289.0040;-28.9800;-17.3000;-11.6800
1289.2040;-28.7500;-17.2500;-11.5000
1289.4030;-27.9000;-17.1900;-10.7100
1289.6020;-26.7400;-17.1600;-9.5800
1289.8010;-25.3200;-17.0900;-8.2300
1290.0000;-24.3400;-17.0400;-7.3000
1290.1990;-23.2900;-16.9900;-6.3000
1290.3980;-22.3500;-16.9300;-5.4200
1290.5970;-21.5400;-16.8900;-4.6500
1290.7970;-20.8000;-16.8200;-3.9800
1290.9960;-20.1800;-16.7600;-3.4200
1291.1950;-19.6600;-16.7000;-2.9600
1291.3940;-19.2300;-16.6400;-2.5900
1291.5930;-18.8900;-16.5800;-2.3100
1291.7920;-18.6100;-16.5200;-2.0900
1291.9910;-18.4300;-16.4800;-1.9500
1292.1900;-18.3200;-16.4200;-1.9000
1292.3890;-18.2800;-16.3800;-1.9000
1292.5890;-18.3200;-16.3300;-1.9900
1292.7880;-18.4200;-16.2800;-2.1400
1292.9870;-18.6300;-16.2500;-2.3800
1293.1860;-18.9000;-16.2100;-2.6900
1293.3850;-19.2600;-16.1800;-3.0800
1293.5840;-19.7200;-16.1400;-3.5800
1293.7830;-20.2800;-16.1200;-4.1600
1293.9820;-20.9700;-16.0900;-4.8800
1294.1810;-21.7800;-16.0700;-5.7100
1294.3810;-22.7600;-16.0600;-6.7000
1294.5800;-23.9300;-16.0200;-7.9100
1294.7790;-25.3200;-16.0100;-9.3100
1294.9780;-26.9900;-15.9800;-11.0100
1295.1770;-29.3400;-15.9600;-13.3800
1295.3760;-30.8400;-15.9400;-14.9000
1295.5750;-31.8900;-15.9000;-15.9900
1295.7740;-31.2600;-15.8900;-15.3700
1295.9740;-29.4100;-15.8400;-13.5700
1296.1730;-27.3800;-15.8200;-11.5600
1296.3720;-25.3100;-15.7900;-9.5200
1296.5710;-24.0300;-15.7400;-8.2900
1296.7700;-22.7300;-15.7200;-7.0100
1296.9690;-21.6200;-15.6800;-5.9400
1297.1680;-20.7000;-15.6500;-5.0500
1297.3670;-19.8800;-15.6100;-4.2700
1297.5660;-19.1900;-15.5600;-3.6300
1297.7660;-18.6100;-15.5400;-3.0700
1297.9650;-18.1200;-15.4900;-2.6300
1298.1640;-17.7300;-15.4600;-2.2700
1298.3630;-17.3900;-15.4300;-1.9600
1298.5620;-17.1300;-15.3800;-1.7500
1298.7610;-16.9300;-15.3600;-1.5700
1298.9600;-16.8000;-15.3300;-1.4700
1299.1590;-16.7500;-15.3200;-1.4300
1299.3580;-16.7300;-15.2900;-1.4400
1299.5580;-16.7700;-15.2600;-1.5100
1299.7570;-16.8700;-15.2500;-1.6200
1299.9560;-17.0200;-15.2400;-1.7800
1300.1550;-17.2300;-15.2400;-1.9900
1300.3540;-17.4800;-15.2200;-2.2600
1300.5530;-17.7800;-15.2100;-2.5700
1300.7520;-18.1100;-15.2100;-2.9000
1300.9510;-18.4900;-15.2000;-3.2900
1301.1500;-18.9100;-15.2200;-3.6900
1301.3500;-19.3200;-15.2100;-4.1100
1301.5490;-19.7600;-15.2200;-4.5400
1301.7480;-20.1500;-15.2200;-4.9300
1301.9470;-20.5200;-15.2200;-5.3000
1302.1460;-20.8100;-15.2400;-5.5700
1302.3450;-21.0000;-15.2300;-5.7700
1302.5440;-21.1100;-15.2500;-5.8600
1302.7430;-21.0700;-15.2400;-5.8300
1302.9430;-20.9500;-15.2400;-5.7100
1303.1420;-20.7300;-15.2600;-5.4700
1303.3410;-20.4500;-15.2500;-5.2000
1303.5400;-20.1600;-15.2700;-4.8900
1303.7390;-19.8200;-15.2500;-4.5700
1303.9380;-19.5200;-15.2600;-4.2600
1304.1370;-19.2300;-15.2700;-3.9600
1304.3360;-18.9800;-15.2700;-3.7100
1304.5350;-18.7900;-15.2800;-3.5100
1304.7350;-18.6200;-15.2700;-3.3500
1304.9340;-18.5300;-15.2800;-3.2500
1305.1330;-18.4800;-15.2800;-3.2000
1305.3320;-18.5000;-15.2800;-3.2200
1305.5310;-18.5900;-15.3100;-3.2800
1305.7300;-18.7400;-15.3000;-3.4400
1305.9290;-18.9800;-15.3100;-3.6700
1306.1280;-19.2700;-15.3200;-3.9500
1306.3270;-19.6600;-15.3300;-4.3300
1306.5270;-20.1400;-15.3600;-4.7800
1306.7260;-20.7100;-15.3700;-5.3400
1306.9250;-21.4100;-15.3900;-6.0200
1307.1240;-22.2200;-15.4000;-6.8200
1307.3230;-23.1900;-15.4200;-7.7700
1307.5220;-24.3300;-15.4600;-8.8700
1307.7210;-25.6600;-15.4700;-10.1900
1307.9200;-27.2400;-15.4900;-11.7500
1308.1200;-29.4400;-15.5200;-13.9200
1308.3190;-30.9000;-15.5400;-15.3600
1308.5180;-32.1600;-15.5700;-16.5900
1308.7170;-32.0400;-15.5900;-16.4500
1308.9160;-30.5700;-15.6200;-14.9500
1309.1150;-28.7200;-15.6400;-13.0800
1309.3140;-26.9700;-15.6700;-11.3000
1309.5130;-25.1900;-15.7000;-9.4900
1309.7120;-24.1500;-15.7100;-8.4400
1309.9120;-23.0500;-15.7500;-7.3000
1310.1110;-22.1400;-15.7700;-6.3700
1310.3100;-21.3300;-15.8000;-5.5300
1310.5090;-20.6700;-15.8200;-4.8500
1310.7080;-20.1000;-15.8400;-4.2600
1310.9070;-19.6200;-15.8800;-3.7400
1311.1060;-19.2400;-15.9100;-3.3300
1311.3050;-18.9100;-15.9400;-2.9700
1311.5040;-18.6800;-15.9800;-2.7000
1311.7040;-18.5000;-16.0100;-2.4900
1311.9030;-18.3700;-16.0500;-2.3200
1312.1020;-18.3100;-16.0800;-2.2300
1312.3010;-18.2700;-16.1400;-2.1300
1312.5000;-18.3100;-16.1800;-2.1300
1312.6990;-18.3700;-16.2300;-2.1400
1312.8980;-18.4700;-16.2700;-2.2000
1313.0970;-18.6100;-16.3200;-2.2900
1313.2970;-18.7600;-16.3800;-2.3800
1313.4960;-18.9600;-16.4400;-2.5200
1313.6950;-19.1400;-16.5000;-2.6400
1313.8940;-19.3200;-16.5400;-2.7800
1314.0930;-19.5200;-16.6100;-2.9100
1314.2920;-19.6700;-16.6700;-3.0000
1314.4910;-19.8300;-16.7300;-3.1000
1314.6900;-19.9300;-16.8000;-3.1300
1314.8890;-20.0000;-16.8400;-3.1600
1315.0890;-20.0200;-16.9000;-3.1200
1315.2880;-20.0000;-16.9500;-3.0500
1315.4870;-19.9800;-17.0100;-2.9700
1315.6860;-19.8900;-17.0800;-2.8100
1315.8850;-19.7900;-17.1200;-2.6700
1316.0840;-19.6800;-17.1800;-2.5000
1316.2830;-19.5600;-17.2300;-2.3300
1316.4820;-19.4700;-17.2900;-2.1800
1316.6810;-19.3700;-17.3500;-2.0200
1316.8810;-19.3100;-17.4000;-1.9100
1317.0800;-19.2500;-17.4900;-1.7600
1317.2790;-19.2300;-17.5300;-1.7000
1317.4780;-19.2600;-17.6100;-1.6500
1317.6770;-19.2900;-17.6700;-1.6200
1317.8760;-19.3900;-17.7300;-1.6600
1318.0750;-19.5000;-17.8000;-1.7000
1318.2740;-19.6700;-17.8600;-1.8100
1318.4740;-19.8800;-17.9400;-1.9400
1318.6730;-20.1300;-18.0200;-2.1100
1318.8720;-20.4400;-18.0900;-2.3500
1319.0710;-20.7600;-18.1800;-2.5800
1319.2700;-21.1400;-18.2500;-2.8900
1319.4690;-21.5500;-18.3500;-3.2000
1319.6680;-21.9900;-18.4300;-3.5600
1319.8670;-22.4700;-18.5500;-3.9200
1320.0660;-22.9300;-18.6100;-4.3200
1320.2660;-23.4100;-18.7100;-4.7000
1320.4650;-23.8400;-18.8000;-5.0400
1320.6640;-24.2300;-18.9000;-5.3300
1320.8630;-24.5400;-18.9900;-5.5500
1321.0620;-24.7400;-19.0800;-5.6600
1321.2610;-24.8500;-19.1900;-5.6600
1321.4600;-24.8200;-19.2700;-5.5500
1321.6590;-24.7100;-19.3700;-5.3400
1321.8580;-24.5000;-19.4700;-5.0300
1322.0580;-24.2400;-19.5600;-4.6800
1322.2570;-23.9700;-19.6700;-4.3000
1322.4560;-23.6700;-19.7500;-3.9200
1322.6550;-23.4000;-19.8500;-3.5500
1322.8540;-23.1400;-19.9500;-3.1900
1323.0530;-22.9200;-20.0500;-2.8700
1323.2520;-22.7500;-20.1700;-2.5800
1323.4510;-22.6100;-20.2600;-2.3500
1323.6500;-22.5400;-20.3700;-2.1700
1323.8500;-22.4900;-20.4700;-2.0200
1324.0490;-22.5300;-20.5800;-1.9500
1324.2480;-22.6100;-20.7000;-1.9100
1324.4470;-22.7500;-20.8000;-1.9500
1324.6460;-22.9600;-20.9200;-2.0400
1324.8450;-23.2100;-21.0300;-2.1800
1325.0440;-23.5500;-21.1500;-2.4000
1325.2430;-23.9400;-21.2800;-2.6600
1325.4430;-24.4100;-21.4000;-3.0100
1325.6420;-24.9900;-21.5500;-3.4400
1325.8410;-25.6200;-21.6700;-3.9500
1326.0400;-26.3800;-21.8000;-4.5800
1326.2390;-27.2300;-21.9400;-5.2900
1326.4380;-28.2000;-22.0700;-6.1300
1326.6370;-29.5900;-22.2200;-7.3700
1326.8360;-30.6600;-22.3400;-8.3200
1327.0350;-32.1500;-22.4800;-9.6700
1327.2350;-33.9200;-22.6200;-11.3000
1327.4340;-35.9200;-22.7500;-13.1700
1327.6330;-38.0100;-22.9000;-15.1100
1327.8320;-39.9200;-23.0200;-16.9000
1328.0310;-39.7500;-23.1700;-16.5800
1328.2300;-38.4500;-23.3000;-15.1500
1328.4290;-36.6800;-23.4400;-13.2400
1328.6280;-34.8100;-23.5800;-11.2300
1328.8270;-33.6700;-23.7100;-9.9600
1329.0270;-32.5500;-23.8600;-8.6900
1329.2260;-31.6300;-23.9800;-7.6500
1329.4250;-30.8700;-24.1200;-6.7500
1329.6240;-30.2800;-24.2500;-6.0300
1329.8230;-29.8100;-24.3800;-5.4300
1330.0220;-29.4600;-24.5300;-4.9300
1330.2210;-29.2100;-24.6600;-4.5500
1330.4200;-29.0600;-24.8000;-4.2600
1330.6200;-29.0100;-24.9300;-4.0800
1330.8190;-29.0200;-25.0800;-3.9400
1331.0180;-29.1300;-25.2300;-3.9000
1331.2170;-29.3200;-25.3800;-3.9400
1331.4160;-29.6000;-25.5400;-4.0600
1331.6150;-29.9600;-25.6800;-4.2800
1331.8140;-30.4100;-25.8400;-4.5700
1332.0130;-30.9600;-26.0000;-4.9600
1332.2120;-31.5900;-26.1500;-5.4400
1332.4120;-32.3400;-26.3300;-6.0100
1332.6110;-33.2200;-26.4900;-6.7300
1332.8100;-34.2000;-26.6600;-7.5400
1333.0090;-35.3300;-26.8200;-8.5100
1333.2080;-36.5500;-26.9900;-9.5600
1333.4070;-37.8600;-27.1600;-10.7000
1333.6060;-39.4100;-27.3300;-12.0800
1333.8050;-40.1900;-27.5100;-12.6800
1334.0040;-40.6100;-27.6600;-12.9500
1334.2040;-40.3300;-27.8400;-12.4900
1334.4030;-39.5000;-28.0100;-11.4900
1334.6020;-38.4100;-28.1600;-10.2500
1334.8010;-37.3300;-28.3400;-8.9900
1335.0000;-36.1300;-28.5400;-7.5900
1335.1990;-35.4200;-28.6800;-6.7400
1335.3980;-34.6600;-28.8300;-5.8300
1335.5970;-34.0200;-29.0100;-5.0100
1335.7970;-33.4900;-29.1700;-4.3200
1335.9960;-33.0600;-29.3400;-3.7200
1336.1950;-32.7300;-29.5100;-3.2200
1336.3940;-32.4500;-29.6700;-2.7800
1336.5930;-32.2800;-29.8500;-2.4300
1336.7920;-32.1600;-30.0000;-2.1600
1336.9910;-32.1300;-30.1700;-1.9600
1337.1900;-32.1700;-30.3400;-1.8300
1337.3890;-32.2700;-30.5100;-1.7600
1337.5890;-32.4400;-30.6900;-1.7500
1337.7880;-32.6700;-30.8600;-1.8100
1337.9870;-32.9800;-31.0500;-1.9300
1338.1860;-33.3400;-31.2100;-2.1300
1338.3850;-33.7800;-31.3900;-2.3900
1338.5840;-34.3100;-31.5800;-2.7300
1338.7830;-34.9000;-31.7500;-3.1500
1338.9820;-35.5900;-31.9500;-3.6400
1339.1810;-36.3600;-32.1300;-4.2300
1339.3810;-37.2600;-32.3200;-4.9400
1339.5800;-38.2700;-32.5000;-5.7700
1339.7790;-39.6800;-32.6800;-7.0000
1339.9780;-40.7600;-32.8800;-7.8800
1340.1770;-42.2600;-33.0600;-9.2000
1340.3760;-44.0100;-33.2700;-10.7400
1340.5750;-45.9500;-33.4500;-12.5000
1340.7740;-48.0300;-33.6400;-14.3900
1340.9740;-50.1700;-33.8200;-16.3500
1341.1730;-50.4800;-34.0000;-16.4800
1341.3720;-49.6700;-34.1900;-15.4800
1341.5710;-48.2100;-34.3700;-13.8400
1341.7700;-46.7100;-34.5600;-12.1500
1341.9690;-45.1900;-34.7400;-10.4500
1342.1680;-44.3300;-34.9100;-9.4200
1342.3670;-43.4700;-35.0900;-8.3800
1342.5660;-42.8100;-35.2700;-7.5400
1342.7660;-42.2700;-35.4600;-6.8100
1342.9650;-41.9000;-35.6300;-6.2700
1343.1640;-41.6500;-35.8100;-5.8400
1343.3630;-41.5000;-35.9900;-5.5100
1343.5620;-41.4800;-36.1600;-5.3200
1343.7610;-41.5300;-36.3600;-5.1700
1343.9600;-41.7100;-36.5400;-5.1700
1344.1590;-41.9600;-36.7300;-5.2300
1344.3580;-42.3200;-36.9100;-5.4100
1344.5580;-42.7900;-37.1000;-5.6900
1344.7570;-43.3400;-37.3000;-6.0400
1344.9560;-44.0300;-37.4700;-6.5600
1345.1550;-44.8200;-37.6600;-7.1600
1345.3540;-45.7600;-37.8300;-7.9300
1345.5530;-46.8600;-38.0200;-8.8400
1345.7520;-48.1300;-38.2100;-9.9200
1345.9510;-49.9800;-38.3900;-11.5900
1346.1500;-51.3500;-38.6300;-12.7200
1346.3500;-53.1200;-38.7900;-14.3300
1346.5490;-54.6400;-39.0000;-15.6400
1346.7480;-55.2100;-39.1800;-16.0300
1346.9470;-54.5000;-39.3700;-15.1300
1347.1460;-53.0500;-39.5500;-13.5000
1347.3450;-51.4900;-39.7200;-11.7700
1347.5440;-50.1400;-39.9500;-10.1900
1347.7430;-48.9800;-40.1800;-8.8000
1347.9430;-47.9600;-40.4000;-7.5600
1348.1420;-47.0800;-40.5700;-6.5100
1348.3410;-46.3900;-40.7600;-5.6300
1348.5400;-45.6600;-40.9100;-4.7500
1348.7390;-45.3000;-41.0700;-4.2300
1348.9380;-44.9200;-41.2400;-3.6800
1349.1370;-44.6300;-41.3900;-3.2400
1349.3360;-44.3900;-41.5500;-2.8400
1349.5350;-44.2600;-41.7100;-2.5500
1349.7350;-44.1900;-41.8600;-2.3300
1349.9340;-44.2000;-42.0500;-2.1500
1350.1330;-44.3100;-42.2300;-2.0800
1350.3320;-44.5100;-42.4800;-2.0300
1350.5310;-44.7500;-42.6800;-2.0700
1350.7300;-45.0200;-42.8500;-2.1700
1350.9290;-45.3300;-43.0100;-2.3200
1351.1280;-45.6900;-43.1300;-2.5600
1351.3270;-46.1200;-43.3000;-2.8200
1351.5270;-46.6700;-43.4800;-3.1900
1351.7260;-47.3100;-43.7100;-3.6000
1351.9250;-48.0100;-43.9100;-4.1000
1352.1240;-48.9500;-44.0800;-4.8700
1352.3230;-49.6100;-44.2800;-5.3300
1352.5220;-50.5100;-44.4800;-6.0300
1352.7210;-51.4100;-44.6600;-6.7500
1352.9200;-52.3500;-44.8100;-7.5400
1353.1200;-53.2900;-45.0800;-8.2100
1353.3190;-53.9300;-45.2000;-8.7300
1353.5180;-54.3900;-45.3800;-9.0100
1353.7170;-54.5700;-45.5800;-8.9900
1353.9160;-54.3400;-45.6800;-8.6600
1354.1150;-53.9300;-45.8500;-8.0800
1354.3140;-53.4700;-46.0700;-7.4000
1354.5130;-52.9100;-46.2700;-6.6400
1354.7120;-52.5000;-46.5900;-5.9100
1354.9120;-52.0700;-46.8600;-5.2100
1355.1110;-51.5800;-47.0600;-4.5200
1355.3100;-51.1100;-47.1600;-3.9500
1355.5090;-50.6000;-47.1700;-3.4300
1355.7080;-50.4800;-47.4200;-3.0600
1355.9070;-50.4000;-47.6900;-2.7100
1356.1060;-50.2500;-47.8500;-2.4000
1356.3050;-50.1000;-47.9300;-2.1700
1356.5040;-50.0500;-48.0300;-2.0200
1356.7040;-49.9100;-47.9300;-1.9800
1356.9030;-50.0200;-48.0800;-1.9400
1357.1020;-50.4300;-48.5100;-1.9200
1357.3010;-50.7700;-48.6600;-2.1100
1357.5000;-51.1500;-48.8300;-2.3200
1357.6990;-51.5900;-49.0000;-2.5900
1357.8980;-51.9800;-49.0700;-2.9100
1358.0970;-52.4800;-49.1200;-3.3600
1358.2970;-53.1400;-49.3000;-3.8400
1358.4960;-53.9900;-49.5200;-4.4700
1358.6950;-54.8500;-49.6600;-5.1900
1358.8940;-55.9000;-49.8200;-6.0800
1359.0930;-57.1300;-49.9700;-7.1600
1359.2920;-58.3200;-50.0300;-8.2900
1359.4910;-60.3900;-50.3900;-10.0000
1359.6900;-61.8300;-50.7000;-11.1300
1359.8890;-63.8300;-50.9000;-12.9300
1360.0890;-65.5200;-50.9500;-14.5700
1360.2880;-66.1700;-51.0100;-15.1600
1360.4870;-65.2900;-50.9900;-14.3000
1360.6860;-63.8700;-51.1700;-12.7000
1360.8850;-62.5500;-51.5100;-11.0400
1361.0840;-61.2000;-51.8000;-9.4000
1361.2830;-59.8800;-51.9900;-7.8900
1361.4820;-58.8000;-52.1300;-6.6700
1361.6810;-58.1400;-52.3600;-5.7800
1361.8810;-57.4300;-52.4800;-4.9500
1362.0800;-56.9200;-52.7100;-4.2100
1362.2790;-56.7700;-53.1200;-3.6500
1362.4780;-56.5200;-53.3500;-3.1700
1362.6770;-56.2000;-53.4900;-2.7100
1362.8760;-55.7900;-53.3600;-2.4300
1363.0750;-55.5200;-53.3200;-2.2000
1363.2740;-55.1700;-53.0700;-2.1000
1363.4740;-55.1900;-53.1500;-2.0400
1363.6730;-55.3000;-53.2300;-2.0700
1363.8720;-55.5200;-53.3700;-2.1500
1364.0710;-55.8900;-53.5900;-2.3000
1364.2700;-56.3100;-53.7800;-2.5300
1364.4690;-56.9100;-54.0900;-2.8200
1364.6680;-57.7600;-54.5900;-3.1700
1364.8670;-58.7200;-54.8200;-3.9000
1365.0660;-59.1900;-54.8100;-4.3800
1365.2660;-60.1100;-54.9800;-5.1300
1365.4650;-60.7500;-54.9400;-5.8100
1365.6640;-61.7500;-55.0100;-6.7400
1365.8630;-62.9800;-55.0800;-7.9000
1366.0620;-64.3500;-55.0800;-9.2700
1366.2610;-65.6800;-55.1000;-10.5800
1366.4600;-67.2800;-55.1900;-12.0900
1366.6590;-68.7100;-55.3600;-13.3500
1366.8580;-69.8600;-55.6300;-14.2300
1367.0580;-69.6900;-55.7800;-13.9100
1367.2570;-68.8500;-55.9100;-12.9400
1367.4560;-67.7400;-56.1700;-11.5700
1367.6550;-66.5400;-56.3800;-10.1600
1367.8540;-65.5300;-56.6800;-8.8500
1368.0530;-64.4500;-56.8000;-7.6500
1368.2520;-63.4400;-56.8100;-6.6300
1368.4510;-63.0400;-57.1300;-5.9100
1368.6500;-62.4600;-57.2400;-5.2200
1368.8500;-61.9300;-57.3800;-4.5500
1369.0490;-61.4000;-57.3500;-4.0500
1369.2480;-61.0000;-57.3400;-3.6600
1369.4470;-60.6600;-57.2800;-3.3800
1369.6460;-60.5600;-57.4000;-3.1600
1369.8450;-60.7300;-57.7300;-3.0000
1370.0440;-60.8500;-57.9200;-2.9300
1370.2430;-61.0000;-58.0800;-2.9200
1370.4430;-61.1200;-58.1300;-2.9900
1370.6420;-61.3100;-58.1900;-3.1200
1370.8410;-61.8000;-58.6200;-3.1800
1371.0400;-62.3700;-58.8100;-3.5600
1371.2390;-62.9700;-58.9800;-3.9900
1371.4380;-63.4900;-59.0300;-4.4600
1371.6370;-64.0000;-59.0200;-4.9800
1371.8360;-64.5300;-59.0300;-5.5000
1372.0350;-65.4600;-59.2400;-6.2200
1372.2350;-66.4600;-59.4500;-7.0100
1372.4340;-67.5900;-59.5800;-8.0100
1372.6330;-68.7400;-59.7100;-9.0300
1372.8320;-69.9700;-59.7700;-10.2000
1373.0310;-71.0700;-59.8200;-11.2500
1373.2300;-72.2400;-59.9800;-12.2600
1373.4290;-73.2600;-60.1800;-13.0800
1373.6280;-73.0300;-60.3000;-12.7300
1373.8270;-72.3700;-60.4400;-11.9300
1374.0270;-72.0300;-60.5500;-11.4800
1374.2260;-70.7300;-60.6800;-10.0500
1374.4250;-69.8500;-60.8800;-8.9700
1374.6240;-68.9500;-61.0400;-7.9100
1374.8230;-68.1500;-61.2800;-6.8700
1375.0220;-67.5600;-61.4500;-6.1100
1375.2210;-66.9500;-61.5800;-5.3700
1375.4200;-66.3900;-61.6900;-4.7000
1375.6200;-65.9100;-61.7900;-4.1200
1375.8190;-65.6900;-61.9200;-3.7700
1376.0180;-65.4300;-62.1300;-3.3000
1376.2170;-65.2400;-62.2900;-2.9500
1376.4160;-65.1200;-62.4300;-2.6900
1376.6150;-65.0700;-62.5700;-2.5000
1376.8140;-65.0800;-62.7600;-2.3200
1377.0130;-65.2500;-63.0000;-2.2500
1377.2120;-65.4400;-63.2300;-2.2100
1377.4120;-65.5100;-63.3200;-2.1900
1377.6110;-65.6100;-63.4600;-2.1500
1377.8100;-65.6500;-63.4800;-2.1700
1378.0090;-65.8800;-63.5200;-2.3600
1378.2080;-66.1800;-63.7000;-2.4800
1378.4070;-66.5000;-63.8900;-2.6100
1378.6060;-67.0400;-64.1800;-2.8600
1378.8050;-67.5000;-64.4700;-3.0300
1379.0040;-67.9800;-64.7000;-3.2800
1379.2040;-68.3500;-64.8500;-3.5000
1379.4030;-68.6900;-64.7900;-3.9000
1379.6020;-69.0300;-64.8000;-4.2300
1379.8010;-69.3500;-64.8500;-4.5000
1380.0000;-69.7500;-65.1000;-4.6500
1380.1990;-70.1800;-65.3400;-4.8400
1380.3980;-70.8700;-65.5600;-5.3100
1380.5970;-71.5600;-66.0700;-5.4900
1380.7970;-72.2400;-66.5800;-5.6600
1380.9960;-72.4600;-66.7200;-5.7400
1381.1950;-72.9600;-66.7100;-6.2500
1381.3940;-72.8300;-66.5200;-6.3100
1381.5930;-72.6400;-66.3200;-6.3200
1381.7920;-73.1800;-66.3800;-6.8000
1381.9910;-73.0800;-66.3600;-6.7200
1382.1900;-73.1800;-66.5100;-6.6700
1382.3890;-73.8800;-66.8700;-7.0100
1382.5890;-75.1100;-67.4100;-7.7000
1382.7880;-75.2600;-67.8600;-7.4000
1382.9870;-76.6000;-68.0900;-8.5100
1383.1860;-76.1700;-67.9400;-8.2300
1383.3850;-77.0300;-67.6000;-9.4300
1383.5840;-76.2500;-67.4500;-8.8000
1383.7830;-76.4500;-67.7100;-8.7400
1383.9820;-77.0900;-67.7800;-9.3100
1384.1810;-77.9000;-67.8100;-10.0900
1384.3810;-77.8300;-67.9300;-9.9000
1384.5800;-78.9500;-67.8100;-11.1400
1384.7790;-79.1600;-67.9700;-11.1900
1384.9780;-79.2900;-68.2800;-11.0100
1385.1770;-77.9800;-68.6200;-9.3600
1385.3760;-77.9600;-68.6300;-9.3300
1385.5750;-78.2000;-68.5100;-9.6900
1385.7740;-77.8400;-68.5700;-9.2700
1385.9740;-77.3600;-68.6500;-8.7100
1386.1730;-76.9600;-68.7400;-8.2200
1386.3720;-76.1500;-68.8400;-7.3100
1386.5710;-76.0400;-68.9800;-7.0600
1386.7700;-75.4000;-69.0500;-6.3500
1386.9690;-74.6700;-68.9900;-5.6800
1387.1680;-74.0300;-69.0500;-4.9800
1387.3670;-73.5600;-69.0700;-4.4900
1387.5660;-73.4000;-69.2200;-4.1800
1387.7660;-73.2000;-69.4900;-3.7100
1387.9650;-73.5400;-69.7600;-3.7800
1388.1640;-73.2500;-69.9600;-3.2900
1388.3630;-73.2000;-70.0600;-3.1400
1388.5620;-72.6600;-70.2400;-2.4200
1388.7610;-72.4800;-69.9400;-2.5400
1388.9600;-72.7200;-70.0200;-2.7000
1389.1590;-72.4900;-69.8400;-2.6500
1389.3580;-72.2000;-69.9300;-2.2700
1389.5580;-72.6100;-70.0100;-2.6000
1389.7570;-72.5200;-70.1500;-2.3700
1389.9560;-72.5900;-70.3000;-2.2900
1390.1550;-73.0000;-70.2500;-2.7500
1390.3540;-72.6500;-70.3600;-2.2900
1390.5530;-73.0700;-70.3900;-2.6800
1390.7520;-73.4200;-70.4600;-2.9600
1390.9510;-73.3600;-70.6800;-2.6800
1391.1500;-73.6800;-70.8500;-2.8300
1391.3500;-73.9000;-70.7800;-3.1200
1391.5490;-73.9600;-70.9100;-3.0500
1391.7480;-74.3000;-70.9300;-3.3700
1391.9470;-74.4300;-70.9200;-3.5100
1392.1460;-74.9300;-71.3600;-3.5700
1392.3450;-75.5000;-71.4700;-4.0300
1392.5440;-75.5600;-71.9400;-3.6200
1392.7430;-75.8300;-72.0600;-3.7700
1392.9430;-75.0200;-72.1400;-2.8800
1393.1420;-75.4600;-71.9400;-3.5200
1393.3410;-75.3800;-71.5800;-3.8000
1393.5400;-75.2300;-71.5500;-3.6800
1393.7390;-75.4600;-71.6200;-3.8400
1393.9380;-75.4500;-71.8500;-3.6000
1394.1370;-75.8000;-71.8300;-3.9700
1394.3360;-74.5500;-72.0400;-2.5100
1394.5350;-75.1300;-72.0500;-3.0800
1394.7350;-75.4400;-72.1200;-3.3200
1394.9340;-76.0500;-72.3700;-3.6800
1395.1330;-75.7400;-72.7900;-2.9500
1395.3320;-75.6700;-72.8000;-2.8700
1395.5310;-76.2100;-72.9900;-3.2200
1395.7300;-76.0200;-72.8700;-3.1500
1395.9290;-75.5200;-73.2600;-2.2600
1396.1280;-76.1000;-72.8800;-3.2200
1396.3270;-75.8900;-73.0700;-2.8200
1396.5270;-77.0500;-73.3100;-3.7400
1396.7260;-77.2000;-73.4800;-3.7200
1396.9250;-77.5400;-73.4800;-4.0600
1397.1240;-77.9700;-73.5800;-4.3900
1397.3230;-76.9900;-73.2300;-3.7600
1397.5220;-77.2900;-73.0300;-4.2600
1397.7210;-77.6900;-73.1700;-4.5200
1397.9200;-77.5400;-73.5500;-3.9900
1398.1200;-77.5200;-73.6700;-3.8500
1398.3190;-78.5000;-73.5200;-4.9800
1398.5180;-77.6800;-73.5900;-4.0900
1398.7170;-78.6800;-73.8200;-4.8600
1398.9160;-78.6500;-73.6100;-5.0400
1399.1150;-78.7600;-73.6400;-5.1200
1399.3140;-77.7500;-73.7900;-3.9600
1399.5130;-78.0800;-74.4200;-3.6600
1399.7120;-78.2200;-74.1900;-4.0300
1399.9120;-78.2700;-74.2200;-4.0500
1400.1110;-78.8800;-74.6900;-4.1900
1400.3100;-79.3400;-74.5900;-4.7500
1400.5090;-78.2500;-74.6700;-3.5800
1400.7080;-79.3700;-75.0900;-4.2800
1400.9070;-80.0100;-75.0900;-4.9200
1401.1060;-80.0900;-74.8500;-5.2400
1401.3050;-79.5100;-74.9200;-4.5900
1401.5040;-79.0000;-74.6700;-4.3300
1401.7040;-79.0000;-74.9200;-4.0800
1401.9030;-79.9000;-74.9000;-5.0000
1402.1020;-79.7200;-75.2600;-4.4600
1402.3010;-78.9700;-75.0600;-3.9100
1402.5000;-79.1800;-74.9400;-4.2400
1402.6990;-79.6800;-74.9700;-4.7100
1402.8980;-79.3400;-75.1500;-4.1900
1403.0970;-79.1800;-74.8000;-4.3800
1403.2970;-78.7300;-75.5000;-3.2300
1403.4960;-78.6800;-75.3700;-3.3100
1403.6950;-78.3300;-75.3200;-3.0100
1403.8940;-78.3500;-75.5300;-2.8200
1404.0930;-78.0300;-75.3200;-2.7100
1404.2920;-78.6500;-75.3000;-3.3500
1404.4910;-78.7000;-75.9000;-2.8000
1404.6900;-78.4600;-75.7700;-2.6900
1404.8890;-78.1000;-76.4800;-1.6200
1405.0890;-79.0600;-76.1200;-2.9400
1405.2880;-79.3400;-75.9300;-3.4100
1405.4870;-79.7200;-76.3600;-3.3600
1405.6860;-78.4800;-75.3900;-3.0900
1405.8850;-78.7600;-76.2300;-2.5300
1406.0840;-78.5400;-75.9000;-2.6400
1406.2830;-79.2400;-75.9000;-3.3400
1406.4820;-79.5100;-75.9900;-3.5200
1406.6810;-79.2900;-75.3900;-3.9000
1406.8810;-79.5200;-75.9200;-3.6000
1407.0800;-79.7300;-75.9700;-3.7600
1407.2790;-80.6800;-76.2000;-4.4800
1407.4780;-79.4800;-75.9700;-3.5100
1407.6770;-81.5000;-76.2100;-5.2900
1407.8760;-79.9100;-76.4900;-3.4200
1408.0750;-78.9500;-76.1600;-2.7900
1408.2740;-79.9800;-76.8600;-3.1200
1408.4740;-79.2200;-76.0000;-3.2200
1408.6730;-78.9800;-76.9300;-2.0500
1408.8720;-81.5000;-76.5100;-4.9900
1409.0710;-81.1400;-76.5100;-4.6300
1409.2700;-81.6700;-76.3400;-5.3300
1409.4690;-79.8300;-77.5400;-2.2900
1409.6680;-82.2600;-76.7900;-5.4700
1409.8670;-81.7800;-76.6100;-5.1700
1410.0660;-83.5100;-76.2800;-7.2300
1410.2660;-82.9600;-75.8500;-7.1100
1410.4650;-81.6700;-76.0300;-5.6400
1410.6640;-81.5600;-76.1800;-5.3800
1410.8630;-80.7700;-76.3100;-4.4600
1411.0620;-79.2900;-76.4200;-2.8700
1411.2610;-79.2900;-76.4100;-2.8800
1411.4600;-81.0000;-76.4400;-4.5600
1411.6590;-79.4500;-76.4700;-2.9800
1411.8580;-80.1800;-76.4700;-3.7100
1412.0580;-79.8000;-76.5100;-3.2900
1412.2570;-81.1000;-76.1300;-4.9700
1412.4560;-81.1400;-76.0900;-5.0500
1412.6550;-81.3000;-76.5900;-4.7100
1412.8540;-81.1400;-76.2600;-4.8800
1413.0530;-79.6900;-75.9200;-3.7700
1413.2520;-80.6800;-76.9700;-3.7100
1413.4510;-80.5900;-76.3400;-4.2500
1413.6500;-80.1100;-75.9500;-4.1600
1413.8500;-81.1500;-76.1000;-5.0500
1414.0490;-81.4600;-77.2100;-4.2500
1414.2480;-80.6000;-76.9300;-3.6700
1414.4470;-80.6000;-76.8300;-3.7700
1414.6460;-79.4600;-76.5000;-2.9600
1414.8450;-80.5600;-76.9400;-3.6200
1415.0440;-82.3400;-76.7100;-5.6300
1415.2430;-81.5700;-76.1700;-5.4000
1415.4430;-80.5600;-76.6000;-3.9600
1415.6420;-82.2700;-76.2100;-6.0600
1415.8410;-80.6000;-76.0800;-4.5200
1416.0400;-79.5300;-75.8900;-3.6400
1416.2390;-79.9200;-76.2200;-3.7000
1416.4380;-79.3900;-76.0500;-3.3400
1416.6370;-80.2700;-76.5200;-3.7500
1416.8360;-79.4600;-76.4200;-3.0400
1417.0350;-79.1400;-76.5200;-2.6200
1417.2350;-79.4600;-75.9800;-3.4800
1417.4340;-79.7400;-76.0500;-3.6900
1417.6330;-80.7300;-76.3500;-4.3800
1417.8320;-81.9100;-76.5200;-5.3900
1418.0310;-79.2000;-76.6200;-2.5800
1418.2300;-79.2600;-76.3500;-2.9100
1418.4290;-79.2600;-75.6300;-3.6300
1418.6280;-80.3100;-75.9500;-4.3600
1418.8270;-79.9200;-76.1600;-3.7600
1419.0270;-78.7800;-76.5200;-2.2600
1419.2260;-79.8100;-76.7600;-3.0500
1419.4250;-79.4900;-76.3500;-3.1400
1419.6240;-79.7400;-76.8900;-2.8500
1419.8230;-79.8100;-76.0100;-3.8000
1420.0220;-79.5300;-75.6200;-3.9100
1420.2210;-79.5300;-76.1000;-3.4300
1420.4200;-81.3600;-75.8400;-5.5200
1420.6200;-79.5300;-75.9500;-3.5800
1420.8190;-79.8400;-76.0800;-3.7600
1421.0180;-79.8800;-75.5100;-4.3700
1421.2170;-82.2100;-75.8300;-6.3800
1421.4160;-82.4700;-75.6400;-6.8300
1421.6150;-80.3200;-76.0500;-4.2700
1421.8140;-79.4000;-76.0200;-3.3800
1422.0130;-80.5700;-75.8100;-4.7600
1422.2120;-78.8500;-76.1400;-2.7100
1422.4120;-79.3700;-76.0800;-3.2900
1422.6110;-79.7800;-76.2000;-3.5800
1422.8100;-81.0700;-75.8100;-5.2600
1423.0090;-78.4300;-76.1800;-2.2500
1423.2080;-78.0100;-75.7800;-2.2300
1423.4070;-80.7000;-76.0200;-4.6800
1423.6060;-79.2700;-76.6300;-2.6400
1423.8050;-80.5200;-75.9600;-4.5600
1424.0040;-80.3200;-75.4900;-4.8300
1424.2040;-79.8500;-75.3300;-4.5200
1424.4030;-79.7100;-75.4500;-4.2600
1424.6020;-79.3700;-75.5000;-3.8700
1424.8010;-80.2800;-75.6300;-4.6500
1425.0000;-79.4700;-76.0500;-3.4200
