Wavelength;Intensity_Meas;Intensity_Ref;Difference_dB
1200.0000;-62.2300;-57.0700;-5.1600
1200.1990;-62.1800;-57.0400;-5.1400
1200.3980;-62.1100;-57.0000;-5.1100
1200.5970;-62.0500;-56.9900;-5.0600
1200.7970;-61.9800;-56.9700;-5.0100
1200.9960;-61.9900;-56.9200;-5.0700
1201.1950;-61.9200;-56.8900;-5.0300
1201.3940;-61.8100;-56.8600;-4.9500
1201.5930;-61.7700;-56.8100;-4.9600
1201.7920;-61.7400;-56.7700;-4.9700
1201.9910;-61.6900;-56.7100;-4.9800
1202.1900;-61.5700;-56.6600;-4.9100
1202.3890;-61.4800;-56.6200;-4.8600
1202.5890;-61.4800;-56.5700;-4.9100
1202.7880;-61.4300;-56.5200;-4.9100
1202.9870;-61.3600;-56.4600;-4.9000
1203.1860;-61.2600;-56.4100;-4.8500
1203.3850;-61.1900;-56.3700;-4.8200
1203.5840;-61.1900;-56.3200;-4.8700
1203.7830;-61.1800;-56.2800;-4.9000
1203.9820;-61.0800;-56.2400;-4.8400
1204.1810;-61.0200;-56.1900;-4.8300
1204.3810;-61.0100;-56.1700;-4.8400
1204.5800;-61.0400;-56.1300;-4.9100
1204.7790;-61.0000;-56.0900;-4.9100
1204.9780;-60.9600;-56.0600;-4.9000
1205.1770;-61.0100;-56.0400;-4.9700
1205.3760;-61.0400;-56.0100;-5.0300
1205.5750;-61.0800;-55.9900;-5.0900
1205.7740;-61.0500;-55.9800;-5.0700
1205.9740;-61.1000;-55.9500;-5.1500
1206.1730;-61.1700;-55.9400;-5.2300
1206.3720;-61.2100;-55.9300;-5.2800
1206.5710;-61.2000;-55.9100;-5.2900
1206.7700;-61.2000;-55.8800;-5.3200
1206.9690;-61.2400;-55.8600;-5.3800
1207.1680;-61.2500;-55.8300;-5.4200
1207.3670;-61.2100;-55.8100;-5.4000
1207.5660;-61.1900;-55.7800;-5.4100
1207.7660;-61.1600;-55.7500;-5.4100
1207.9650;-61.1300;-55.7100;-5.4200
1208.1640;-61.0600;-55.6800;-5.3800
1208.3630;-60.9700;-55.6600;-5.3100
1208.5620;-60.9200;-55.6000;-5.3200
1208.7610;-60.8600;-55.5600;-5.3000
1208.9600;-60.7600;-55.5100;-5.2500
1209.1590;-60.6500;-55.4500;-5.2000
1209.3580;-60.5500;-55.4100;-5.1400
1209.5580;-60.5000;-55.3600;-5.1400
1209.7570;-60.4100;-55.3100;-5.1000
1209.9560;-60.2700;-55.2600;-5.0100
1210.1550;-60.2100;-55.2100;-5.0000
1210.3540;-60.1200;-55.1800;-4.9400
1210.5530;-60.0800;-55.1100;-4.9700
1210.7520;-59.9800;-55.0700;-4.9100
1210.9510;-59.9100;-55.0300;-4.8800
1211.1500;-59.8600;-54.9800;-4.8800
1211.3500;-59.8500;-54.9500;-4.9000
1211.5490;-59.8200;-54.9100;-4.9100
1211.7480;-59.7600;-54.8700;-4.8900
1211.9470;-59.7600;-54.8400;-4.9200
1212.1460;-59.7800;-54.8100;-4.9700
1212.3450;-59.7900;-54.7800;-5.0100
1212.5440;-59.7900;-54.7600;-5.0300
1212.7430;-59.8100;-54.7400;-5.0700
1212.9430;-59.8600;-54.7100;-5.1500
1213.1420;-59.9000;-54.6700;-5.2300
1213.3410;-59.9000;-54.6500;-5.2500
1213.5400;-59.9300;-54.6200;-5.3100
1213.7390;-59.9500;-54.6000;-5.3500
1213.9380;-59.9500;-54.5600;-5.3900
1214.1370;-59.9400;-54.5300;-5.4100
1214.3360;-59.9000;-54.5100;-5.3900
1214.5350;-59.9100;-54.4600;-5.4500
1214.7350;-59.8700;-54.4300;-5.4400
1214.9340;-59.7700;-54.3900;-5.3800
1215.1330;-59.7000;-54.3400;-5.3600
1215.3320;-59.6300;-54.3000;-5.3300
1215.5310;-59.5700;-54.2500;-5.3200
1215.7300;-59.4500;-54.2000;-5.2500
1215.9290;-59.3500;-54.1500;-5.2000
1216.1280;-59.2400;-54.1000;-5.1400
1216.3270;-59.1600;-54.0400;-5.1200
1216.5270;-59.0500;-53.9900;-5.0600
1216.7260;-58.9200;-53.9300;-4.9900
1216.9250;-58.8000;-53.8800;-4.9200
1217.1240;-58.7100;-53.8100;-4.9000
1217.3230;-58.6100;-53.7700;-4.8400
1217.5220;-58.5300;-53.7200;-4.8100
1217.7210;-58.4500;-53.6700;-4.7800
1217.9200;-58.3900;-53.6200;-4.7700
1218.1200;-58.3700;-53.5700;-4.8000
1218.3190;-58.3100;-53.5300;-4.7800
1218.5180;-58.3000;-53.4800;-4.8200
1218.7170;-58.2900;-53.4500;-4.8400
1218.9160;-58.3000;-53.4100;-4.8900
1219.1150;-58.3200;-53.3600;-4.9600
1219.3140;-58.3400;-53.3500;-4.9900
1219.5130;-58.4000;-53.3200;-5.0800
1219.7120;-58.4400;-53.2800;-5.1600
1219.9120;-58.4900;-53.2400;-5.2500
1220.1110;-58.5300;-53.2100;-5.3200
1220.3100;-58.5700;-53.1800;-5.3900
1220.5090;-58.6300;-53.1400;-5.4900
1220.7080;-58.6300;-53.1100;-5.5200
1220.9070;-58.6400;-53.0700;-5.5700
1221.1060;-58.6100;-53.0200;-5.5900
1221.3050;-58.5800;-52.9800;-5.6000
1221.5040;-58.5300;-52.9100;-5.6200
1221.7040;-58.4300;-52.8700;-5.5600
1221.9030;-58.3400;-52.8100;-5.5300
1222.1020;-58.2500;-52.7400;-5.5100
1222.3010;-58.1200;-52.7000;-5.4200
1222.5000;-57.9800;-52.6200;-5.3600
1222.6990;-57.8200;-52.5600;-5.2600
1222.8980;-57.6800;-52.4900;-5.1900
1223.0970;-57.5200;-52.4200;-5.1000
1223.2970;-57.3500;-52.3700;-4.9800
1223.4960;-57.2000;-52.2800;-4.9200
1223.6950;-57.0600;-52.2200;-4.8400
1223.8940;-56.9100;-52.1600;-4.7500
1224.0930;-56.7700;-52.0800;-4.6900
1224.2920;-56.6400;-52.0300;-4.6100
1224.4910;-56.5400;-51.9500;-4.5900
1224.6900;-56.4500;-51.8900;-4.5600
1224.8890;-56.3600;-51.8300;-4.5300
1225.0890;-56.3200;-51.7700;-4.5500
1225.2880;-56.2800;-51.7200;-4.5600
1225.4870;-56.2700;-51.6500;-4.6200
1225.6860;-56.2600;-51.6100;-4.6500
1225.8850;-56.2900;-51.5600;-4.7300
1226.0840;-56.3500;-51.5000;-4.8500
1226.2830;-56.4000;-51.4700;-4.9300
1226.4820;-56.4600;-51.4000;-5.0600
1226.6810;-56.5400;-51.3600;-5.1800
1226.8810;-56.6100;-51.3100;-5.3000
1227.0800;-56.6900;-51.2500;-5.4400
1227.2790;-56.7500;-51.2200;-5.5300
1227.4780;-56.8100;-51.1500;-5.6600
1227.6770;-56.8300;-51.1000;-5.7300
1227.8760;-56.8500;-51.0500;-5.8000
1228.0750;-56.8200;-50.9800;-5.8400
1228.2740;-56.7800;-50.9300;-5.8500
1228.4740;-56.7100;-50.8500;-5.8600
1228.6730;-56.5900;-50.7900;-5.8000
1228.8720;-56.4600;-50.7300;-5.7300
1229.0710;-56.3200;-50.6500;-5.6700
1229.2700;-56.1600;-50.5900;-5.5700
1229.4690;-56.0000;-50.5000;-5.5000
1229.6680;-55.8100;-50.4300;-5.3800
1229.8670;-55.6000;-50.3500;-5.2500
1230.0660;-55.4500;-50.2700;-5.1800
1230.2660;-55.2800;-50.2100;-5.0700
1230.4650;-55.1200;-50.1100;-5.0100
1230.6640;-54.9800;-50.0300;-4.9500
1230.8630;-54.8900;-49.9800;-4.9100
1231.0620;-54.7700;-49.9000;-4.8700
1231.2610;-54.7100;-49.8500;-4.8600
1231.4600;-54.6800;-49.7900;-4.8900
1231.6590;-54.6500;-49.7200;-4.9300
1231.8580;-54.6500;-49.6600;-4.9900
1232.0580;-54.6800;-49.6000;-5.0800
1232.2570;-54.7300;-49.5500;-5.1800
1232.4560;-54.8200;-49.4900;-5.3300
1232.6550;-54.9000;-49.4400;-5.4600
1232.8540;-55.0000;-49.3700;-5.6300
1233.0530;-55.1100;-49.3200;-5.7900
1233.2520;-55.2100;-49.2800;-5.9300
1233.4510;-55.3100;-49.2100;-6.1000
1233.6500;-55.4100;-49.1700;-6.2400
1233.8500;-55.4900;-49.1000;-6.3900
1234.0490;-55.5200;-49.0400;-6.4800
1234.2480;-55.5200;-48.9800;-6.5400
1234.4470;-55.4800;-48.9000;-6.5800
1234.6460;-55.4100;-48.8500;-6.5600
1234.8450;-55.3300;-48.7800;-6.5500
1235.0440;-55.1500;-48.7000;-6.4500
1235.2430;-54.9800;-48.6300;-6.3500
1235.4430;-54.7800;-48.5400;-6.2400
1235.6420;-54.5600;-48.4800;-6.0800
1235.8410;-54.3400;-48.3800;-5.9600
1236.0400;-54.1000;-48.3000;-5.8000
1236.2390;-53.8600;-48.2100;-5.6500
1236.4380;-53.6300;-48.1100;-5.5200
1236.6370;-53.4200;-48.0400;-5.3800
1236.8360;-53.2200;-47.9400;-5.2800
1237.0350;-53.0400;-47.8600;-5.1800
1237.2350;-52.8800;-47.7700;-5.1100
1237.4340;-52.7200;-47.6800;-5.0400
1237.6330;-52.6100;-47.6100;-5.0000
1237.8320;-52.5400;-47.5200;-5.0200
1238.0310;-52.4500;-47.4400;-5.0100
1238.2300;-52.4100;-47.3600;-5.0500
1238.4290;-52.3800;-47.2700;-5.1100
1238.6280;-52.3800;-47.2100;-5.1700
1238.8270;-52.4000;-47.1200;-5.2800
1239.0270;-52.4100;-47.0600;-5.3500
1239.2260;-52.4500;-46.9600;-5.4900
1239.4250;-52.4700;-46.8800;-5.5900
1239.6240;-52.4900;-46.8100;-5.6800
1239.8230;-52.5200;-46.7200;-5.8000
1240.0220;-52.5300;-46.6500;-5.8800
1240.2210;-52.5100;-46.5400;-5.9700
1240.4200;-52.4600;-46.4500;-6.0100
1240.6200;-52.4000;-46.3700;-6.0300
1240.8190;-52.3200;-46.2600;-6.0600
1241.0180;-52.1800;-46.1600;-6.0200
1241.2170;-52.0500;-46.0400;-6.0100
1241.4160;-51.8900;-45.9100;-5.9800
1241.6150;-51.7200;-45.8000;-5.9200
1241.8140;-51.5700;-45.6900;-5.8800
1242.0130;-51.3900;-45.5700;-5.8200
1242.2120;-51.2500;-45.4400;-5.8100
1242.4120;-51.0800;-45.3300;-5.7500
1242.6110;-50.9400;-45.1800;-5.7600
1242.8100;-50.8300;-45.0600;-5.7700
1243.0090;-50.7200;-44.9200;-5.8000
1243.2080;-50.6400;-44.8000;-5.8400
1243.4070;-50.5800;-44.6800;-5.9000
1243.6060;-50.5300;-44.5300;-6.0000
1243.8050;-50.5200;-44.4100;-6.1100
1244.0040;-50.5000;-44.2800;-6.2200
1244.2040;-50.5200;-44.1500;-6.3700
1244.4030;-50.5300;-44.0300;-6.5000
1244.6020;-50.5400;-43.8800;-6.6600
1244.8010;-50.5400;-43.7600;-6.7800
1245.0000;-50.5200;-43.6400;-6.8800
1245.1990;-50.4900;-43.5100;-6.9800
1245.3980;-50.3900;-43.4000;-6.9900
1245.5970;-50.2500;-43.2500;-7.0000
1245.7970;-50.0800;-43.1300;-6.9500
1245.9960;-49.8300;-42.9900;-6.8400
1246.1950;-49.5600;-42.8500;-6.7100
1246.3940;-49.2200;-42.7300;-6.4900
1246.5930;-48.8600;-42.5700;-6.2900
1246.7920;-48.4900;-42.4300;-6.0600
1246.9910;-48.0800;-42.2800;-5.8000
1247.1900;-47.7000;-42.1200;-5.5800
1247.3890;-47.3100;-41.9800;-5.3300
1247.5890;-46.9200;-41.8100;-5.1100
1247.7880;-46.5700;-41.6600;-4.9100
1247.9870;-46.2300;-41.4900;-4.7400
1248.1860;-45.9400;-41.3300;-4.6100
1248.3850;-45.6100;-41.1800;-4.4300
1248.5840;-45.4200;-41.0000;-4.4200
1248.7830;-45.2100;-40.8400;-4.3700
1248.9820;-45.0300;-40.6800;-4.3500
1249.1810;-44.9000;-40.5200;-4.3800
1249.3810;-44.7900;-40.3600;-4.4300
1249.5800;-44.7200;-40.1800;-4.5400
1249.7790;-44.6600;-40.0300;-4.6300
1249.9780;-44.6300;-39.8600;-4.7700
1250.1770;-44.6400;-39.7000;-4.9400
1250.3760;-44.6500;-39.5600;-5.0900
1250.5750;-44.6700;-39.3900;-5.2800
1250.7740;-44.6900;-39.2300;-5.4600
1250.9740;-44.7100;-39.0900;-5.6200
1251.1730;-44.6900;-38.9300;-5.7600
1251.3720;-44.6300;-38.7900;-5.8400
1251.5710;-44.5600;-38.6400;-5.9200
1251.7700;-44.3900;-38.4900;-5.9000
1251.9690;-44.1900;-38.3300;-5.8600
1252.1680;-43.9300;-38.1700;-5.7600
1252.3670;-43.6300;-38.0300;-5.6000
1252.5660;-43.3100;-37.8700;-5.4400
1252.7660;-42.9300;-37.7100;-5.2200
1252.9650;-42.5700;-37.5600;-5.0100
1253.1640;-42.1900;-37.3900;-4.8000
1253.3630;-41.8100;-37.2400;-4.5700
1253.5620;-41.4800;-37.0800;-4.4000
1253.7610;-41.1500;-36.9200;-4.2300
1253.9600;-40.8600;-36.7600;-4.1000
1254.1590;-40.6000;-36.5900;-4.0100
1254.3580;-40.3900;-36.4400;-3.9500
1254.5580;-40.2500;-36.2700;-3.9800
1254.7570;-40.1300;-36.1200;-4.0100
1254.9560;-40.0800;-35.9500;-4.1300
1255.1550;-40.1000;-35.7800;-4.3200
1255.3540;-40.1700;-35.6400;-4.5300
1255.5530;-40.3300;-35.4900;-4.8400
1255.7520;-40.5400;-35.3400;-5.2000
1255.9510;-40.8400;-35.1700;-5.6700
1256.1500;-41.2300;-35.0400;-6.1900
1256.3500;-41.6900;-34.8700;-6.8200
1256.5490;-42.2700;-34.7200;-7.5500
1256.7480;-42.8900;-34.5700;-8.3200
1256.9470;-43.5900;-34.4200;-9.1700
1257.1460;-44.3000;-34.2700;-10.0300
1257.3450;-44.9300;-34.1000;-10.8300
1257.5440;-45.3800;-33.9600;-11.4200
1257.7430;-45.4700;-33.8100;-11.6600
1257.9430;-45.1100;-33.6500;-11.4600
1258.1420;-44.3600;-33.5100;-10.8500
1258.3410;-43.3400;-33.3400;-10.0000
1258.5400;-42.2300;-33.1900;-9.0400
1258.7390;-41.0800;-33.0300;-8.0500
1258.9380;-39.9900;-32.8700;-7.1200
1259.1370;-38.9700;-32.7300;-6.2400
1259.3360;-38.0300;-32.5600;-5.4700
1259.5350;-37.1900;-32.4200;-4.7700
1259.7350;-36.4100;-32.2700;-4.1400
1259.9340;-35.6100;-32.1100;-3.5000
1260.1330;-35.1000;-31.9700;-3.1300
1260.3320;-34.5700;-31.8100;-2.7600
1260.5310;-34.0900;-31.6800;-2.4100
1260.7300;-33.6900;-31.5300;-2.1600
1260.9290;-33.3500;-31.3800;-1.9700
1261.1280;-33.0700;-31.2500;-1.8200
1261.3270;-32.8700;-31.0900;-1.7800
1261.5270;-32.7300;-30.9700;-1.7600
1261.7260;-32.6500;-30.8200;-1.8300
1261.9250;-32.6500;-30.6800;-1.9700
1262.1240;-32.7100;-30.5500;-2.1600
1262.3230;-32.8600;-30.4000;-2.4600
1262.5220;-33.0800;-30.2700;-2.8100
1262.7210;-33.3800;-30.1300;-3.2500
1262.9200;-33.7700;-29.9800;-3.7900
1263.1200;-34.2600;-29.8500;-4.4100
1263.3190;-34.8800;-29.6900;-5.1900
1263.5180;-35.6100;-29.5600;-6.0500
1263.7170;-36.5000;-29.4100;-7.0900
1263.9160;-37.5400;-29.2600;-8.2800
1264.1150;-39.0200;-29.1300;-9.8900
1264.3140;-40.1500;-28.9600;-11.1900
1264.5130;-41.5300;-28.8300;-12.7000
1264.7120;-42.5900;-28.6800;-13.9100
1264.9120;-42.7000;-28.5300;-14.1700
1265.1110;-41.7300;-28.3900;-13.3400
1265.3100;-40.1300;-28.2300;-11.9000
1265.5090;-38.4100;-28.1000;-10.3100
1265.7080;-36.8300;-27.9500;-8.8800
1265.9070;-35.1600;-27.8100;-7.3500
1266.1060;-34.1300;-27.6800;-6.4500
1266.3050;-33.0300;-27.5400;-5.4900
1266.5040;-32.0900;-27.4200;-4.6700
1266.7040;-31.2500;-27.2900;-3.9600
1266.9030;-30.5100;-27.1600;-3.3500
1267.1020;-29.8900;-27.0400;-2.8500
1267.3010;-29.3400;-26.9100;-2.4300
1267.5000;-28.9000;-26.8000;-2.1000
1267.6990;-28.5000;-26.6800;-1.8200
1267.8980;-28.1900;-26.5600;-1.6300
1268.0970;-27.9600;-26.4600;-1.5000
1268.2970;-27.7600;-26.3300;-1.4300
1268.4960;-27.6600;-26.2300;-1.4300
1268.6950;-27.5800;-26.0800;-1.5000
1268.8940;-27.5700;-25.9900;-1.5800
1269.0930;-27.6200;-25.8800;-1.7400
1269.2920;-27.7000;-25.7500;-1.9500
1269.4910;-27.8600;-25.6500;-2.2100
1269.6900;-28.0400;-25.5100;-2.5300
1269.8890;-28.2500;-25.3900;-2.8600
1270.0890;-28.5000;-25.2600;-3.2400
1270.2880;-28.7600;-25.1300;-3.6300
1270.4870;-29.0400;-25.0300;-4.0100
1270.6860;-29.2800;-24.8900;-4.3900
1270.8850;-29.4800;-24.7600;-4.7200
1271.0840;-29.6100;-24.6300;-4.9800
1271.2830;-29.6400;-24.5100;-5.1300
1271.4820;-29.5700;-24.3900;-5.1800
1271.6810;-29.3700;-24.2600;-5.1100
1271.8810;-29.0700;-24.1500;-4.9200
1272.0800;-28.6900;-24.0300;-4.6600
1272.2790;-28.2500;-23.9100;-4.3400
1272.4780;-27.7900;-23.8200;-3.9700
1272.6770;-27.3000;-23.7000;-3.6000
1272.8760;-26.8400;-23.6100;-3.2300
1273.0750;-26.4000;-23.5000;-2.9000
1273.2740;-25.9400;-23.4000;-2.5400
1273.4740;-25.6400;-23.3200;-2.3200
1273.6730;-25.3200;-23.2100;-2.1100
1273.8720;-25.0700;-23.1300;-1.9400
1274.0710;-24.8500;-23.0300;-1.8200
1274.2700;-24.7000;-22.9300;-1.7700
1274.4690;-24.5800;-22.8500;-1.7300
1274.6680;-24.5400;-22.7500;-1.7900
1274.8670;-24.5700;-22.6600;-1.9100
1275.0660;-24.6400;-22.5600;-2.0800
1275.2660;-24.7900;-22.4700;-2.3200
1275.4650;-25.0000;-22.3800;-2.6200
1275.6640;-25.3000;-22.2700;-3.0300
1275.8630;-25.6900;-22.1800;-3.5100
1276.0620;-26.1600;-22.0700;-4.0900
1276.2610;-26.7600;-21.9700;-4.7900
1276.4600;-27.4600;-21.8700;-5.5900
1276.6590;-28.5000;-21.7500;-6.7500
1276.8580;-29.3400;-21.6600;-7.6800
1277.0580;-30.5500;-21.5400;-9.0100
1277.2570;-31.9600;-21.4500;-10.5100
1277.4560;-33.5400;-21.3500;-12.1900
1277.6550;-35.1000;-21.2400;-13.8600
1277.8540;-36.0500;-21.1600;-14.8900
1278.0530;-35.7800;-21.0500;-14.7300
1278.2520;-34.3900;-20.9600;-13.4300
1278.4510;-32.6000;-20.8700;-11.7300
1278.6500;-30.8700;-20.7700;-10.1000
1278.8500;-29.3000;-20.7000;-8.6000
1279.0490;-27.9600;-20.6000;-7.3600
1279.2480;-26.7900;-20.5200;-6.2700
1279.4470;-25.6400;-20.4400;-5.2000
1279.6460;-24.9100;-20.3500;-4.5600
1279.8450;-24.1600;-20.2800;-3.8800
1280.0440;-23.5200;-20.1900;-3.3300
1280.2430;-22.9500;-20.1300;-2.8200
1280.4430;-22.4900;-20.0400;-2.4500
1280.6420;-22.0900;-19.9700;-2.1200
1280.8410;-21.7600;-19.9000;-1.8600
1281.0400;-21.5200;-19.8200;-1.7000
1281.2390;-21.3200;-19.7500;-1.5700
1281.4380;-21.2200;-19.6700;-1.5500
1281.6370;-21.1500;-19.6000;-1.5500
1281.8360;-21.1500;-19.5300;-1.6200
1282.0350;-21.2300;-19.4500;-1.7800
1282.2350;-21.3500;-19.3900;-1.9600
1282.4340;-21.5600;-19.3000;-2.2600
1282.6330;-21.8200;-19.2400;-2.5800
1282.8320;-22.1500;-19.1700;-2.9800
1283.0310;-22.5500;-19.0900;-3.4600
1283.2300;-22.9900;-19.0200;-3.9700
1283.4290;-23.5200;-18.9400;-4.5800
1283.6280;-24.0500;-18.8700;-5.1800
1283.8270;-24.6100;-18.8000;-5.8100
1284.0270;-25.1500;-18.7200;-6.4300
1284.2260;-25.6100;-18.6600;-6.9500
1284.4250;-25.9200;-18.5800;-7.3400
1284.6240;-26.0000;-18.5100;-7.4900
1284.8230;-25.8500;-18.4300;-7.4200
1285.0220;-25.4700;-18.3600;-7.1100
1285.2210;-24.9000;-18.3000;-6.6000
1285.4200;-24.2400;-18.2200;-6.0200
1285.6200;-23.5200;-18.1600;-5.3600
1285.8190;-22.8100;-18.1000;-4.7100
1286.0180;-22.1300;-18.0300;-4.1000
1286.2170;-21.4900;-17.9800;-3.5100
1286.4160;-20.9300;-17.9100;-3.0200
1286.6150;-20.4100;-17.8800;-2.5300
1286.8140;-19.9700;-17.8200;-2.1500
1287.0130;-19.5800;-17.7600;-1.8200
1287.2120;-19.2500;-17.7200;-1.5300
1287.4120;-19.0000;-17.6600;-1.3400
1287.6110;-18.8000;-17.6300;-1.1700
1287.8100;-18.6700;-17.5700;-1.1000
1288.0090;-18.5900;-17.5200;-1.0700
1288.2080;-18.5800;-17.4800;-1.1000
1288.4070;-18.6400;-17.4300;-1.2100
1288.6060;-18.7500;-17.4000;-1.3500
1288.8050;-18.9400;-17.3400;-1.6000
1289.0040;-19.1700;-17.3000;-1.8700
1289.2040;-19.4800;-17.2500;-2.2300
1289.4030;-19.8700;-17.1900;-2.6800
1289.6020;-20.3000;-17.1600;-3.1400
1289.8010;-20.8100;-17.0900;-3.7200
1290.0000;-21.3600;-17.0400;-4.3200
1290.1990;-21.9500;-16.9900;-4.9600
1290.3980;-22.5800;-16.9300;-5.6500
1290.5970;-23.1800;-16.8900;-6.2900
1290.7970;-23.7200;-16.8200;-6.9000
1290.9960;-24.0600;-16.7600;-7.3000
1291.1950;-24.2100;-16.7000;-7.5100
1291.3940;-24.0800;-16.6400;-7.4400
1291.5930;-23.7100;-16.5800;-7.1300
1291.7920;-23.1800;-16.5200;-6.6600
1291.9910;-22.5200;-16.4800;-6.0400
1292.1900;-21.8200;-16.4200;-5.4000
1292.3890;-21.1300;-16.3800;-4.7500
1292.5890;-20.4600;-16.3300;-4.1300
1292.7880;-19.8700;-16.2800;-3.5900
1292.9870;-19.3200;-16.2500;-3.0700
1293.1860;-18.8500;-16.2100;-2.6400
1293.3850;-18.4400;-16.1800;-2.2600
1293.5840;-18.0900;-16.1400;-1.9500
1293.7830;-17.8100;-16.1200;-1.6900
1293.9820;-17.6000;-16.0900;-1.5100
1294.1810;-17.4600;-16.0700;-1.3900
1294.3810;-17.3700;-16.0600;-1.3100
1294.5800;-17.3400;-16.0200;-1.3200
1294.7790;-17.3900;-16.0100;-1.3800
1294.9780;-17.5000;-15.9800;-1.5200
1295.1770;-17.6900;-15.9600;-1.7300
1295.3760;-17.9400;-15.9400;-2.0000
1295.5750;-18.2600;-15.9000;-2.3600
1295.7740;-18.6700;-15.8900;-2.7800
1295.9740;-19.1500;-15.8400;-3.3100
1296.1730;-19.7600;-15.8200;-3.9400
1296.3720;-20.4500;-15.7900;-4.6600
1296.5710;-21.2700;-15.7400;-5.5300
1296.7700;-22.2300;-15.7200;-6.5100
1296.9690;-23.3400;-15.6800;-7.6600
1297.1680;-24.6600;-15.6500;-9.0100
1297.3670;-26.1600;-15.6100;-10.5500
1297.5660;-27.8200;-15.5600;-12.2600
1297.7660;-29.8600;-15.5400;-14.3200
1297.9650;-30.7000;-15.4900;-15.2100
1298.1640;-30.6400;-15.4600;-15.1800
1298.3630;-29.4800;-15.4300;-14.0500
1298.5620;-27.8300;-15.3800;-12.4500
1298.7610;-26.2100;-15.3600;-10.8500
1298.9600;-24.5700;-15.3300;-9.2400
1299.1590;-23.5700;-15.3200;-8.2500
1299.3580;-22.5500;-15.2900;-7.2600
1299.5580;-21.6600;-15.2600;-6.4000
1299.7570;-20.9300;-15.2500;-5.6800
1299.9560;-20.3100;-15.2400;-5.0700
1300.1550;-19.8100;-15.2400;-4.5700
1300.3540;-19.4100;-15.2200;-4.1900
1300.5530;-19.0900;-15.2100;-3.8800
1300.7520;-18.8800;-15.2100;-3.6700
1300.9510;-18.7200;-15.2000;-3.5200
1301.1500;-18.6700;-15.2200;-3.4500
1301.3500;-18.6800;-15.2100;-3.4700
1301.5490;-18.7800;-15.2200;-3.5600
1301.7480;-18.9600;-15.2200;-3.7400
1301.9470;-19.2000;-15.2200;-3.9800
1302.1460;-19.5500;-15.2400;-4.3100
1302.3450;-19.9800;-15.2300;-4.7500
1302.5440;-20.5000;-15.2500;-5.2500
1302.7430;-21.1300;-15.2400;-5.8900
1302.9430;-21.8600;-15.2400;-6.6200
1303.1420;-22.7200;-15.2600;-7.4600
1303.3410;-23.6800;-15.2500;-8.4300
1303.5400;-24.7600;-15.2700;-9.4900
1303.7390;-25.9000;-15.2500;-10.6500
1303.9380;-26.9700;-15.2600;-11.7100
1304.1370;-27.7900;-15.2700;-12.5200
1304.3360;-28.0300;-15.2700;-12.7600
1304.5350;-27.6300;-15.2800;-12.3500
1304.7350;-26.7100;-15.2700;-11.4400
1304.9340;-25.5600;-15.2800;-10.2800
1305.1330;-24.4000;-15.2800;-9.1200
1305.3320;-23.2900;-15.2800;-8.0100
1305.5310;-22.3100;-15.3100;-7.0000
1305.7300;-21.4300;-15.3000;-6.1300
1305.9290;-20.6600;-15.3100;-5.3500
1306.1280;-20.0200;-15.3200;-4.7000
1306.3270;-19.4400;-15.3300;-4.1100
1306.5270;-18.9700;-15.3600;-3.6100
1306.7260;-18.5800;-15.3700;-3.2100
1306.9250;-18.2500;-15.3900;-2.8600
1307.1240;-18.0100;-15.4000;-2.6100
1307.3230;-17.8100;-15.4200;-2.3900
1307.5220;-17.7000;-15.4600;-2.2400
1307.7210;-17.6300;-15.4700;-2.1600
1307.9200;-17.6200;-15.4900;-2.1300
1308.1200;-17.6900;-15.5200;-2.1700
1308.3190;-17.7700;-15.5400;-2.2300
1308.5180;-17.9400;-15.5700;-2.3700
1308.7170;-18.1200;-15.5900;-2.5300
1308.9160;-18.3500;-15.6200;-2.7300
1309.1150;-18.6400;-15.6400;-3.0000
1309.3140;-18.9300;-15.6700;-3.2600
1309.5130;-19.2600;-15.7000;-3.5600
1309.7120;-19.5800;-15.7100;-3.8700
1309.9120;-19.9000;-15.7500;-4.1500
1310.1110;-20.2100;-15.7700;-4.4400
1310.3100;-20.4600;-15.8000;-4.6600
1310.5090;-20.6800;-15.8200;-4.8600
1310.7080;-20.8100;-15.8400;-4.9700
1310.9070;-20.8600;-15.8800;-4.9800
1311.1060;-20.8500;-15.9100;-4.9400
1311.3050;-20.7500;-15.9400;-4.8100
1311.5040;-20.6200;-15.9800;-4.6400
1311.7040;-20.4100;-16.0100;-4.4000
1311.9030;-20.1900;-16.0500;-4.1400
1312.1020;-19.9600;-16.0800;-3.8800
1312.3010;-19.7400;-16.1400;-3.6000
1312.5000;-19.5500;-16.1800;-3.3700
1312.6990;-19.3700;-16.2300;-3.1400
1312.8980;-19.2500;-16.2700;-2.9800
1313.0970;-19.1400;-16.3200;-2.8200
1313.2970;-19.1000;-16.3800;-2.7200
1313.4960;-19.1200;-16.4400;-2.6800
1313.6950;-19.1800;-16.5000;-2.6800
1313.8940;-19.3100;-16.5400;-2.7700
1314.0930;-19.4900;-16.6100;-2.8800
1314.2920;-19.7400;-16.6700;-3.0700
1314.4910;-20.0600;-16.7300;-3.3300
1314.6900;-20.4500;-16.8000;-3.6500
1314.8890;-20.9400;-16.8400;-4.1000
1315.0890;-21.4900;-16.9000;-4.5900
1315.2880;-22.1600;-16.9500;-5.2100
1315.4870;-22.9300;-17.0100;-5.9200
1315.6860;-23.8100;-17.0800;-6.7300
1315.8850;-24.8400;-17.1200;-7.7200
1316.0840;-25.9900;-17.1800;-8.8100
1316.2830;-27.2700;-17.2300;-10.0400
1316.4820;-28.9000;-17.2900;-11.6100
1316.6810;-29.9100;-17.3500;-12.5600
1316.8810;-30.7600;-17.4000;-13.3600
1317.0800;-30.9100;-17.4900;-13.4200
1317.2790;-30.2200;-17.5300;-12.6900
1317.4780;-29.0800;-17.6100;-11.4700
1317.6770;-27.8000;-17.6700;-10.1300
1317.8760;-26.5600;-17.7300;-8.8300
1318.0750;-25.2800;-17.8000;-7.4800
1318.2740;-24.4700;-17.8600;-6.6100
1318.4740;-23.6500;-17.9400;-5.7100
1318.6730;-22.9300;-18.0200;-4.9100
1318.8720;-22.3200;-18.0900;-4.2300
1319.0710;-21.8100;-18.1800;-3.6300
1319.2700;-21.3800;-18.2500;-3.1300
1319.4690;-21.0500;-18.3500;-2.7000
1319.6680;-20.7700;-18.4300;-2.3400
1319.8670;-20.5700;-18.5500;-2.0200
1320.0660;-20.4200;-18.6100;-1.8100
1320.2660;-20.3400;-18.7100;-1.6300
1320.4650;-20.3300;-18.8000;-1.5300
1320.6640;-20.3600;-18.9000;-1.4600
1320.8630;-20.4500;-18.9900;-1.4600
1321.0620;-20.5800;-19.0800;-1.5000
1321.2610;-20.7600;-19.1900;-1.5700
1321.4600;-21.0000;-19.2700;-1.7300
1321.6590;-21.2600;-19.3700;-1.8900
1321.8580;-21.5900;-19.4700;-2.1200
1322.0580;-21.9200;-19.5600;-2.3600
1322.2570;-22.3100;-19.6700;-2.6400
1322.4560;-22.7000;-19.7500;-2.9500
1322.6550;-23.1100;-19.8500;-3.2600
1322.8540;-23.5300;-19.9500;-3.5800
1323.0530;-23.9100;-20.0500;-3.8600
1323.2520;-24.2900;-20.1700;-4.1200
1323.4510;-24.6000;-20.2600;-4.3400
1323.6500;-24.8500;-20.3700;-4.4800
1323.8500;-25.0300;-20.4700;-4.5600
1324.0490;-25.1200;-20.5800;-4.5400
1324.2480;-25.1600;-20.7000;-4.4600
1324.4470;-25.1100;-20.8000;-4.3100
1324.6460;-25.0200;-20.9200;-4.1000
1324.8450;-24.9000;-21.0300;-3.8700
1325.0440;-24.7500;-21.1500;-3.6000
1325.2430;-24.6200;-21.2800;-3.3400
1325.4430;-24.4800;-21.4000;-3.0800
1325.6420;-24.3800;-21.5500;-2.8300
1325.8410;-24.2800;-21.6700;-2.6100
1326.0400;-24.2200;-21.8000;-2.4200
1326.2390;-24.2100;-21.9400;-2.2700
1326.4380;-24.2200;-22.0700;-2.1500
1326.6370;-24.2900;-22.2200;-2.0700
1326.8360;-24.3800;-22.3400;-2.0400
1327.0350;-24.5200;-22.4800;-2.0400
1327.2350;-24.7000;-22.6200;-2.0800
1327.4340;-24.9100;-22.7500;-2.1600
1327.6330;-25.1700;-22.9000;-2.2700
1327.8320;-25.4400;-23.0200;-2.4200
1328.0310;-25.7500;-23.1700;-2.5800
1328.2300;-26.0800;-23.3000;-2.7800
1328.4290;-26.4300;-23.4400;-2.9900
1328.6280;-26.8000;-23.5800;-3.2200
1328.8270;-27.1400;-23.7100;-3.4300
1329.0270;-27.4800;-23.8600;-3.6200
1329.2260;-27.7800;-23.9800;-3.8000
1329.4250;-28.0400;-24.1200;-3.9200
1329.6240;-28.2500;-24.2500;-4.0000
1329.8230;-28.3900;-24.3800;-4.0100
1330.0220;-28.5000;-24.5300;-3.9700
1330.2210;-28.5200;-24.6600;-3.8600
1330.4200;-28.5000;-24.8000;-3.7000
1330.6200;-28.4200;-24.9300;-3.4900
1330.8190;-28.3300;-25.0800;-3.2500
1331.0180;-28.2300;-25.2300;-3.0000
1331.2170;-28.1200;-25.3800;-2.7400
1331.4160;-28.0300;-25.5400;-2.4900
1331.6150;-27.9500;-25.6800;-2.2700
1331.8140;-27.9000;-25.8400;-2.0600
1332.0130;-27.8700;-26.0000;-1.8700
1332.2120;-27.8900;-26.1500;-1.7400
1332.4120;-27.9600;-26.3300;-1.6300
1332.6110;-28.0700;-26.4900;-1.5800
1332.8100;-28.2300;-26.6600;-1.5700
1333.0090;-28.4300;-26.8200;-1.6100
1333.2080;-28.6900;-26.9900;-1.7000
1333.4070;-29.0100;-27.1600;-1.8500
1333.6060;-29.3900;-27.3300;-2.0600
1333.8050;-29.8400;-27.5100;-2.3300
1334.0040;-30.3500;-27.6600;-2.6900
1334.2040;-30.9500;-27.8400;-3.1100
1334.4030;-31.6200;-28.0100;-3.6100
1334.6020;-32.3800;-28.1600;-4.2200
1334.8010;-33.2500;-28.3400;-4.9100
1335.0000;-34.2300;-28.5400;-5.6900
1335.1990;-35.3400;-28.6800;-6.6600
1335.3980;-36.5700;-28.8300;-7.7400
1335.5970;-37.9400;-29.0100;-8.9300
1335.7970;-39.7300;-29.1700;-10.5600
1335.9960;-40.8900;-29.3400;-11.5500
1336.1950;-42.0500;-29.5100;-12.5400
1336.3940;-42.5700;-29.6700;-12.9000
1336.5930;-42.2700;-29.8500;-12.4200
1336.7920;-41.3400;-30.0000;-11.3400
1336.9910;-40.2000;-30.1700;-10.0300
1337.1900;-39.0500;-30.3400;-8.7100
1337.3890;-38.0300;-30.5100;-7.5200
1337.5890;-37.1400;-30.6900;-6.4500
1337.7880;-36.2400;-30.8600;-5.3800
1337.9870;-35.7400;-31.0500;-4.6900
1338.1860;-35.2200;-31.2100;-4.0100
1338.3850;-34.8200;-31.3900;-3.4300
1338.5840;-34.4800;-31.5800;-2.9000
1338.7830;-34.2500;-31.7500;-2.5000
1338.9820;-34.0800;-31.9500;-2.1300
1339.1810;-34.0000;-32.1300;-1.8700
1339.3810;-33.9900;-32.3200;-1.6700
1339.5800;-34.0300;-32.5000;-1.5300
1339.7790;-34.1600;-32.6800;-1.4800
1339.9780;-34.3300;-32.8800;-1.4500
1340.1770;-34.5800;-33.0600;-1.5200
1340.3760;-34.8800;-33.2700;-1.6100
1340.5750;-35.2600;-33.4500;-1.8100
1340.7740;-35.6900;-33.6400;-2.0500
1340.9740;-36.1600;-33.8200;-2.3400
1341.1730;-36.7200;-34.0000;-2.7200
1341.3720;-37.3300;-34.1900;-3.1400
1341.5710;-38.0000;-34.3700;-3.6300
1341.7700;-38.9000;-34.5600;-4.3400
1341.9690;-39.5300;-34.7400;-4.7900
1342.1680;-40.3500;-34.9100;-5.4400
1342.3670;-41.1800;-35.0900;-6.0900
1342.5660;-41.9900;-35.2700;-6.7200
1342.7660;-42.7100;-35.4600;-7.2500
1342.9650;-43.2900;-35.6300;-7.6600
1343.1640;-43.6700;-35.8100;-7.8600
1343.3630;-43.8100;-35.9900;-7.8200
1343.5620;-43.7500;-36.1600;-7.5900
1343.7610;-43.4900;-36.3600;-7.1300
1343.9600;-43.1600;-36.5400;-6.6200
1344.1590;-42.7700;-36.7300;-6.0400
1344.3580;-42.3700;-36.9100;-5.4600
1344.5580;-42.0200;-37.1000;-4.9200
1344.7570;-41.6900;-37.3000;-4.3900
1344.9560;-41.4300;-37.4700;-3.9600
1345.1550;-41.2100;-37.6600;-3.5500
1345.3540;-41.0600;-37.8300;-3.2300
1345.5530;-40.9900;-38.0200;-2.9700
1345.7520;-40.9700;-38.2100;-2.7600
1345.9510;-41.0300;-38.3900;-2.6400
1346.1500;-41.1300;-38.6300;-2.5000
1346.3500;-41.3000;-38.7900;-2.5100
1346.5490;-41.5500;-39.0000;-2.5500
1346.7480;-41.8400;-39.1800;-2.6600
1346.9470;-42.2000;-39.3700;-2.8300
1347.1460;-42.6000;-39.5500;-3.0500
1347.3450;-43.0600;-39.7200;-3.3400
1347.5440;-43.6200;-39.9500;-3.6700
1347.7430;-44.2500;-40.1800;-4.0700
1347.9430;-44.9300;-40.4000;-4.5300
1348.1420;-45.6200;-40.5700;-5.0500
1348.3410;-46.3500;-40.7600;-5.5900
1348.5400;-47.0400;-40.9100;-6.1300
1348.7390;-47.7200;-41.0700;-6.6500
1348.9380;-48.3400;-41.2400;-7.1000
1349.1370;-48.9500;-41.3900;-7.5600
1349.3360;-49.2000;-41.5500;-7.6500
1349.5350;-49.3500;-41.7100;-7.6400
1349.7350;-49.3100;-41.8600;-7.4500
1349.9340;-49.1000;-42.0500;-7.0500
1350.1330;-48.8200;-42.2300;-6.5900
1350.3320;-48.5300;-42.4800;-6.0500
1350.5310;-48.1400;-42.6800;-5.4600
1350.7300;-47.7400;-42.8500;-4.8900
1350.9290;-47.3300;-43.0100;-4.3200
1351.1280;-46.9600;-43.1300;-3.8300
1351.3270;-46.6700;-43.3000;-3.3700
1351.5270;-46.4600;-43.4800;-2.9800
1351.7260;-46.3800;-43.7100;-2.6700
1351.9250;-46.2700;-43.9100;-2.3600
1352.1240;-46.2500;-44.0800;-2.1700
1352.3230;-46.2600;-44.2800;-1.9800
1352.5220;-46.3900;-44.4800;-1.9100
1352.7210;-46.4900;-44.6600;-1.8300
1352.9200;-46.6800;-44.8100;-1.8700
1353.1200;-47.0200;-45.0800;-1.9400
1353.3190;-47.2700;-45.2000;-2.0700
1353.5180;-47.6600;-45.3800;-2.2800
1353.7170;-48.1200;-45.5800;-2.5400
1353.9160;-48.6500;-45.6800;-2.9700
1354.1150;-49.1400;-45.8500;-3.2900
1354.3140;-49.8600;-46.0700;-3.7900
1354.5130;-50.6100;-46.2700;-4.3400
1354.7120;-51.5600;-46.5900;-4.9700
1354.9120;-52.6000;-46.8600;-5.7400
1355.1110;-53.6500;-47.0600;-6.5900
1355.3100;-54.8000;-47.1600;-7.6400
1355.5090;-55.8200;-47.1700;-8.6500
1355.7080;-57.0200;-47.4200;-9.6000
1355.9070;-58.1500;-47.6900;-10.4600
1356.1060;-59.1600;-47.8500;-11.3100
1356.3050;-59.2800;-47.9300;-11.3500
1356.5040;-59.0400;-48.0300;-11.0100
1356.7040;-58.2700;-47.9300;-10.3400
1356.9030;-57.4900;-48.0800;-9.4100
1357.1020;-56.9600;-48.5100;-8.4500
1357.3010;-55.9800;-48.6600;-7.3200
1357.5000;-55.4000;-48.8300;-6.5700
1357.6990;-54.7600;-49.0000;-5.7600
1357.8980;-54.1600;-49.0700;-5.0900
1358.0970;-53.6300;-49.1200;-4.5100
1358.2970;-53.3000;-49.3000;-4.0000
1358.4960;-53.1200;-49.5200;-3.6000
1358.6950;-52.9000;-49.6600;-3.2400
1358.8940;-52.7900;-49.8200;-2.9700
1359.0930;-52.7200;-49.9700;-2.7500
1359.2920;-52.6400;-50.0300;-2.6100
1359.4910;-52.9400;-50.3900;-2.5500
1359.6900;-53.2400;-50.7000;-2.5400
1359.8890;-53.5300;-50.9000;-2.6300
1360.0890;-53.7300;-50.9500;-2.7800
1360.2880;-53.9700;-51.0100;-2.9600
1360.4870;-54.2300;-50.9900;-3.2400
1360.6860;-54.7200;-51.1700;-3.5500
1360.8850;-55.4800;-51.5100;-3.9700
1361.0840;-56.2800;-51.8000;-4.4800
1361.2830;-57.1100;-51.9900;-5.1200
1361.4820;-58.0200;-52.1300;-5.8900
1361.6810;-59.1800;-52.3600;-6.8200
1361.8810;-59.9600;-52.4800;-7.4800
1362.0800;-61.1600;-52.7100;-8.4500
1362.2790;-62.5500;-53.1200;-9.4300
1362.4780;-63.6300;-53.3500;-10.2800
1362.6770;-64.5300;-53.4900;-11.0400
1362.8760;-64.7300;-53.3600;-11.3700
1363.0750;-64.4600;-53.3200;-11.1400
1363.2740;-63.6100;-53.0700;-10.5400
1363.4740;-62.8000;-53.1500;-9.6500
1363.6730;-61.9900;-53.2300;-8.7600
1363.8720;-61.2100;-53.3700;-7.8400
1364.0710;-60.5800;-53.5900;-6.9900
1364.2700;-59.9700;-53.7800;-6.1900
1364.4690;-59.6000;-54.0900;-5.5100
1364.6680;-59.5300;-54.5900;-4.9400
1364.8670;-59.1800;-54.8200;-4.3600
1365.0660;-58.6900;-54.8100;-3.8800
1365.2660;-58.4700;-54.9800;-3.4900
1365.4650;-58.2000;-54.9400;-3.2600
1365.6640;-58.0400;-55.0100;-3.0300
1365.8630;-57.9500;-55.0800;-2.8700
1366.0620;-57.8700;-55.0800;-2.7900
1366.2610;-57.8600;-55.1000;-2.7600
1366.4600;-57.9900;-55.1900;-2.8000
1366.6590;-58.2400;-55.3600;-2.8800
1366.8580;-58.6700;-55.6300;-3.0400
1367.0580;-59.0600;-55.7800;-3.2800
1367.2570;-59.4700;-55.9100;-3.5600
1367.4560;-60.1000;-56.1700;-3.9300
1367.6550;-60.7000;-56.3800;-4.3200
1367.8540;-61.5000;-56.6800;-4.8200
1368.0530;-62.2400;-56.8000;-5.4400
1368.2520;-62.9600;-56.8100;-6.1500
1368.4510;-63.9800;-57.1300;-6.8500
1368.6500;-64.8700;-57.2400;-7.6300
1368.8500;-66.0500;-57.3800;-8.6700
1369.0490;-67.1700;-57.3500;-9.8200
1369.2480;-68.3300;-57.3400;-10.9900
1369.4470;-69.0600;-57.2800;-11.7800
1369.6460;-70.1600;-57.4000;-12.7600
1369.8450;-71.0400;-57.7300;-13.3100
1370.0440;-71.1900;-57.9200;-13.2700
1370.2430;-70.9000;-58.0800;-12.8200
1370.4430;-69.9200;-58.1300;-11.7900
1370.6420;-69.1900;-58.1900;-11.0000
1370.8410;-68.6500;-58.6200;-10.0300
1371.0400;-67.8700;-58.8100;-9.0600
1371.2390;-67.1400;-58.9800;-8.1600
1371.4380;-66.4400;-59.0300;-7.4100
1371.6370;-65.7800;-59.0200;-6.7600
1371.8360;-65.2400;-59.0300;-6.2100
1372.0350;-64.9500;-59.2400;-5.7100
1372.2350;-64.7400;-59.4500;-5.2900
1372.4340;-64.5200;-59.5800;-4.9400
1372.6330;-64.3100;-59.7100;-4.6000
1372.8320;-64.1000;-59.7700;-4.3300
1373.0310;-63.9900;-59.8200;-4.1700
1373.2300;-63.9900;-59.9800;-4.0100
1373.4290;-64.1000;-60.1800;-3.9200
1373.6280;-64.1400;-60.3000;-3.8400
1373.8270;-64.1900;-60.4400;-3.7500
1374.0270;-64.3300;-60.5500;-3.7800
1374.2260;-64.5000;-60.6800;-3.8200
1374.4250;-64.7200;-60.8800;-3.8400
1374.6240;-64.9600;-61.0400;-3.9200
1374.8230;-65.2500;-61.2800;-3.9700
1375.0220;-65.6000;-61.4500;-4.1500
1375.2210;-65.9200;-61.5800;-4.3400
1375.4200;-66.1500;-61.6900;-4.4600
1375.6200;-66.4600;-61.7900;-4.6700
1375.8190;-66.8500;-61.9200;-4.9300
1376.0180;-67.1700;-62.1300;-5.0400
1376.2170;-67.5800;-62.2900;-5.2900
1376.4160;-68.0000;-62.4300;-5.5700
1376.6150;-68.4000;-62.5700;-5.8300
1376.8140;-68.8700;-62.7600;-6.1100
1377.0130;-69.3600;-63.0000;-6.3600
1377.2120;-69.8200;-63.2300;-6.5900
1377.4120;-70.2200;-63.3200;-6.9000
1377.6110;-70.7100;-63.4600;-7.2500
1377.8100;-70.9400;-63.4800;-7.4600
1378.0090;-71.3800;-63.5200;-7.8600
1378.2080;-71.9800;-63.7000;-8.2800
1378.4070;-72.4600;-63.8900;-8.5700
1378.6060;-73.1000;-64.1800;-8.9200
1378.8050;-73.7900;-64.4700;-9.3200
1379.0040;-74.3400;-64.7000;-9.6400
1379.2040;-75.1100;-64.8500;-10.2600
1379.4030;-74.9700;-64.7900;-10.1800
1379.6020;-75.6900;-64.8000;-10.8900
1379.8010;-75.5000;-64.8500;-10.6500
1380.0000;-75.3500;-65.1000;-10.2500
1380.1990;-74.9900;-65.3400;-9.6500
1380.3980;-74.4900;-65.5600;-8.9300
1380.5970;-75.2600;-66.0700;-9.1900
1380.7970;-75.5000;-66.5800;-8.9200
1380.9960;-74.5100;-66.7200;-7.7900
1381.1950;-73.8100;-66.7100;-7.1000
1381.3940;-73.2200;-66.5200;-6.7000
1381.5930;-72.7100;-66.3200;-6.3900
1381.7920;-71.9500;-66.3800;-5.5700
1381.9910;-71.7100;-66.3600;-5.3500
1382.1900;-71.3200;-66.5100;-4.8100
1382.3890;-71.1300;-66.8700;-4.2600
1382.5890;-71.7600;-67.4100;-4.3500
1382.7880;-71.8300;-67.8600;-3.9700
1382.9870;-71.7600;-68.0900;-3.6700
1383.1860;-71.3300;-67.9400;-3.3900
1383.3850;-70.8800;-67.6000;-3.2800
1383.5840;-70.3600;-67.4500;-2.9100
1383.7830;-70.7100;-67.7100;-3.0000
1383.9820;-70.5600;-67.7800;-2.7800
1384.1810;-70.8900;-67.8100;-3.0800
1384.3810;-70.9100;-67.9300;-2.9800
1384.5800;-71.0000;-67.8100;-3.1900
1384.7790;-71.2400;-67.9700;-3.2700
1384.9780;-71.4500;-68.2800;-3.1700
1385.1770;-72.0100;-68.6200;-3.3900
1385.3760;-72.2000;-68.6300;-3.5700
1385.5750;-72.7200;-68.5100;-4.2100
1385.7740;-73.2800;-68.5700;-4.7100
1385.9740;-73.3600;-68.6500;-4.7100
1386.1730;-74.1200;-68.7400;-5.3800
1386.3720;-74.7000;-68.8400;-5.8600
1386.5710;-75.4500;-68.9800;-6.4700
1386.7700;-76.2800;-69.0500;-7.2300
1386.9690;-76.2100;-68.9900;-7.2200
1387.1680;-76.9800;-69.0500;-7.9300
1387.3670;-77.5100;-69.0700;-8.4400
1387.5660;-79.1600;-69.2200;-9.9400
1387.7660;-78.8300;-69.4900;-9.3400
1387.9650;-80.2300;-69.7600;-10.4700
1388.1640;-79.5900;-69.9600;-9.6300
1388.3630;-79.3200;-70.0600;-9.2600
1388.5620;-80.1500;-70.2400;-9.9100
1388.7610;-78.1000;-69.9400;-8.1600
1388.9600;-77.9100;-70.0200;-7.8900
1389.1590;-77.9100;-69.8400;-8.0700
1389.3580;-77.2100;-69.9300;-7.2800
1389.5580;-76.5800;-70.0100;-6.5700
1389.7570;-76.4800;-70.1500;-6.3300
1389.9560;-75.9800;-70.3000;-5.6800
1390.1550;-75.4500;-70.2500;-5.2000
1390.3540;-75.1200;-70.3600;-4.7600
1390.5530;-75.0700;-70.3900;-4.6800
1390.7520;-74.5900;-70.4600;-4.1300
1390.9510;-75.2700;-70.6800;-4.5900
1391.1500;-74.8800;-70.8500;-4.0300
1391.3500;-74.9100;-70.7800;-4.1300
1391.5490;-74.2400;-70.9100;-3.3300
1391.7480;-74.8500;-70.9300;-3.9200
1391.9470;-74.5500;-70.9200;-3.6300
1392.1460;-74.7700;-71.3600;-3.4100
1392.3450;-75.0500;-71.4700;-3.5800
1392.5440;-75.6000;-71.9400;-3.6600
1392.7430;-76.1800;-72.0600;-4.1200
1392.9430;-76.8400;-72.1400;-4.7000
1393.1420;-76.5900;-71.9400;-4.6500
1393.3410;-76.3900;-71.5800;-4.8100
1393.5400;-76.7300;-71.5500;-5.1800
1393.7390;-77.1300;-71.6200;-5.5100
1393.9380;-78.0200;-71.8500;-6.1700
1394.1370;-77.5200;-71.8300;-5.6900
1394.3360;-78.6900;-72.0400;-6.6500
1394.5350;-77.3900;-72.0500;-5.3400
1394.7350;-78.8700;-72.1200;-6.7500
1394.9340;-79.5000;-72.3700;-7.1300
1395.1330;-78.9600;-72.7900;-6.1700
1395.3320;-79.6000;-72.8000;-6.8000
1395.5310;-79.6000;-72.9900;-6.6100
1395.7300;-79.8100;-72.8700;-6.9400
1395.9290;-81.2200;-73.2600;-7.9600
1396.1280;-79.1400;-72.8800;-6.2600
1396.3270;-80.5700;-73.0700;-7.5000
1396.5270;-79.7800;-73.3100;-6.4700
1396.7260;-80.2000;-73.4800;-6.7200
1396.9250;-80.5700;-73.4800;-7.0900
1397.1240;-79.8900;-73.5800;-6.3100
1397.3230;-80.4400;-73.2300;-7.2100
1397.5220;-79.8100;-73.0300;-6.7800
1397.7210;-78.6400;-73.1700;-5.4700
1397.9200;-78.0200;-73.5500;-4.4700
1398.1200;-78.7800;-73.6700;-5.1100
1398.3190;-79.1100;-73.5200;-5.5900
1398.5180;-78.3000;-73.5900;-4.7100
1398.7170;-78.1200;-73.8200;-4.3000
1398.9160;-78.2000;-73.6100;-4.5900
1399.1150;-77.9800;-73.6400;-4.3400
1399.3140;-79.3100;-73.7900;-5.5200
1399.5130;-79.5100;-74.4200;-5.0900
1399.7120;-78.4800;-74.1900;-4.2900
1399.9120;-78.5400;-74.2200;-4.3200
1400.1110;-78.3000;-74.6900;-3.6100
1400.3100;-79.7200;-74.5900;-5.1300
1400.5090;-78.0800;-74.6700;-3.4100
1400.7080;-78.8500;-75.0900;-3.7600
1400.9070;-78.9100;-75.0900;-3.8200
1401.1060;-78.9700;-74.8500;-4.1200
1401.3050;-79.9000;-74.9200;-4.9800
1401.5040;-80.5800;-74.6700;-5.9100
1401.7040;-79.8600;-74.9200;-4.9400
1401.9030;-80.2100;-74.9000;-5.3100
1402.1020;-79.5100;-75.2600;-4.2500
1402.3010;-78.8500;-75.0600;-3.7900
1402.5000;-79.2400;-74.9400;-4.3000
1402.6990;-79.8600;-74.9700;-4.8900
1402.8980;-78.9100;-75.1500;-3.7600
1403.0970;-79.6800;-74.8000;-4.8800
1403.2970;-81.4900;-75.5000;-5.9900
1403.4960;-81.0400;-75.3700;-5.6700
1403.6950;-80.4100;-75.3200;-5.0900
1403.8940;-81.4900;-75.5300;-5.9600
1404.0930;-80.2100;-75.3200;-4.8900
1404.2920;-81.2900;-75.3000;-5.9900
1404.4910;-81.3900;-75.9000;-5.4900
1404.6900;-82.7300;-75.7700;-6.9600
1404.8890;-84.1400;-76.4800;-7.6600
1405.0890;-81.9500;-76.1200;-5.8300
1405.2880;-81.2900;-75.9300;-5.3600
1405.4870;-82.2500;-76.3600;-5.8900
1405.6860;-80.4100;-75.3900;-5.0200
1405.8850;-82.1900;-76.2300;-5.9600
1406.0840;-80.5800;-75.9000;-4.6800
1406.2830;-81.6600;-75.9000;-5.7600
1406.4820;-79.9300;-75.9900;-3.9400
1406.6810;-81.5600;-75.3900;-6.1700
1406.8810;-84.7900;-75.9200;-8.8700
1407.0800;-81.7800;-75.9700;-5.8100
1407.2790;-80.5900;-76.2000;-4.3900
1407.4780;-80.9500;-75.9700;-4.9800
1407.6770;-81.0000;-76.2100;-4.7900
1407.8760;-83.1100;-76.4900;-6.6200
1408.0750;-81.1000;-76.1600;-4.9400
1408.2740;-82.4600;-76.8600;-5.6000
1408.4740;-80.6800;-76.0000;-4.6800
1408.6730;-80.9500;-76.9300;-4.0200
1408.8720;-80.9500;-76.5100;-4.4400
1409.0710;-79.3500;-76.5100;-2.8400
1409.2700;-80.9500;-76.3400;-4.6100
1409.4690;-81.4000;-77.5400;-3.8600
1409.6680;-81.4000;-76.7900;-4.6100
1409.8670;-80.9500;-76.6100;-4.3400
1410.0660;-81.7800;-76.2800;-5.5000
1410.2660;-82.3900;-75.8500;-6.5400
1410.4650;-82.5300;-76.0300;-6.5000
1410.6640;-80.2600;-76.1800;-4.0800
1410.8630;-81.0000;-76.3100;-4.6900
1411.0620;-79.5200;-76.4200;-3.1000
1411.2610;-79.8700;-76.4100;-3.4600
1411.4600;-79.2500;-76.4400;-2.8100
1411.6590;-78.6300;-76.4700;-2.1600
1411.8580;-79.9400;-76.4700;-3.4700
1412.0580;-79.9400;-76.5100;-3.4300
1412.2570;-80.3000;-76.1300;-4.1700
1412.4560;-82.2000;-76.0900;-6.1100
1412.6550;-81.1400;-76.5900;-4.5500
1412.8540;-79.5200;-76.2600;-3.2600
1413.0530;-81.3000;-75.9200;-5.3800
1413.2520;-81.1400;-76.9700;-4.1700
1413.4510;-78.4400;-76.3400;-2.1000
1413.6500;-80.5600;-75.9500;-4.6100
1413.8500;-81.4600;-76.1000;-5.3600
1414.0490;-83.9700;-77.2100;-6.7600
1414.2480;-80.9600;-76.9300;-4.0300
1414.4470;-82.5400;-76.8300;-5.7100
1414.6460;-79.9900;-76.5000;-3.4900
1414.8450;-81.5100;-76.9400;-4.5700
1415.0440;-81.1100;-76.7100;-4.4000
1415.2430;-81.7300;-76.1700;-5.5600
1415.4430;-80.3500;-76.6000;-3.7500
1415.6420;-80.7300;-76.2100;-4.5200
1415.8410;-79.9200;-76.0800;-3.8400
1416.0400;-79.5300;-75.8900;-3.6400
1416.2390;-81.6800;-76.2200;-5.4600
1416.4380;-81.0100;-76.0500;-4.9600
1416.6370;-80.0300;-76.5200;-3.5100
1416.8360;-79.9200;-76.4200;-3.5000
1417.0350;-79.6300;-76.5200;-3.1100
1417.2350;-81.2500;-75.9800;-5.2700
1417.4340;-81.5700;-76.0500;-5.5200
1417.6330;-80.4300;-76.3500;-4.0800
1417.8320;-81.2500;-76.5200;-4.7300
1418.0310;-80.8700;-76.6200;-4.2500
1418.2300;-80.3900;-76.3500;-4.0400
1418.4290;-81.6800;-75.6300;-6.0500
1418.6280;-79.5300;-75.9500;-3.5800
1418.8270;-80.8700;-76.1600;-4.7100
1419.0270;-80.9100;-76.5200;-4.3900
1419.2260;-80.7800;-76.7600;-4.0200
1419.4250;-82.2100;-76.3500;-5.8600
1419.6240;-81.7300;-76.8900;-4.8400
1419.8230;-79.7000;-76.0100;-3.6900
1420.0220;-78.6700;-75.6200;-3.0500
1420.2210;-79.7400;-76.1000;-3.6400
1420.4200;-80.1900;-75.8400;-4.3500
1420.6200;-79.4600;-75.9500;-3.5100
1420.8190;-80.0300;-76.0800;-3.9500
1421.0180;-79.2000;-75.5100;-3.6900
1421.2170;-79.3300;-75.8300;-3.5000
1421.4160;-79.5300;-75.6400;-3.8900
1421.6150;-80.7000;-76.0500;-4.6500
1421.8140;-80.0800;-76.0200;-4.0600
1422.0130;-80.5700;-75.8100;-4.7600
1422.2120;-80.7000;-76.1400;-4.5600
1422.4120;-81.4700;-76.0800;-5.3900
1422.6110;-79.4400;-76.2000;-3.2400
1422.8100;-78.9700;-75.8100;-3.1600
1423.0090;-79.4000;-76.1800;-3.2200
1423.2080;-80.2400;-75.7800;-4.4600
1423.4070;-79.1500;-76.0200;-3.1300
1423.6060;-80.7000;-76.6300;-4.0700
1423.8050;-80.5700;-75.9600;-4.6100
1424.0040;-79.8200;-75.4900;-4.3300
1424.2040;-79.5400;-75.3300;-4.2100
1424.4030;-80.9700;-75.4500;-5.5200
1424.6020;-79.5400;-75.5000;-4.0400
1424.8010;-80.4400;-75.6300;-4.8100
1425.0000;-80.1200;-76.0500;-4.0700
