Wavelength;Intensity_Meas;Intensity_Ref;Difference_dB
1200.0000;-62.0200;-57.0700;-4.9500
1200.1990;-61.9500;-57.0400;-4.9100
1200.3980;-61.8500;-57.0000;-4.8500
1200.5970;-61.7800;-56.9900;-4.7900
1200.7970;-61.7600;-56.9700;-4.7900
1200.9960;-61.7700;-56.9200;-4.8500
1201.1950;-61.7200;-56.8900;-4.8300
1201.3940;-61.5900;-56.8600;-4.7300
1201.5930;-61.5400;-56.8100;-4.7300
1201.7920;-61.5600;-56.7700;-4.7900
1201.9910;-61.5100;-56.7100;-4.8000
1202.1900;-61.4700;-56.6600;-4.8100
1202.3890;-61.3800;-56.6200;-4.7600
1202.5890;-61.4000;-56.5700;-4.8300
1202.7880;-61.3700;-56.5200;-4.8500
1202.9870;-61.3200;-56.4600;-4.8600
1203.1860;-61.2800;-56.4100;-4.8700
1203.3850;-61.2300;-56.3700;-4.8600
1203.5840;-61.2400;-56.3200;-4.9200
1203.7830;-61.2700;-56.2800;-4.9900
1203.9820;-61.2000;-56.2400;-4.9600
1204.1810;-61.1400;-56.1900;-4.9500
1204.3810;-61.2100;-56.1700;-5.0400
1204.5800;-61.2100;-56.1300;-5.0800
1204.7790;-61.1800;-56.0900;-5.0900
1204.9780;-61.1300;-56.0600;-5.0700
1205.1770;-61.1900;-56.0400;-5.1500
1205.3760;-61.2200;-56.0100;-5.2100
1205.5750;-61.2300;-55.9900;-5.2400
1205.7740;-61.2400;-55.9800;-5.2600
1205.9740;-61.2200;-55.9500;-5.2700
1206.1730;-61.3000;-55.9400;-5.3600
1206.3720;-61.3100;-55.9300;-5.3800
1206.5710;-61.2800;-55.9100;-5.3700
1206.7700;-61.2900;-55.8800;-5.4100
1206.9690;-61.3300;-55.8600;-5.4700
1207.1680;-61.3300;-55.8300;-5.5000
1207.3670;-61.2400;-55.8100;-5.4300
1207.5660;-61.2300;-55.7800;-5.4500
1207.7660;-61.2000;-55.7500;-5.4500
1207.9650;-61.1600;-55.7100;-5.4500
1208.1640;-61.0800;-55.6800;-5.4000
1208.3630;-61.0000;-55.6600;-5.3400
1208.5620;-60.9300;-55.6000;-5.3300
1208.7610;-60.8800;-55.5600;-5.3200
1208.9600;-60.7700;-55.5100;-5.2600
1209.1590;-60.6500;-55.4500;-5.2000
1209.3580;-60.5800;-55.4100;-5.1700
1209.5580;-60.4900;-55.3600;-5.1300
1209.7570;-60.4200;-55.3100;-5.1100
1209.9560;-60.2900;-55.2600;-5.0300
1210.1550;-60.2000;-55.2100;-4.9900
1210.3540;-60.1300;-55.1800;-4.9500
1210.5530;-60.0700;-55.1100;-4.9600
1210.7520;-60.0100;-55.0700;-4.9400
1210.9510;-59.9100;-55.0300;-4.8800
1211.1500;-59.8700;-54.9800;-4.8900
1211.3500;-59.8600;-54.9500;-4.9100
1211.5490;-59.8100;-54.9100;-4.9000
1211.7480;-59.7700;-54.8700;-4.9000
1211.9470;-59.7700;-54.8400;-4.9300
1212.1460;-59.7800;-54.8100;-4.9700
1212.3450;-59.7800;-54.7800;-5.0000
1212.5440;-59.7900;-54.7600;-5.0300
1212.7430;-59.8100;-54.7400;-5.0700
1212.9430;-59.8600;-54.7100;-5.1500
1213.1420;-59.8900;-54.6700;-5.2200
1213.3410;-59.9100;-54.6500;-5.2600
1213.5400;-59.9300;-54.6200;-5.3100
1213.7390;-60.0000;-54.6000;-5.4000
1213.9380;-60.0300;-54.5600;-5.4700
1214.1370;-60.0100;-54.5300;-5.4800
1214.3360;-60.0300;-54.5100;-5.5200
1214.5350;-60.0400;-54.4600;-5.5800
1214.7350;-60.0700;-54.4300;-5.6400
1214.9340;-60.0000;-54.3900;-5.6100
1215.1330;-59.9500;-54.3400;-5.6100
1215.3320;-59.9400;-54.3000;-5.6400
1215.5310;-59.8900;-54.2500;-5.6400
1215.7300;-59.8200;-54.2000;-5.6200
1215.9290;-59.7000;-54.1500;-5.5500
1216.1280;-59.6100;-54.1000;-5.5100
1216.3270;-59.5100;-54.0400;-5.4700
1216.5270;-59.4000;-53.9900;-5.4100
1216.7260;-59.2600;-53.9300;-5.3300
1216.9250;-59.1200;-53.8800;-5.2400
1217.1240;-58.9900;-53.8100;-5.1800
1217.3230;-58.8800;-53.7700;-5.1100
1217.5220;-58.7400;-53.7200;-5.0200
1217.7210;-58.6300;-53.6700;-4.9600
1217.9200;-58.5200;-53.6200;-4.9000
1218.1200;-58.4400;-53.5700;-4.8700
1218.3190;-58.3400;-53.5300;-4.8100
1218.5180;-58.2700;-53.4800;-4.7900
1218.7170;-58.2500;-53.4500;-4.8000
1218.9160;-58.2200;-53.4100;-4.8100
1219.1150;-58.1700;-53.3600;-4.8100
1219.3140;-58.1700;-53.3500;-4.8200
1219.5130;-58.2000;-53.3200;-4.8800
1219.7120;-58.2400;-53.2800;-4.9600
1219.9120;-58.2500;-53.2400;-5.0100
1220.1110;-58.2800;-53.2100;-5.0700
1220.3100;-58.3300;-53.1800;-5.1500
1220.5090;-58.3800;-53.1400;-5.2400
1220.7080;-58.4400;-53.1100;-5.3300
1220.9070;-58.4500;-53.0700;-5.3800
1221.1060;-58.5000;-53.0200;-5.4800
1221.3050;-58.5800;-52.9800;-5.6000
1221.5040;-58.5700;-52.9100;-5.6600
1221.7040;-58.5800;-52.8700;-5.7100
1221.9030;-58.5900;-52.8100;-5.7800
1222.1020;-58.5700;-52.7400;-5.8300
1222.3010;-58.5300;-52.7000;-5.8300
1222.5000;-58.4600;-52.6200;-5.8400
1222.6990;-58.3900;-52.5600;-5.8300
1222.8980;-58.3000;-52.4900;-5.8100
1223.0970;-58.1800;-52.4200;-5.7600
1223.2970;-58.0200;-52.3700;-5.6500
1223.4960;-57.8500;-52.2800;-5.5700
1223.6950;-57.7200;-52.2200;-5.5000
1223.8940;-57.5500;-52.1600;-5.3900
1224.0930;-57.3400;-52.0800;-5.2600
1224.2920;-57.1600;-52.0300;-5.1300
1224.4910;-56.9800;-51.9500;-5.0300
1224.6900;-56.8200;-51.8900;-4.9300
1224.8890;-56.6300;-51.8300;-4.8000
1225.0890;-56.4700;-51.7700;-4.7000
1225.2880;-56.3400;-51.7200;-4.6200
1225.4870;-56.2200;-51.6500;-4.5700
1225.6860;-56.1300;-51.6100;-4.5200
1225.8850;-56.0400;-51.5600;-4.4800
1226.0840;-55.9900;-51.5000;-4.4900
1226.2830;-55.9600;-51.4700;-4.4900
1226.4820;-55.9100;-51.4000;-4.5100
1226.6810;-55.9300;-51.3600;-4.5700
1226.8810;-55.9400;-51.3100;-4.6300
1227.0800;-55.9500;-51.2500;-4.7000
1227.2790;-55.9900;-51.2200;-4.7700
1227.4780;-56.0300;-51.1500;-4.8800
1227.6770;-56.0900;-51.1000;-4.9900
1227.8760;-56.1400;-51.0500;-5.0900
1228.0750;-56.1800;-50.9800;-5.2000
1228.2740;-56.2100;-50.9300;-5.2800
1228.4740;-56.2500;-50.8500;-5.4000
1228.6730;-56.3000;-50.7900;-5.5100
1228.8720;-56.3000;-50.7300;-5.5700
1229.0710;-56.3100;-50.6500;-5.6600
1229.2700;-56.3300;-50.5900;-5.7400
1229.4690;-56.3000;-50.5000;-5.8000
1229.6680;-56.2700;-50.4300;-5.8400
1229.8670;-56.2100;-50.3500;-5.8600
1230.0660;-56.1700;-50.2700;-5.9000
1230.2660;-56.1000;-50.2100;-5.8900
1230.4650;-56.0000;-50.1100;-5.8900
1230.6640;-55.9300;-50.0300;-5.9000
1230.8630;-55.8600;-49.9800;-5.8800
1231.0620;-55.7600;-49.9000;-5.8600
1231.2610;-55.6600;-49.8500;-5.8100
1231.4600;-55.6000;-49.7900;-5.8100
1231.6590;-55.5400;-49.7200;-5.8200
1231.8580;-55.4700;-49.6600;-5.8100
1232.0580;-55.4300;-49.6000;-5.8300
1232.2570;-55.3900;-49.5500;-5.8400
1232.4560;-55.3700;-49.4900;-5.8800
1232.6550;-55.3500;-49.4400;-5.9100
1232.8540;-55.3200;-49.3700;-5.9500
1233.0530;-55.3400;-49.3200;-6.0200
1233.2520;-55.3500;-49.2800;-6.0700
1233.4510;-55.3400;-49.2100;-6.1300
1233.6500;-55.3700;-49.1700;-6.2000
1233.8500;-55.3600;-49.1000;-6.2600
1234.0490;-55.3800;-49.0400;-6.3400
1234.2480;-55.3500;-48.9800;-6.3700
1234.4470;-55.3100;-48.9000;-6.4100
1234.6460;-55.2900;-48.8500;-6.4400
1234.8450;-55.2400;-48.7800;-6.4600
1235.0440;-55.1500;-48.7000;-6.4500
1235.2430;-55.0500;-48.6300;-6.4200
1235.4430;-54.9300;-48.5400;-6.3900
1235.6420;-54.8100;-48.4800;-6.3300
1235.8410;-54.6400;-48.3800;-6.2600
1236.0400;-54.5000;-48.3000;-6.2000
1236.2390;-54.3200;-48.2100;-6.1100
1236.4380;-54.1300;-48.1100;-6.0200
1236.6370;-53.9600;-48.0400;-5.9200
1236.8360;-53.7700;-47.9400;-5.8300
1237.0350;-53.6200;-47.8600;-5.7600
1237.2350;-53.4400;-47.7700;-5.6700
1237.4340;-53.2800;-47.6800;-5.6000
1237.6330;-53.1500;-47.6100;-5.5400
1237.8320;-53.0300;-47.5200;-5.5100
1238.0310;-52.9200;-47.4400;-5.4800
1238.2300;-52.8200;-47.3600;-5.4600
1238.4290;-52.7400;-47.2700;-5.4700
1238.6280;-52.6900;-47.2100;-5.4800
1238.8270;-52.6300;-47.1200;-5.5100
1239.0270;-52.6000;-47.0600;-5.5400
1239.2260;-52.5600;-46.9600;-5.6000
1239.4250;-52.5300;-46.8800;-5.6500
1239.6240;-52.5100;-46.8100;-5.7000
1239.8230;-52.4700;-46.7200;-5.7500
1240.0220;-52.4600;-46.6500;-5.8100
1240.2210;-52.3900;-46.5400;-5.8500
1240.4200;-52.3300;-46.4500;-5.8800
1240.6200;-52.2700;-46.3700;-5.9000
1240.8190;-52.1700;-46.2600;-5.9100
1241.0180;-52.0700;-46.1600;-5.9100
1241.2170;-51.9300;-46.0400;-5.8900
1241.4160;-51.8000;-45.9100;-5.8900
1241.6150;-51.6600;-45.8000;-5.8600
1241.8140;-51.4900;-45.6900;-5.8000
1242.0130;-51.3400;-45.5700;-5.7700
1242.2120;-51.1700;-45.4400;-5.7300
1242.4120;-51.0200;-45.3300;-5.6900
1242.6110;-50.8500;-45.1800;-5.6700
1242.8100;-50.7000;-45.0600;-5.6400
1243.0090;-50.5700;-44.9200;-5.6500
1243.2080;-50.4300;-44.8000;-5.6300
1243.4070;-50.3200;-44.6800;-5.6400
1243.6060;-50.2200;-44.5300;-5.6900
1243.8050;-50.1500;-44.4100;-5.7400
1244.0040;-50.0900;-44.2800;-5.8100
1244.2040;-50.0200;-44.1500;-5.8700
1244.4030;-50.0000;-44.0300;-5.9700
1244.6020;-49.9700;-43.8800;-6.0900
1244.8010;-49.9300;-43.7600;-6.1700
1245.0000;-49.9300;-43.6400;-6.2900
1245.1990;-49.9000;-43.5100;-6.3900
1245.3980;-49.8600;-43.4000;-6.4600
1245.5970;-49.8000;-43.2500;-6.5500
1245.7970;-49.7200;-43.1300;-6.5900
1245.9960;-49.6200;-42.9900;-6.6300
1246.1950;-49.4800;-42.8500;-6.6300
1246.3940;-49.3100;-42.7300;-6.5800
1246.5930;-49.1200;-42.5700;-6.5500
1246.7920;-48.9000;-42.4300;-6.4700
1246.9910;-48.6700;-42.2800;-6.3900
1247.1900;-48.4200;-42.1200;-6.3000
1247.3890;-48.1700;-41.9800;-6.1900
1247.5890;-47.9100;-41.8100;-6.1000
1247.7880;-47.6600;-41.6600;-6.0000
1247.9870;-47.4400;-41.4900;-5.9500
1248.1860;-47.2200;-41.3300;-5.8900
1248.3850;-47.0400;-41.1800;-5.8600
1248.5840;-46.8700;-41.0000;-5.8700
1248.7830;-46.7500;-40.8400;-5.9100
1248.9820;-46.6800;-40.6800;-6.0000
1249.1810;-46.6100;-40.5200;-6.0900
1249.3810;-46.6100;-40.3600;-6.2500
1249.5800;-46.6400;-40.1800;-6.4600
1249.7790;-46.7100;-40.0300;-6.6800
1249.9780;-46.8300;-39.8600;-6.9700
1250.1770;-46.9800;-39.7000;-7.2800
1250.3760;-47.1600;-39.5600;-7.6000
1250.5750;-47.3500;-39.3900;-7.9600
1250.7740;-47.5400;-39.2300;-8.3100
1250.9740;-47.7300;-39.0900;-8.6400
1251.1730;-47.8300;-38.9300;-8.9000
1251.3720;-47.8600;-38.7900;-9.0700
1251.5710;-47.7500;-38.6400;-9.1100
1251.7700;-47.4900;-38.4900;-9.0000
1251.9690;-47.0900;-38.3300;-8.7600
1252.1680;-46.5500;-38.1700;-8.3800
1252.3670;-45.9400;-38.0300;-7.9100
1252.5660;-45.1400;-37.8700;-7.2700
1252.7660;-44.5400;-37.7100;-6.8300
1252.9650;-43.8300;-37.5600;-6.2700
1253.1640;-43.1200;-37.3900;-5.7300
1253.3630;-42.4400;-37.2400;-5.2000
1253.5620;-41.8100;-37.0800;-4.7300
1253.7610;-41.2300;-36.9200;-4.3100
1253.9600;-40.6800;-36.7600;-3.9200
1254.1590;-40.1800;-36.5900;-3.5900
1254.3580;-39.7400;-36.4400;-3.3000
1254.5580;-39.3500;-36.2700;-3.0800
1254.7570;-39.0200;-36.1200;-2.9000
1254.9560;-38.7300;-35.9500;-2.7800
1255.1550;-38.5100;-35.7800;-2.7300
1255.3540;-38.3300;-35.6400;-2.6900
1255.5530;-38.2200;-35.4900;-2.7300
1255.7520;-38.1800;-35.3400;-2.8400
1255.9510;-38.1600;-35.1700;-2.9900
1256.1500;-38.2400;-35.0400;-3.2000
1256.3500;-38.3700;-34.8700;-3.5000
1256.5490;-38.5800;-34.7200;-3.8600
1256.7480;-38.8600;-34.5700;-4.2900
1256.9470;-39.1900;-34.4200;-4.7700
1257.1460;-39.6200;-34.2700;-5.3500
1257.3450;-40.1200;-34.1000;-6.0200
1257.5440;-40.7100;-33.9600;-6.7500
1257.7430;-41.3800;-33.8100;-7.5700
1257.9430;-42.0900;-33.6500;-8.4400
1258.1420;-42.8400;-33.5100;-9.3300
1258.3410;-43.5000;-33.3400;-10.1600
1258.5400;-43.9900;-33.1900;-10.8000
1258.7390;-44.1500;-33.0300;-11.1200
1258.9380;-43.8600;-32.8700;-10.9900
1259.1370;-43.2000;-32.7300;-10.4700
1259.3360;-42.2500;-32.5600;-9.6900
1259.5350;-41.1800;-32.4200;-8.7600
1259.7350;-40.0900;-32.2700;-7.8200
1259.9340;-39.0300;-32.1100;-6.9200
1260.1330;-38.0600;-31.9700;-6.0900
1260.3320;-37.1400;-31.8100;-5.3300
1260.5310;-36.3300;-31.6800;-4.6500
1260.7300;-35.4700;-31.5300;-3.9400
1260.9290;-34.9300;-31.3800;-3.5500
1261.1280;-34.3600;-31.2500;-3.1100
1261.3270;-33.8500;-31.0900;-2.7600
1261.5270;-33.4400;-30.9700;-2.4700
1261.7260;-33.0600;-30.8200;-2.2400
1261.9250;-32.7600;-30.6800;-2.0800
1262.1240;-32.5300;-30.5500;-1.9800
1262.3230;-32.3500;-30.4000;-1.9500
1262.5220;-32.2600;-30.2700;-1.9900
1262.7210;-32.2100;-30.1300;-2.0800
1262.9200;-32.2200;-29.9800;-2.2400
1263.1200;-32.3000;-29.8500;-2.4500
1263.3190;-32.4400;-29.6900;-2.7500
1263.5180;-32.6700;-29.5600;-3.1100
1263.7170;-32.9200;-29.4100;-3.5100
1263.9160;-33.2700;-29.2600;-4.0100
1264.1150;-33.6800;-29.1300;-4.5500
1264.3140;-34.1400;-28.9600;-5.1800
1264.5130;-34.6900;-28.8300;-5.8600
1264.7120;-35.2500;-28.6800;-6.5700
1264.9120;-35.8400;-28.5300;-7.3100
1265.1110;-36.3800;-28.3900;-7.9900
1265.3100;-36.7900;-28.2300;-8.5600
1265.5090;-37.0200;-28.1000;-8.9200
1265.7080;-36.9400;-27.9500;-8.9900
1265.9070;-36.5900;-27.8100;-8.7800
1266.1060;-35.9600;-27.6800;-8.2800
1266.3050;-35.1900;-27.5400;-7.6500
1266.5040;-34.3500;-27.4200;-6.9300
1266.7040;-33.4800;-27.2900;-6.1900
1266.9030;-32.6600;-27.1600;-5.5000
1267.1020;-31.8900;-27.0400;-4.8500
1267.3010;-31.1900;-26.9100;-4.2800
1267.5000;-30.5900;-26.8000;-3.7900
1267.6990;-30.0200;-26.6800;-3.3400
1267.8980;-29.5500;-26.5600;-2.9900
1268.0970;-29.1500;-26.4600;-2.6900
1268.2970;-28.8100;-26.3300;-2.4800
1268.4960;-28.5600;-26.2300;-2.3300
1268.6950;-28.3500;-26.0800;-2.2700
1268.8940;-28.2300;-25.9900;-2.2400
1269.0930;-28.1600;-25.8800;-2.2800
1269.2920;-28.1700;-25.7500;-2.4200
1269.4910;-28.2600;-25.6500;-2.6100
1269.6900;-28.4000;-25.5100;-2.8900
1269.8890;-28.6400;-25.3900;-3.2500
1270.0890;-28.9400;-25.2600;-3.6800
1270.2880;-29.3300;-25.1300;-4.2000
1270.4870;-29.8400;-25.0300;-4.8100
1270.6860;-30.4300;-24.8900;-5.5400
1270.8850;-31.1400;-24.7600;-6.3800
1271.0840;-31.9400;-24.6300;-7.3100
1271.2830;-32.8400;-24.5100;-8.3300
1271.4820;-33.8000;-24.3900;-9.4100
1271.6810;-34.6800;-24.2600;-10.4200
1271.8810;-35.3300;-24.1500;-11.1800
1272.0800;-35.4900;-24.0300;-11.4600
1272.2790;-35.0600;-23.9100;-11.1500
1272.4780;-34.1600;-23.8200;-10.3400
1272.6770;-33.0200;-23.7000;-9.3200
1272.8760;-31.8300;-23.6100;-8.2200
1273.0750;-30.6500;-23.5000;-7.1500
1273.2740;-29.5900;-23.4000;-6.1900
1273.4740;-28.6300;-23.3200;-5.3100
1273.6730;-27.7600;-23.2100;-4.5500
1273.8720;-27.0200;-23.1300;-3.8900
1274.0710;-26.3400;-23.0300;-3.3100
1274.2700;-25.6800;-22.9300;-2.7500
1274.4690;-25.2600;-22.8500;-2.4100
1274.6680;-24.8600;-22.7500;-2.1100
1274.8670;-24.5000;-22.6600;-1.8400
1275.0660;-24.2100;-22.5600;-1.6500
1275.2660;-24.0000;-22.4700;-1.5300
1275.4650;-23.8400;-22.3800;-1.4600
1275.6640;-23.7700;-22.2700;-1.5000
1275.8630;-23.7400;-22.1800;-1.5600
1276.0620;-23.8000;-22.0700;-1.7300
1276.2610;-23.9200;-21.9700;-1.9500
1276.4600;-24.1100;-21.8700;-2.2400
1276.6590;-24.3900;-21.7500;-2.6400
1276.8580;-24.7400;-21.6600;-3.0800
1277.0580;-25.1900;-21.5400;-3.6500
1277.2570;-25.7400;-21.4500;-4.2900
1277.4560;-26.4000;-21.3500;-5.0500
1277.6550;-27.2000;-21.2400;-5.9600
1277.8540;-28.1200;-21.1600;-6.9600
1278.0530;-29.4500;-21.0500;-8.4000
1278.2520;-30.5000;-20.9600;-9.5400
1278.4510;-31.9100;-20.8700;-11.0400
1278.6500;-33.3700;-20.7700;-12.6000
1278.8500;-34.5300;-20.7000;-13.8300
1279.0490;-34.8200;-20.6000;-14.2200
1279.2480;-33.9700;-20.5200;-13.4500
1279.4470;-32.4900;-20.4400;-12.0500
1279.6460;-30.8500;-20.3500;-10.5000
1279.8450;-29.2900;-20.2800;-9.0100
1280.0440;-27.9300;-20.1900;-7.7400
1280.2430;-26.7100;-20.1300;-6.5800
1280.4430;-25.5000;-20.0400;-5.4600
1280.6420;-24.7500;-19.9700;-4.7800
1280.8410;-23.9700;-19.9000;-4.0700
1281.0400;-23.2800;-19.8200;-3.4600
1281.2390;-22.6900;-19.7500;-2.9400
1281.4380;-22.1900;-19.6700;-2.5200
1281.6370;-21.7500;-19.6000;-2.1500
1281.8360;-21.4000;-19.5300;-1.8700
1282.0350;-21.1100;-19.4500;-1.6600
1282.2350;-20.8800;-19.3900;-1.4900
1282.4340;-20.7200;-19.3000;-1.4200
1282.6330;-20.6200;-19.2400;-1.3800
1282.8320;-20.5800;-19.1700;-1.4100
1283.0310;-20.5800;-19.0900;-1.4900
1283.2300;-20.6400;-19.0200;-1.6200
1283.4290;-20.7600;-18.9400;-1.8200
1283.6280;-20.9200;-18.8700;-2.0500
1283.8270;-21.1400;-18.8000;-2.3400
1284.0270;-21.3900;-18.7200;-2.6700
1284.2260;-21.6900;-18.6600;-3.0300
1284.4250;-22.0200;-18.5800;-3.4400
1284.6240;-22.3500;-18.5100;-3.8400
1284.8230;-22.7000;-18.4300;-4.2700
1285.0220;-23.0100;-18.3600;-4.6500
1285.2210;-23.2800;-18.3000;-4.9800
1285.4200;-23.4800;-18.2200;-5.2600
1285.6200;-23.5600;-18.1600;-5.4000
1285.8190;-23.5400;-18.1000;-5.4400
1286.0180;-23.3800;-18.0300;-5.3500
1286.2170;-23.1100;-17.9800;-5.1300
1286.4160;-22.7500;-17.9100;-4.8400
1286.6150;-22.3200;-17.8800;-4.4400
1286.8140;-21.8700;-17.8200;-4.0500
1287.0130;-21.3900;-17.7600;-3.6300
1287.2120;-20.9200;-17.7200;-3.2000
1287.4120;-20.4700;-17.6600;-2.8100
1287.6110;-20.0600;-17.6300;-2.4300
1287.8100;-19.7000;-17.5700;-2.1300
1288.0090;-19.3500;-17.5200;-1.8300
1288.2080;-19.0700;-17.4800;-1.5900
1288.4070;-18.8300;-17.4300;-1.4000
1288.6060;-18.6400;-17.4000;-1.2400
1288.8050;-18.5000;-17.3400;-1.1600
1289.0040;-18.3900;-17.3000;-1.0900
1289.2040;-18.3400;-17.2500;-1.0900
1289.4030;-18.3200;-17.1900;-1.1300
1289.6020;-18.3400;-17.1600;-1.1800
1289.8010;-18.4100;-17.0900;-1.3200
1290.0000;-18.5000;-17.0400;-1.4600
1290.1990;-18.6400;-16.9900;-1.6500
1290.3980;-18.7900;-16.9300;-1.8600
1290.5970;-18.9800;-16.8900;-2.0900
1290.7970;-19.1800;-16.8200;-2.3600
1290.9960;-19.3600;-16.7600;-2.6000
1291.1950;-19.5500;-16.7000;-2.8500
1291.3940;-19.7000;-16.6400;-3.0600
1291.5930;-19.8200;-16.5800;-3.2400
1291.7920;-19.9100;-16.5200;-3.3900
1291.9910;-19.9300;-16.4800;-3.4500
1292.1900;-19.9100;-16.4200;-3.4900
1292.3890;-19.8000;-16.3800;-3.4200
1292.5890;-19.6400;-16.3300;-3.3100
1292.7880;-19.4400;-16.2800;-3.1600
1292.9870;-19.2100;-16.2500;-2.9600
1293.1860;-18.9700;-16.2100;-2.7600
1293.3850;-18.7000;-16.1800;-2.5200
1293.5840;-18.4300;-16.1400;-2.2900
1293.7830;-18.1900;-16.1200;-2.0700
1293.9820;-17.9600;-16.0900;-1.8700
1294.1810;-17.7800;-16.0700;-1.7100
1294.3810;-17.6100;-16.0600;-1.5500
1294.5800;-17.4800;-16.0200;-1.4600
1294.7790;-17.3900;-16.0100;-1.3800
1294.9780;-17.3500;-15.9800;-1.3700
1295.1770;-17.3700;-15.9600;-1.4100
1295.3760;-17.4200;-15.9400;-1.4800
1295.5750;-17.5300;-15.9000;-1.6300
1295.7740;-17.6800;-15.8900;-1.7900
1295.9740;-17.8800;-15.8400;-2.0400
1296.1730;-18.1600;-15.8200;-2.3400
1296.3720;-18.4900;-15.7900;-2.7000
1296.5710;-18.8900;-15.7400;-3.1500
1296.7700;-19.3400;-15.7200;-3.6200
1296.9690;-19.8700;-15.6800;-4.1900
1297.1680;-20.4700;-15.6500;-4.8200
1297.3670;-21.1200;-15.6100;-5.5100
1297.5660;-21.8300;-15.5600;-6.2700
1297.7660;-22.5600;-15.5400;-7.0200
1297.9650;-23.2800;-15.4900;-7.7900
1298.1640;-23.9100;-15.4600;-8.4500
1298.3630;-24.3700;-15.4300;-8.9400
1298.5620;-24.5600;-15.3800;-9.1800
1298.7610;-24.4300;-15.3600;-9.0700
1298.9600;-24.0300;-15.3300;-8.7000
1299.1590;-23.4100;-15.3200;-8.0900
1299.3580;-22.6900;-15.2900;-7.4000
1299.5580;-21.9100;-15.2600;-6.6500
1299.7570;-21.1600;-15.2500;-5.9100
1299.9560;-20.4700;-15.2400;-5.2300
1300.1550;-19.8200;-15.2400;-4.5800
1300.3540;-19.2500;-15.2200;-4.0300
1300.5530;-18.7300;-15.2100;-3.5200
1300.7520;-18.2900;-15.2100;-3.0800
1300.9510;-17.9200;-15.2000;-2.7200
1301.1500;-17.6100;-15.2200;-2.3900
1301.3500;-17.3800;-15.2100;-2.1700
1301.5490;-17.2000;-15.2200;-1.9800
1301.7480;-17.0800;-15.2200;-1.8600
1301.9470;-17.0300;-15.2200;-1.8100
1302.1460;-17.0300;-15.2400;-1.7900
1302.3450;-17.1000;-15.2300;-1.8700
1302.5440;-17.2300;-15.2500;-1.9800
1302.7430;-17.4200;-15.2400;-2.1800
1302.9430;-17.6700;-15.2400;-2.4300
1303.1420;-18.0000;-15.2600;-2.7400
1303.3410;-18.4100;-15.2500;-3.1600
1303.5400;-18.8800;-15.2700;-3.6100
1303.7390;-19.4400;-15.2500;-4.1900
1303.9380;-20.0800;-15.2600;-4.8200
1304.1370;-20.8200;-15.2700;-5.5500
1304.3360;-21.6500;-15.2700;-6.3800
1304.5350;-22.5700;-15.2800;-7.2900
1304.7350;-23.5700;-15.2700;-8.3000
1304.9340;-24.5800;-15.2800;-9.3000
1305.1330;-25.5400;-15.2800;-10.2600
1305.3320;-26.2800;-15.2800;-11.0000
1305.5310;-26.5900;-15.3100;-11.2800
1305.7300;-26.4000;-15.3000;-11.1000
1305.9290;-25.7500;-15.3100;-10.4400
1306.1280;-24.8600;-15.3200;-9.5400
1306.3270;-23.8700;-15.3300;-8.5400
1306.5270;-22.8900;-15.3600;-7.5300
1306.7260;-22.0000;-15.3700;-6.6300
1306.9250;-21.1600;-15.3900;-5.7700
1307.1240;-20.4400;-15.4000;-5.0400
1307.3230;-19.7900;-15.4200;-4.3700
1307.5220;-19.2400;-15.4600;-3.7800
1307.7210;-18.7700;-15.4700;-3.3000
1307.9200;-18.3500;-15.4900;-2.8600
1308.1200;-18.0300;-15.5200;-2.5100
1308.3190;-17.7400;-15.5400;-2.2000
1308.5180;-17.5300;-15.5700;-1.9600
1308.7170;-17.3700;-15.5900;-1.7800
1308.9160;-17.2500;-15.6200;-1.6300
1309.1150;-17.2000;-15.6400;-1.5600
1309.3140;-17.1700;-15.6700;-1.5000
1309.5130;-17.2100;-15.7000;-1.5100
1309.7120;-17.2700;-15.7100;-1.5600
1309.9120;-17.3700;-15.7500;-1.6200
1310.1110;-17.5300;-15.7700;-1.7600
1310.3100;-17.7000;-15.8000;-1.9000
1310.5090;-17.9200;-15.8200;-2.1000
1310.7080;-18.1600;-15.8400;-2.3200
1310.9070;-18.4300;-15.8800;-2.5500
1311.1060;-18.7600;-15.9100;-2.8500
1311.3050;-19.0800;-15.9400;-3.1400
1311.5040;-19.4500;-15.9800;-3.4700
1311.7040;-19.8100;-16.0100;-3.8000
1311.9030;-20.1900;-16.0500;-4.1400
1312.1020;-20.5900;-16.0800;-4.5100
1312.3010;-21.0000;-16.1400;-4.8600
1312.5000;-21.4300;-16.1800;-5.2500
1312.6990;-21.8400;-16.2300;-5.6100
1312.8980;-22.2600;-16.2700;-5.9900
1313.0970;-22.6700;-16.3200;-6.3500
1313.2970;-23.0900;-16.3800;-6.7100
1313.4960;-23.5300;-16.4400;-7.0900
1313.6950;-23.9400;-16.5000;-7.4400
1313.8940;-24.3700;-16.5400;-7.8300
1314.0930;-24.8100;-16.6100;-8.2000
1314.2920;-25.2500;-16.6700;-8.5800
1314.4910;-25.7300;-16.7300;-9.0000
1314.6900;-26.2000;-16.8000;-9.4000
1314.8890;-26.6900;-16.8400;-9.8500
1315.0890;-27.1700;-16.9000;-10.2700
1315.2880;-27.6300;-16.9500;-10.6800
1315.4870;-28.0400;-17.0100;-11.0300
1315.6860;-28.4400;-17.0800;-11.3600
1315.8850;-28.5900;-17.1200;-11.4700
1316.0840;-28.6400;-17.1800;-11.4600
1316.2830;-28.5300;-17.2300;-11.3000
1316.4820;-28.2500;-17.2900;-10.9600
1316.6810;-27.8300;-17.3500;-10.4800
1316.8810;-27.2800;-17.4000;-9.8800
1317.0800;-26.7000;-17.4900;-9.2100
1317.2790;-25.9500;-17.5300;-8.4200
1317.4780;-25.4500;-17.6100;-7.8400
1317.6770;-24.8600;-17.6700;-7.1900
1317.8760;-24.3000;-17.7300;-6.5700
1318.0750;-23.8000;-17.8000;-6.0000
1318.2740;-23.3300;-17.8600;-5.4700
1318.4740;-22.9400;-17.9400;-5.0000
1318.6730;-22.5800;-18.0200;-4.5600
1318.8720;-22.2800;-18.0900;-4.1900
1319.0710;-22.0500;-18.1800;-3.8700
1319.2700;-21.8500;-18.2500;-3.6000
1319.4690;-21.7200;-18.3500;-3.3700
1319.6680;-21.6300;-18.4300;-3.2000
1319.8670;-21.6100;-18.5500;-3.0600
1320.0660;-21.6300;-18.6100;-3.0200
1320.2660;-21.7100;-18.7100;-3.0000
1320.4650;-21.8600;-18.8000;-3.0600
1320.6640;-22.0600;-18.9000;-3.1600
1320.8630;-22.3200;-18.9900;-3.3300
1321.0620;-22.6400;-19.0800;-3.5600
1321.2610;-23.0300;-19.1900;-3.8400
1321.4600;-23.5100;-19.2700;-4.2400
1321.6590;-24.0400;-19.3700;-4.6700
1321.8580;-24.6800;-19.4700;-5.2100
1322.0580;-25.3900;-19.5600;-5.8300
1322.2570;-26.2100;-19.6700;-6.5400
1322.4560;-27.1300;-19.7500;-7.3800
1322.6550;-28.1400;-19.8500;-8.2900
1322.8540;-29.5000;-19.9500;-9.5500
1323.0530;-30.4100;-20.0500;-10.3600
1323.2520;-31.4900;-20.1700;-11.3200
1323.4510;-32.3100;-20.2600;-12.0500
1323.6500;-32.6500;-20.3700;-12.2800
1323.8500;-32.4100;-20.4700;-11.9400
1324.0490;-31.7000;-20.5800;-11.1200
1324.2480;-30.7600;-20.7000;-10.0600
1324.4470;-29.7500;-20.8000;-8.9500
1324.6460;-28.7800;-20.9200;-7.8600
1324.8450;-27.9200;-21.0300;-6.8900
1325.0440;-27.1400;-21.1500;-5.9900
1325.2430;-26.4900;-21.2800;-5.2100
1325.4430;-25.8100;-21.4000;-4.4100
1325.6420;-25.4500;-21.5500;-3.9000
1325.8410;-25.0500;-21.6700;-3.3800
1326.0400;-24.7500;-21.8000;-2.9500
1326.2390;-24.5100;-21.9400;-2.5700
1326.4380;-24.3400;-22.0700;-2.2700
1326.6370;-24.2600;-22.2200;-2.0400
1326.8360;-24.2100;-22.3400;-1.8700
1327.0350;-24.2500;-22.4800;-1.7700
1327.2350;-24.3400;-22.6200;-1.7200
1327.4340;-24.4900;-22.7500;-1.7400
1327.6330;-24.7100;-22.9000;-1.8100
1327.8320;-24.9700;-23.0200;-1.9500
1328.0310;-25.3200;-23.1700;-2.1500
1328.2300;-25.6900;-23.3000;-2.3900
1328.4290;-26.1500;-23.4400;-2.7100
1328.6280;-26.6700;-23.5800;-3.0900
1328.8270;-27.2400;-23.7100;-3.5300
1329.0270;-27.8900;-23.8600;-4.0300
1329.2260;-28.7200;-23.9800;-4.7400
1329.4250;-29.3400;-24.1200;-5.2200
1329.6240;-30.0900;-24.2500;-5.8400
1329.8230;-30.8600;-24.3800;-6.4800
1330.0220;-31.6100;-24.5300;-7.0800
1330.2210;-32.2600;-24.6600;-7.6000
1330.4200;-32.7600;-24.8000;-7.9600
1330.6200;-33.0300;-24.9300;-8.1000
1330.8190;-33.0600;-25.0800;-7.9800
1331.0180;-32.8600;-25.2300;-7.6300
1331.2170;-32.4900;-25.3800;-7.1100
1331.4160;-32.0300;-25.5400;-6.4900
1331.6150;-31.5300;-25.6800;-5.8500
1331.8140;-31.0400;-25.8400;-5.2000
1332.0130;-30.5700;-26.0000;-4.5700
1332.2120;-30.1600;-26.1500;-4.0100
1332.4120;-29.8100;-26.3300;-3.4800
1332.6110;-29.5200;-26.4900;-3.0300
1332.8100;-29.3000;-26.6600;-2.6400
1333.0090;-29.1200;-26.8200;-2.3000
1333.2080;-29.0200;-26.9900;-2.0300
1333.4070;-28.9700;-27.1600;-1.8100
1333.6060;-28.9800;-27.3300;-1.6500
1333.8050;-29.0600;-27.5100;-1.5500
1334.0040;-29.1800;-27.6600;-1.5200
1334.2040;-29.3700;-27.8400;-1.5300
1334.4030;-29.6000;-28.0100;-1.5900
1334.6020;-29.9000;-28.1600;-1.7400
1334.8010;-30.2500;-28.3400;-1.9100
1335.0000;-30.6600;-28.5400;-2.1200
1335.1990;-31.1400;-28.6800;-2.4600
1335.3980;-31.6500;-28.8300;-2.8200
1335.5970;-32.2300;-29.0100;-3.2200
1335.7970;-32.8500;-29.1700;-3.6800
1335.9960;-33.5200;-29.3400;-4.1800
1336.1950;-34.2500;-29.5100;-4.7400
1336.3940;-34.9700;-29.6700;-5.3000
1336.5930;-35.7000;-29.8500;-5.8500
1336.7920;-36.3700;-30.0000;-6.3700
1336.9910;-36.9700;-30.1700;-6.8000
1337.1900;-37.4400;-30.3400;-7.1000
1337.3890;-37.7400;-30.5100;-7.2300
1337.5890;-37.8700;-30.6900;-7.1800
1337.7880;-37.8000;-30.8600;-6.9400
1337.9870;-37.6100;-31.0500;-6.5600
1338.1860;-37.3100;-31.2100;-6.1000
1338.3850;-36.9700;-31.3900;-5.5800
1338.5840;-36.6200;-31.5800;-5.0400
1338.7830;-36.2800;-31.7500;-4.5300
1338.9820;-35.9900;-31.9500;-4.0400
1339.1810;-35.7200;-32.1300;-3.5900
1339.3810;-35.5100;-32.3200;-3.1900
1339.5800;-35.3400;-32.5000;-2.8400
1339.7790;-35.2200;-32.6800;-2.5400
1339.9780;-35.1800;-32.8800;-2.3000
1340.1770;-35.1600;-33.0600;-2.1000
1340.3760;-35.2000;-33.2700;-1.9300
1340.5750;-35.2900;-33.4500;-1.8400
1340.7740;-35.4100;-33.6400;-1.7700
1340.9740;-35.5800;-33.8200;-1.7600
1341.1730;-35.7700;-34.0000;-1.7700
1341.3720;-36.0200;-34.1900;-1.8300
1341.5710;-36.2700;-34.3700;-1.9000
1341.7700;-36.5600;-34.5600;-2.0000
1341.9690;-36.8700;-34.7400;-2.1300
1342.1680;-37.1800;-34.9100;-2.2700
1342.3670;-37.5200;-35.0900;-2.4300
1342.5660;-37.8300;-35.2700;-2.5600
1342.7660;-38.1400;-35.4600;-2.6800
1342.9650;-38.4900;-35.6300;-2.8600
1343.1640;-38.7000;-35.8100;-2.8900
1343.3630;-38.9100;-35.9900;-2.9200
1343.5620;-39.0900;-36.1600;-2.9300
1343.7610;-39.2500;-36.3600;-2.8900
1343.9600;-39.3600;-36.5400;-2.8200
1344.1590;-39.4500;-36.7300;-2.7200
1344.3580;-39.5100;-36.9100;-2.6000
1344.5580;-39.5600;-37.1000;-2.4600
1344.7570;-39.6000;-37.3000;-2.3000
1344.9560;-39.6300;-37.4700;-2.1600
1345.1550;-39.6900;-37.6600;-2.0300
1345.3540;-39.7400;-37.8300;-1.9100
1345.5530;-39.8400;-38.0200;-1.8200
1345.7520;-39.9600;-38.2100;-1.7500
1345.9510;-40.1200;-38.3900;-1.7300
1346.1500;-40.3300;-38.6300;-1.7000
1346.3500;-40.5700;-38.7900;-1.7800
1346.5490;-40.8800;-39.0000;-1.8800
1346.7480;-41.2100;-39.1800;-2.0300
1346.9470;-41.6000;-39.3700;-2.2300
1347.1460;-42.0600;-39.5500;-2.5100
1347.3450;-42.5500;-39.7200;-2.8300
1347.5440;-43.1800;-39.9500;-3.2300
1347.7430;-43.8700;-40.1800;-3.6900
1347.9430;-44.6500;-40.4000;-4.2500
1348.1420;-45.5100;-40.5700;-4.9400
1348.3410;-46.4800;-40.7600;-5.7200
1348.5400;-47.5400;-40.9100;-6.6300
1348.7390;-49.0300;-41.0700;-7.9600
1348.9380;-50.1600;-41.2400;-8.9200
1349.1370;-51.7500;-41.3900;-10.3600
1349.3360;-53.5600;-41.5500;-12.0100
1349.5350;-55.5600;-41.7100;-13.8500
1349.7350;-57.4100;-41.8600;-15.5500
1349.9340;-58.6700;-42.0500;-16.6200
1350.1330;-58.1500;-42.2300;-15.9200
1350.3320;-56.8600;-42.4800;-14.3800
1350.5310;-54.9600;-42.6800;-12.2800
1350.7300;-53.7200;-42.8500;-10.8700
1350.9290;-52.4200;-43.0100;-9.4100
1351.1280;-51.3600;-43.1300;-8.2300
1351.3270;-50.5000;-43.3000;-7.2000
1351.5270;-49.8400;-43.4800;-6.3600
1351.7260;-49.3600;-43.7100;-5.6500
1351.9250;-48.9300;-43.9100;-5.0200
1352.1240;-48.6100;-44.0800;-4.5300
1352.3230;-48.3900;-44.2800;-4.1100
1352.5220;-48.3100;-44.4800;-3.8300
1352.7210;-48.2300;-44.6600;-3.5700
1352.9200;-48.2500;-44.8100;-3.4400
1353.1200;-48.4500;-45.0800;-3.3700
1353.3190;-48.5600;-45.2000;-3.3600
1353.5180;-48.8300;-45.3800;-3.4500
1353.7170;-49.1700;-45.5800;-3.5900
1353.9160;-49.5100;-45.6800;-3.8300
1354.1150;-49.9800;-45.8500;-4.1300
1354.3140;-50.5900;-46.0700;-4.5200
1354.5130;-51.2700;-46.2700;-5.0000
1354.7120;-52.1300;-46.5900;-5.5400
1354.9120;-53.0700;-46.8600;-6.2100
1355.1110;-54.0400;-47.0600;-6.9800
1355.3100;-55.0600;-47.1600;-7.9000
1355.5090;-56.0100;-47.1700;-8.8400
1355.7080;-57.1300;-47.4200;-9.7100
1355.9070;-58.1900;-47.6900;-10.5000
1356.1060;-59.1200;-47.8500;-11.2700
1356.3050;-59.2700;-47.9300;-11.3400
1356.5040;-59.0100;-48.0300;-10.9800
1356.7040;-58.2400;-47.9300;-10.3100
1356.9030;-57.4600;-48.0800;-9.3800
1357.1020;-56.8800;-48.5100;-8.3700
1357.3010;-55.9000;-48.6600;-7.2400
1357.5000;-55.2500;-48.8300;-6.4200
1357.6990;-54.5800;-49.0000;-5.5800
1357.8980;-53.9200;-49.0700;-4.8500
1358.0970;-53.3500;-49.1200;-4.2300
1358.2970;-52.9600;-49.3000;-3.6600
1358.4960;-52.7400;-49.5200;-3.2200
1358.6950;-52.4600;-49.6600;-2.8000
1358.8940;-52.2800;-49.8200;-2.4600
1359.0930;-52.1700;-49.9700;-2.2000
1359.2920;-52.0200;-50.0300;-1.9900
1359.4910;-52.2700;-50.3900;-1.8800
1359.6900;-52.5100;-50.7000;-1.8100
1359.8890;-52.7200;-50.9000;-1.8200
1360.0890;-52.8600;-50.9500;-1.9100
1360.2880;-53.0300;-51.0100;-2.0200
1360.4870;-53.2300;-50.9900;-2.2400
1360.6860;-53.6400;-51.1700;-2.4700
1360.8850;-54.3200;-51.5100;-2.8100
1361.0840;-55.0500;-51.8000;-3.2500
1361.2830;-55.7700;-51.9900;-3.7800
1361.4820;-56.6000;-52.1300;-4.4700
1361.6810;-57.4200;-52.3600;-5.0600
1361.8810;-58.3700;-52.4800;-5.8900
1362.0800;-59.7700;-52.7100;-7.0600
1362.2790;-60.9300;-53.1200;-7.8100
1362.4780;-62.1100;-53.3500;-8.7600
1362.6770;-63.3100;-53.4900;-9.8200
1362.8760;-63.9800;-53.3600;-10.6200
1363.0750;-64.2300;-53.3200;-10.9100
1363.2740;-63.8000;-53.0700;-10.7300
1363.4740;-63.2200;-53.1500;-10.0700
1363.6730;-62.4200;-53.2300;-9.1900
1363.8720;-61.5700;-53.3700;-8.2000
1364.0710;-60.8400;-53.5900;-7.2500
1364.2700;-60.1100;-53.7800;-6.3300
1364.4690;-59.6300;-54.0900;-5.5400
1364.6680;-59.4700;-54.5900;-4.8800
1364.8670;-59.0100;-54.8200;-4.1900
1365.0660;-58.4100;-54.8100;-3.6000
1365.2660;-58.1100;-54.9800;-3.1300
1365.4650;-57.7500;-54.9400;-2.8100
1365.6640;-57.5500;-55.0100;-2.5400
1365.8630;-57.3700;-55.0800;-2.2900
1366.0620;-57.2400;-55.0800;-2.1600
1366.2610;-57.1700;-55.1000;-2.0700
1366.4600;-57.2400;-55.1900;-2.0500
1366.6590;-57.4500;-55.3600;-2.0900
1366.8580;-57.7900;-55.6300;-2.1600
1367.0580;-58.1400;-55.7800;-2.3600
1367.2570;-58.5100;-55.9100;-2.6000
1367.4560;-59.0800;-56.1700;-2.9100
1367.6550;-59.6000;-56.3800;-3.2200
1367.8540;-60.3400;-56.6800;-3.6600
1368.0530;-61.0200;-56.8000;-4.2200
1368.2520;-61.6000;-56.8100;-4.7900
1368.4510;-62.5100;-57.1300;-5.3800
1368.6500;-63.2200;-57.2400;-5.9800
1368.8500;-64.1000;-57.3800;-6.7200
1369.0490;-64.8300;-57.3500;-7.4800
1369.2480;-65.4100;-57.3400;-8.0700
1369.4470;-65.7600;-57.2800;-8.4800
1369.6460;-66.1200;-57.4000;-8.7200
1369.8450;-66.4500;-57.7300;-8.7200
1370.0440;-66.3400;-57.9200;-8.4200
1370.2430;-65.9700;-58.0800;-7.8900
1370.4430;-65.3900;-58.1300;-7.2600
1370.6420;-64.8100;-58.1900;-6.6200
1370.8410;-64.5800;-58.6200;-5.9600
1371.0400;-64.1400;-58.8100;-5.3300
1371.2390;-63.7500;-58.9800;-4.7700
1371.4380;-63.2400;-59.0300;-4.2100
1371.6370;-62.7900;-59.0200;-3.7700
1371.8360;-62.4100;-59.0300;-3.3800
1372.0350;-62.2700;-59.2400;-3.0300
1372.2350;-62.2200;-59.4500;-2.7700
1372.4340;-62.1300;-59.5800;-2.5500
1372.6330;-62.0600;-59.7100;-2.3500
1372.8320;-62.0000;-59.7700;-2.2300
1373.0310;-62.0300;-59.8200;-2.2100
1373.2300;-62.2000;-59.9800;-2.2200
1373.4290;-62.4200;-60.1800;-2.2400
1373.6280;-62.7100;-60.3000;-2.4100
1373.8270;-63.0300;-60.4400;-2.5900
1374.0270;-63.4500;-60.5500;-2.9000
1374.2260;-63.8700;-60.6800;-3.1900
1374.4250;-64.3900;-60.8800;-3.5100
1374.6240;-65.0100;-61.0400;-3.9700
1374.8230;-65.7400;-61.2800;-4.4600
1375.0220;-66.5600;-61.4500;-5.1100
1375.2210;-67.3900;-61.5800;-5.8100
1375.4200;-68.3000;-61.6900;-6.6100
1375.6200;-69.2700;-61.7900;-7.4800
1375.8190;-70.1500;-61.9200;-8.2300
1376.0180;-71.5300;-62.1300;-9.4000
1376.2170;-72.5700;-62.2900;-10.2800
1376.4160;-73.7200;-62.4300;-11.2900
1376.6150;-74.5500;-62.5700;-11.9800
1376.8140;-75.1700;-62.7600;-12.4100
1377.0130;-75.2900;-63.0000;-12.2900
1377.2120;-75.0200;-63.2300;-11.7900
1377.4120;-74.3600;-63.3200;-11.0400
1377.6110;-74.0100;-63.4600;-10.5500
1377.8100;-72.9500;-63.4800;-9.4700
1378.0090;-72.2900;-63.5200;-8.7700
1378.2080;-71.7500;-63.7000;-8.0500
1378.4070;-71.1900;-63.8900;-7.3000
1378.6060;-70.8000;-64.1800;-6.6200
1378.8050;-70.7500;-64.4700;-6.2800
1379.0040;-70.5900;-64.7000;-5.8900
1379.2040;-70.1500;-64.8500;-5.3000
1379.4030;-70.0300;-64.7900;-5.2400
1379.6020;-69.7000;-64.8000;-4.9000
1379.8010;-69.6000;-64.8500;-4.7500
1380.0000;-69.5900;-65.1000;-4.4900
1380.1990;-69.6100;-65.3400;-4.2700
1380.3980;-69.9300;-65.5600;-4.3700
1380.5970;-70.4700;-66.0700;-4.4000
1380.7970;-70.9500;-66.5800;-4.3700
1380.9960;-70.9400;-66.7200;-4.2200
1381.1950;-71.0600;-66.7100;-4.3500
1381.3940;-71.0100;-66.5200;-4.4900
1381.5930;-70.5100;-66.3200;-4.1900
1381.7920;-70.6700;-66.3800;-4.2900
1381.9910;-70.5800;-66.3600;-4.2200
1382.1900;-70.5800;-66.5100;-4.0700
1382.3890;-70.7800;-66.8700;-3.9100
1382.5890;-71.2800;-67.4100;-3.8700
1382.7880;-71.7400;-67.8600;-3.8800
1382.9870;-71.8600;-68.0900;-3.7700
1383.1860;-71.4900;-67.9400;-3.5500
1383.3850;-70.9600;-67.6000;-3.3600
1383.5840;-70.8600;-67.4500;-3.4100
1383.7830;-70.6200;-67.7100;-2.9100
1383.9820;-70.6200;-67.7800;-2.8400
1384.1810;-70.7000;-67.8100;-2.8900
1384.3810;-70.2800;-67.9300;-2.3500
1384.5800;-70.2500;-67.8100;-2.4400
1384.7790;-70.3000;-67.9700;-2.3300
1384.9780;-70.6400;-68.2800;-2.3600
1385.1770;-70.8700;-68.6200;-2.2500
1385.3760;-70.9700;-68.6300;-2.3400
1385.5750;-70.9700;-68.5100;-2.4600
1385.7740;-70.9600;-68.5700;-2.3900
1385.9740;-71.3100;-68.6500;-2.6600
1386.1730;-71.5000;-68.7400;-2.7600
1386.3720;-71.7900;-68.8400;-2.9500
1386.5710;-71.9000;-68.9800;-2.9200
1386.7700;-72.2500;-69.0500;-3.2000
1386.9690;-72.7900;-68.9900;-3.8000
1387.1680;-73.0800;-69.0500;-4.0300
1387.3670;-73.6800;-69.0700;-4.6100
1387.5660;-74.1900;-69.2200;-4.9700
1387.7660;-75.0000;-69.4900;-5.5100
1387.9650;-75.3200;-69.7600;-5.5600
1388.1640;-76.4800;-69.9600;-6.5200
1388.3630;-77.5500;-70.0600;-7.4900
1388.5620;-78.1300;-70.2400;-7.8900
1388.7610;-77.8400;-69.9400;-7.9000
1388.9600;-78.4600;-70.0200;-8.4400
1389.1590;-78.7400;-69.8400;-8.9000
1389.3580;-78.2500;-69.9300;-8.3200
1389.5580;-79.7700;-70.0100;-9.7600
1389.7570;-78.5500;-70.1500;-8.4000
1389.9560;-79.2200;-70.3000;-8.9200
1390.1550;-79.8400;-70.2500;-9.5900
1390.3540;-78.9500;-70.3600;-8.5900
1390.5530;-80.0700;-70.3900;-9.6800
1390.7520;-79.4900;-70.4600;-9.0300
1390.9510;-78.9500;-70.6800;-8.2700
1391.1500;-77.3800;-70.8500;-6.5300
1391.3500;-77.8900;-70.7800;-7.1100
1391.5490;-77.9900;-70.9100;-7.0800
1391.7480;-78.3400;-70.9300;-7.4100
1391.9470;-77.9000;-70.9200;-6.9800
1392.1460;-78.0700;-71.3600;-6.7100
1392.3450;-78.3700;-71.4700;-6.9000
1392.5440;-78.1900;-71.9400;-6.2500
1392.7430;-77.9000;-72.0600;-5.8400
1392.9430;-78.6900;-72.1400;-6.5500
1393.1420;-77.6900;-71.9400;-5.7500
1393.3410;-77.6900;-71.5800;-6.1100
1393.5400;-78.3900;-71.5500;-6.8400
1393.7390;-78.0700;-71.6200;-6.4500
1393.9380;-78.3200;-71.8500;-6.4700
1394.1370;-78.8400;-71.8300;-7.0100
1394.3360;-79.2000;-72.0400;-7.1600
1394.5350;-79.7800;-72.0500;-7.7300
1394.7350;-81.4300;-72.1200;-9.3100
1394.9340;-80.4800;-72.3700;-8.1100
1395.1330;-80.3600;-72.7900;-7.5700
1395.3320;-80.1600;-72.8000;-7.3600
1395.5310;-80.4000;-72.9900;-7.4100
1395.7300;-79.0500;-72.8700;-6.1800
1395.9290;-78.6900;-73.2600;-5.4300
1396.1280;-78.7500;-72.8800;-5.8700
1396.3270;-78.4700;-73.0700;-5.4000
1396.5270;-78.5000;-73.3100;-5.1900
1396.7260;-79.5000;-73.4800;-6.0200
1396.9250;-78.9300;-73.4800;-5.4500
1397.1240;-79.3000;-73.5800;-5.7200
1397.3230;-78.1400;-73.2300;-4.9100
1397.5220;-78.2100;-73.0300;-5.1800
1397.7210;-77.0500;-73.1700;-3.8800
1397.9200;-78.3200;-73.5500;-4.7700
1398.1200;-77.5200;-73.6700;-3.8500
1398.3190;-77.9700;-73.5200;-4.4500
1398.5180;-77.5000;-73.5900;-3.9100
1398.7170;-77.0400;-73.8200;-3.2200
1398.9160;-77.4600;-73.6100;-3.8500
1399.1150;-77.4600;-73.6400;-3.8200
1399.3140;-77.7000;-73.7900;-3.9100
1399.5130;-77.6300;-74.4200;-3.2100
1399.7120;-77.5700;-74.1900;-3.3800
1399.9120;-78.2000;-74.2200;-3.9800
1400.1110;-77.9100;-74.6900;-3.2200
1400.3100;-78.0800;-74.5900;-3.4900
1400.5090;-78.6800;-74.6700;-4.0100
1400.7080;-78.3300;-75.0900;-3.2400
1400.9070;-78.0000;-75.0900;-2.9100
1401.1060;-78.2700;-74.8500;-3.4200
1401.3050;-78.6800;-74.9200;-3.7600
1401.5040;-78.3300;-74.6700;-3.6600
1401.7040;-79.0000;-74.9200;-4.0800
1401.9030;-78.8500;-74.9000;-3.9500
1402.1020;-78.5900;-75.2600;-3.3300
1402.3010;-78.3300;-75.0600;-3.2700
1402.5000;-79.0600;-74.9400;-4.1200
1402.6990;-79.7200;-74.9700;-4.7500
1402.8980;-79.7200;-75.1500;-4.5700
1403.0970;-79.3400;-74.8000;-4.5400
1403.2970;-80.4100;-75.5000;-4.9100
1403.4960;-80.2100;-75.3700;-4.8400
1403.6950;-79.8600;-75.3200;-4.5400
1403.8940;-78.8200;-75.5300;-3.2900
1404.0930;-79.3100;-75.3200;-3.9900
1404.2920;-79.1800;-75.3000;-3.8800
1404.4910;-80.1700;-75.9000;-4.2700
1404.6900;-80.5400;-75.7700;-4.7700
1404.8890;-80.8500;-76.4800;-4.3700
1405.0890;-80.2100;-76.1200;-4.0900
1405.2880;-80.8900;-75.9300;-4.9600
1405.4870;-80.5400;-76.3600;-4.1800
1405.6860;-81.2300;-75.3900;-5.8400
1405.8850;-83.3400;-76.2300;-7.1100
1406.0840;-82.8000;-75.9000;-6.9000
1406.2830;-80.2500;-75.9000;-4.3500
1406.4820;-79.9300;-75.9900;-3.9400
1406.6810;-81.2400;-75.3900;-5.8500
1406.8810;-81.0500;-75.9200;-5.1300
1407.0800;-80.9500;-75.9700;-4.9800
1407.2790;-80.5900;-76.2000;-4.3900
1407.4780;-81.4500;-75.9700;-5.4800
1407.6770;-79.3800;-76.2100;-3.1700
1407.8760;-80.1800;-76.4900;-3.6900
1408.0750;-80.2600;-76.1600;-4.1000
1408.2740;-79.9100;-76.8600;-3.0500
1408.4740;-80.9500;-76.0000;-4.9500
1408.6730;-79.5200;-76.9300;-2.5900
1408.8720;-79.5200;-76.5100;-3.0100
1409.0710;-80.8600;-76.5100;-4.3500
1409.2700;-79.9400;-76.3400;-3.6000
1409.4690;-80.4200;-77.5400;-2.8800
1409.6680;-80.3000;-76.7900;-3.5100
1409.8670;-79.8300;-76.6100;-3.2200
1410.0660;-79.3800;-76.2800;-3.1000
1410.2660;-80.3000;-75.8500;-4.4500
1410.4650;-79.5200;-76.0300;-3.4900
1410.6640;-80.6800;-76.1800;-4.5000
1410.8630;-79.7300;-76.3100;-3.4200
1411.0620;-80.1000;-76.4200;-3.6800
1411.2610;-79.7600;-76.4100;-3.3500
1411.4600;-80.1400;-76.4400;-3.7000
1411.6590;-80.7700;-76.4700;-4.3000
1411.8580;-80.0200;-76.4700;-3.5500
1412.0580;-80.0200;-76.5100;-3.5100
1412.2570;-82.2000;-76.1300;-6.0700
1412.4560;-79.9400;-76.0900;-3.8500
1412.6550;-79.2900;-76.5900;-2.7000
1412.8540;-81.0500;-76.2600;-4.7900
1413.0530;-80.4200;-75.9200;-4.5000
1413.2520;-79.6600;-76.9700;-2.6900
1413.4510;-79.8700;-76.3400;-3.5300
1413.6500;-80.3900;-75.9500;-4.4400
1413.8500;-79.3900;-76.1000;-3.2900
1414.0490;-81.8500;-77.2100;-4.6400
1414.2480;-79.3300;-76.9300;-2.4000
1414.4470;-81.3100;-76.8300;-4.4800
1414.6460;-81.1500;-76.5000;-4.6500
1414.8450;-79.6700;-76.9400;-2.7300
1415.0440;-79.4900;-76.7100;-2.7800
1415.2430;-79.8100;-76.1700;-3.6400
1415.4430;-81.0600;-76.6000;-4.4600
1415.6420;-80.8700;-76.2100;-4.6600
1415.8410;-79.7700;-76.0800;-3.6900
1416.0400;-80.6900;-75.8900;-4.8000
1416.2390;-80.2700;-76.2200;-4.0500
1416.4380;-79.0200;-76.0500;-2.9700
1416.6370;-80.6400;-76.5200;-4.1200
1416.8360;-81.1500;-76.4200;-4.7300
1417.0350;-80.9100;-76.5200;-4.3900
1417.2350;-81.4600;-75.9800;-5.4800
1417.4340;-80.5100;-76.0500;-4.4600
1417.6330;-80.0300;-76.3500;-3.6800
1417.8320;-79.8100;-76.5200;-3.2900
1418.0310;-82.1500;-76.6200;-5.5300
1418.2300;-80.9100;-76.3500;-4.5600
1418.4290;-81.7900;-75.6300;-6.1600
1418.6280;-79.9200;-75.9500;-3.9700
1418.8270;-78.7200;-76.1600;-2.5600
1419.0270;-80.4300;-76.5200;-3.9100
1419.2260;-80.9600;-76.7600;-4.2000
1419.4250;-80.0700;-76.3500;-3.7200
1419.6240;-80.1100;-76.8900;-3.2200
1419.8230;-82.4700;-76.0100;-6.4600
1420.0220;-81.4600;-75.6200;-5.8400
1420.2210;-79.1100;-76.1000;-3.0100
1420.4200;-78.4000;-75.8400;-2.5600
1420.6200;-78.7500;-75.9500;-2.8000
1420.8190;-78.9600;-76.0800;-2.8800
1421.0180;-79.1400;-75.5100;-3.6300
1421.2170;-79.7400;-75.8300;-3.9100
1421.4160;-80.1100;-75.6400;-4.4700
1421.6150;-80.7400;-76.0500;-4.6900
1421.8140;-81.1600;-76.0200;-5.1400
1422.0130;-79.0300;-75.8100;-3.2200
1422.2120;-80.3200;-76.1400;-4.1800
1422.4120;-80.1600;-76.0800;-4.0800
1422.6110;-79.3700;-76.2000;-3.1700
1422.8100;-79.2400;-75.8100;-3.4300
1423.0090;-80.2000;-76.1800;-4.0200
1423.2080;-78.7300;-75.7800;-2.9500
1423.4070;-79.0000;-76.0200;-2.9800
1423.6060;-79.0000;-76.6300;-2.3700
1423.8050;-79.9600;-75.9600;-4.0000
1424.0040;-78.7300;-75.4900;-3.2400
1424.2040;-79.0000;-75.3300;-3.6700
1424.4030;-79.6800;-75.4500;-4.2300
1424.6020;-81.6900;-75.5000;-6.1900
1424.8010;-79.5400;-75.6300;-3.9100
1425.0000;-78.9700;-76.0500;-2.9200
