Wavelength;Intensity_Meas;Intensity_Ref;Difference_dB
1200.0000;-62.0800;-57.0700;-5.0100
1200.1990;-62.0700;-57.0400;-5.0300
1200.3980;-62.0200;-57.0000;-5.0200
1200.5970;-61.9300;-56.9900;-4.9400
1200.7970;-61.8700;-56.9700;-4.9000
1200.9960;-61.8500;-56.9200;-4.9300
1201.1950;-61.8000;-56.8900;-4.9100
1201.3940;-61.7300;-56.8600;-4.8700
1201.5930;-61.6600;-56.8100;-4.8500
1201.7920;-61.6400;-56.7700;-4.8700
1201.9910;-61.5900;-56.7100;-4.8800
1202.1900;-61.4700;-56.6600;-4.8100
1202.3890;-61.4400;-56.6200;-4.8200
1202.5890;-61.3800;-56.5700;-4.8100
1202.7880;-61.3500;-56.5200;-4.8300
1202.9870;-61.2700;-56.4600;-4.8100
1203.1860;-61.2300;-56.4100;-4.8200
1203.3850;-61.1300;-56.3700;-4.7600
1203.5840;-61.1100;-56.3200;-4.7900
1203.7830;-61.1300;-56.2800;-4.8500
1203.9820;-61.0500;-56.2400;-4.8100
1204.1810;-60.9800;-56.1900;-4.7900
1204.3810;-60.9800;-56.1700;-4.8100
1204.5800;-61.0100;-56.1300;-4.8800
1204.7790;-60.9800;-56.0900;-4.8900
1204.9780;-60.9400;-56.0600;-4.8800
1205.1770;-60.9600;-56.0400;-4.9200
1205.3760;-61.0200;-56.0100;-5.0100
1205.5750;-61.0400;-55.9900;-5.0500
1205.7740;-61.0400;-55.9800;-5.0600
1205.9740;-61.0600;-55.9500;-5.1100
1206.1730;-61.1400;-55.9400;-5.2000
1206.3720;-61.1900;-55.9300;-5.2600
1206.5710;-61.1800;-55.9100;-5.2700
1206.7700;-61.1700;-55.8800;-5.2900
1206.9690;-61.2300;-55.8600;-5.3700
1207.1680;-61.2400;-55.8300;-5.4100
1207.3670;-61.2000;-55.8100;-5.3900
1207.5660;-61.1500;-55.7800;-5.3700
1207.7660;-61.1300;-55.7500;-5.3800
1207.9650;-61.1000;-55.7100;-5.3900
1208.1640;-61.0300;-55.6800;-5.3500
1208.3630;-60.9600;-55.6600;-5.3000
1208.5620;-60.8600;-55.6000;-5.2600
1208.7610;-60.8000;-55.5600;-5.2400
1208.9600;-60.7200;-55.5100;-5.2100
1209.1590;-60.5700;-55.4500;-5.1200
1209.3580;-60.4900;-55.4100;-5.0800
1209.5580;-60.4200;-55.3600;-5.0600
1209.7570;-60.3600;-55.3100;-5.0500
1209.9560;-60.2300;-55.2600;-4.9700
1210.1550;-60.1200;-55.2100;-4.9100
1210.3540;-60.0600;-55.1800;-4.8800
1210.5530;-60.0000;-55.1100;-4.8900
1210.7520;-59.9600;-55.0700;-4.8900
1210.9510;-59.8600;-55.0300;-4.8300
1211.1500;-59.7900;-54.9800;-4.8100
1211.3500;-59.8000;-54.9500;-4.8500
1211.5490;-59.8100;-54.9100;-4.9000
1211.7480;-59.7600;-54.8700;-4.8900
1211.9470;-59.7300;-54.8400;-4.8900
1212.1460;-59.7800;-54.8100;-4.9700
1212.3450;-59.8200;-54.7800;-5.0400
1212.5440;-59.8300;-54.7600;-5.0700
1212.7430;-59.8300;-54.7400;-5.0900
1212.9430;-59.8800;-54.7100;-5.1700
1213.1420;-59.9300;-54.6700;-5.2600
1213.3410;-59.9500;-54.6500;-5.3000
1213.5400;-59.9600;-54.6200;-5.3400
1213.7390;-60.0000;-54.6000;-5.4000
1213.9380;-60.0100;-54.5600;-5.4500
1214.1370;-59.9900;-54.5300;-5.4600
1214.3360;-59.9400;-54.5100;-5.4300
1214.5350;-59.9200;-54.4600;-5.4600
1214.7350;-59.9100;-54.4300;-5.4800
1214.9340;-59.8400;-54.3900;-5.4500
1215.1330;-59.7300;-54.3400;-5.3900
1215.3320;-59.6500;-54.3000;-5.3500
1215.5310;-59.5800;-54.2500;-5.3300
1215.7300;-59.4900;-54.2000;-5.2900
1215.9290;-59.3600;-54.1500;-5.2100
1216.1280;-59.2500;-54.1000;-5.1500
1216.3270;-59.1500;-54.0400;-5.1100
1216.5270;-59.0500;-53.9900;-5.0600
1216.7260;-58.9200;-53.9300;-4.9900
1216.9250;-58.7800;-53.8800;-4.9000
1217.1240;-58.6800;-53.8100;-4.8700
1217.3230;-58.5800;-53.7700;-4.8100
1217.5220;-58.4800;-53.7200;-4.7600
1217.7210;-58.3900;-53.6700;-4.7200
1217.9200;-58.3200;-53.6200;-4.7000
1218.1200;-58.3000;-53.5700;-4.7300
1218.3190;-58.2500;-53.5300;-4.7200
1218.5180;-58.2100;-53.4800;-4.7300
1218.7170;-58.2500;-53.4500;-4.8000
1218.9160;-58.2700;-53.4100;-4.8600
1219.1150;-58.2900;-53.3600;-4.9300
1219.3140;-58.3200;-53.3500;-4.9700
1219.5130;-58.3900;-53.3200;-5.0700
1219.7120;-58.4800;-53.2800;-5.2000
1219.9120;-58.5400;-53.2400;-5.3000
1220.1110;-58.5900;-53.2100;-5.3800
1220.3100;-58.6500;-53.1800;-5.4700
1220.5090;-58.7100;-53.1400;-5.5700
1220.7080;-58.7700;-53.1100;-5.6600
1220.9070;-58.7500;-53.0700;-5.6800
1221.1060;-58.7600;-53.0200;-5.7400
1221.3050;-58.7700;-52.9800;-5.7900
1221.5040;-58.6900;-52.9100;-5.7800
1221.7040;-58.6300;-52.8700;-5.7600
1221.9030;-58.5400;-52.8100;-5.7300
1222.1020;-58.4300;-52.7400;-5.6900
1222.3010;-58.3200;-52.7000;-5.6200
1222.5000;-58.1600;-52.6200;-5.5400
1222.6990;-58.0200;-52.5600;-5.4600
1222.8980;-57.8700;-52.4900;-5.3800
1223.0970;-57.7000;-52.4200;-5.2800
1223.2970;-57.5200;-52.3700;-5.1500
1223.4960;-57.3400;-52.2800;-5.0600
1223.6950;-57.2000;-52.2200;-4.9800
1223.8940;-57.0300;-52.1600;-4.8700
1224.0930;-56.8500;-52.0800;-4.7700
1224.2920;-56.7000;-52.0300;-4.6700
1224.4910;-56.5600;-51.9500;-4.6100
1224.6900;-56.4600;-51.8900;-4.5700
1224.8890;-56.3300;-51.8300;-4.5000
1225.0890;-56.2400;-51.7700;-4.4700
1225.2880;-56.1800;-51.7200;-4.4600
1225.4870;-56.1400;-51.6500;-4.4900
1225.6860;-56.1100;-51.6100;-4.5000
1225.8850;-56.0800;-51.5600;-4.5200
1226.0840;-56.1100;-51.5000;-4.6100
1226.2830;-56.1400;-51.4700;-4.6700
1226.4820;-56.1500;-51.4000;-4.7500
1226.6810;-56.2000;-51.3600;-4.8400
1226.8810;-56.2500;-51.3100;-4.9400
1227.0800;-56.2900;-51.2500;-5.0400
1227.2790;-56.3200;-51.2200;-5.1000
1227.4780;-56.3300;-51.1500;-5.1800
1227.6770;-56.3700;-51.1000;-5.2700
1227.8760;-56.3600;-51.0500;-5.3100
1228.0750;-56.3100;-50.9800;-5.3300
1228.2740;-56.2700;-50.9300;-5.3400
1228.4740;-56.2100;-50.8500;-5.3600
1228.6730;-56.1600;-50.7900;-5.3700
1228.8720;-56.0400;-50.7300;-5.3100
1229.0710;-55.9400;-50.6500;-5.2900
1229.2700;-55.8500;-50.5900;-5.2600
1229.4690;-55.6900;-50.5000;-5.1900
1229.6680;-55.6000;-50.4300;-5.1700
1229.8670;-55.4800;-50.3500;-5.1300
1230.0660;-55.3900;-50.2700;-5.1200
1230.2660;-55.2700;-50.2100;-5.0600
1230.4650;-55.1500;-50.1100;-5.0400
1230.6640;-55.1000;-50.0300;-5.0700
1230.8630;-55.0400;-49.9800;-5.0600
1231.0620;-54.9800;-49.9000;-5.0800
1231.2610;-54.9500;-49.8500;-5.1000
1231.4600;-54.9400;-49.7900;-5.1500
1231.6590;-54.9700;-49.7200;-5.2500
1231.8580;-54.9800;-49.6600;-5.3200
1232.0580;-55.0300;-49.6000;-5.4300
1232.2570;-55.1000;-49.5500;-5.5500
1232.4560;-55.1900;-49.4900;-5.7000
1232.6550;-55.2700;-49.4400;-5.8300
1232.8540;-55.3400;-49.3700;-5.9700
1233.0530;-55.4700;-49.3200;-6.1500
1233.2520;-55.5400;-49.2800;-6.2600
1233.4510;-55.5900;-49.2100;-6.3800
1233.6500;-55.6600;-49.1700;-6.4900
1233.8500;-55.6600;-49.1000;-6.5600
1234.0490;-55.6600;-49.0400;-6.6200
1234.2480;-55.5900;-48.9800;-6.6100
1234.4470;-55.4900;-48.9000;-6.5900
1234.6460;-55.3900;-48.8500;-6.5400
1234.8450;-55.2400;-48.7800;-6.4600
1235.0440;-55.0400;-48.7000;-6.3400
1235.2430;-54.8300;-48.6300;-6.2000
1235.4430;-54.6100;-48.5400;-6.0700
1235.6420;-54.4000;-48.4800;-5.9200
1235.8410;-54.1500;-48.3800;-5.7700
1236.0400;-53.9500;-48.3000;-5.6500
1236.2390;-53.7300;-48.2100;-5.5200
1236.4380;-53.5100;-48.1100;-5.4000
1236.6370;-53.3300;-48.0400;-5.2900
1236.8360;-53.1400;-47.9400;-5.2000
1237.0350;-53.0100;-47.8600;-5.1500
1237.2350;-52.8500;-47.7700;-5.0800
1237.4340;-52.7200;-47.6800;-5.0400
1237.6330;-52.6500;-47.6100;-5.0400
1237.8320;-52.5700;-47.5200;-5.0500
1238.0310;-52.5100;-47.4400;-5.0700
1238.2300;-52.4700;-47.3600;-5.1100
1238.4290;-52.4500;-47.2700;-5.1800
1238.6280;-52.4500;-47.2100;-5.2400
1238.8270;-52.4400;-47.1200;-5.3200
1239.0270;-52.4700;-47.0600;-5.4100
1239.2260;-52.4800;-46.9600;-5.5200
1239.4250;-52.4900;-46.8800;-5.6100
1239.6240;-52.5000;-46.8100;-5.6900
1239.8230;-52.4900;-46.7200;-5.7700
1240.0220;-52.4900;-46.6500;-5.8400
1240.2210;-52.4400;-46.5400;-5.9000
1240.4200;-52.3700;-46.4500;-5.9200
1240.6200;-52.3100;-46.3700;-5.9400
1240.8190;-52.2000;-46.2600;-5.9400
1241.0180;-52.0800;-46.1600;-5.9200
1241.2170;-51.9300;-46.0400;-5.8900
1241.4160;-51.7900;-45.9100;-5.8800
1241.6150;-51.6300;-45.8000;-5.8300
1241.8140;-51.4700;-45.6900;-5.7800
1242.0130;-51.3300;-45.5700;-5.7600
1242.2120;-51.1900;-45.4400;-5.7500
1242.4120;-51.0700;-45.3300;-5.7400
1242.6110;-50.9500;-45.1800;-5.7700
1242.8100;-50.8500;-45.0600;-5.7900
1243.0090;-50.7800;-44.9200;-5.8600
1243.2080;-50.7100;-44.8000;-5.9100
1243.4070;-50.6600;-44.6800;-5.9800
1243.6060;-50.6200;-44.5300;-6.0900
1243.8050;-50.5900;-44.4100;-6.1800
1244.0040;-50.5700;-44.2800;-6.2900
1244.2040;-50.5200;-44.1500;-6.3700
1244.4030;-50.5000;-44.0300;-6.4700
1244.6020;-50.4400;-43.8800;-6.5600
1244.8010;-50.3600;-43.7600;-6.6000
1245.0000;-50.2800;-43.6400;-6.6400
1245.1990;-50.1500;-43.5100;-6.6400
1245.3980;-50.0000;-43.4000;-6.6000
1245.5970;-49.8100;-43.2500;-6.5600
1245.7970;-49.5900;-43.1300;-6.4600
1245.9960;-49.3600;-42.9900;-6.3700
1246.1950;-49.0900;-42.8500;-6.2400
1246.3940;-48.8100;-42.7300;-6.0800
1246.5930;-48.5200;-42.5700;-5.9500
1246.7920;-48.2200;-42.4300;-5.7900
1246.9910;-47.9200;-42.2800;-5.6400
1247.1900;-47.6400;-42.1200;-5.5200
1247.3890;-47.3700;-41.9800;-5.3900
1247.5890;-47.1100;-41.8100;-5.3000
1247.7880;-46.8700;-41.6600;-5.2100
1247.9870;-46.6700;-41.4900;-5.1800
1248.1860;-46.4900;-41.3300;-5.1600
1248.3850;-46.3500;-41.1800;-5.1700
1248.5840;-46.2400;-41.0000;-5.2400
1248.7830;-46.1700;-40.8400;-5.3300
1248.9820;-46.1500;-40.6800;-5.4700
1249.1810;-46.1300;-40.5200;-5.6100
1249.3810;-46.1700;-40.3600;-5.8100
1249.5800;-46.2100;-40.1800;-6.0300
1249.7790;-46.2800;-40.0300;-6.2500
1249.9780;-46.3600;-39.8600;-6.5000
1250.1770;-46.4200;-39.7000;-6.7200
1250.3760;-46.4800;-39.5600;-6.9200
1250.5750;-46.4600;-39.3900;-7.0700
1250.7740;-46.4100;-39.2300;-7.1800
1250.9740;-46.3000;-39.0900;-7.2100
1251.1730;-46.0700;-38.9300;-7.1400
1251.3720;-45.7200;-38.7900;-6.9300
1251.5710;-45.3900;-38.6400;-6.7500
1251.7700;-44.9500;-38.4900;-6.4600
1251.9690;-44.4300;-38.3300;-6.1000
1252.1680;-43.8900;-38.1700;-5.7200
1252.3670;-43.3500;-38.0300;-5.3200
1252.5660;-42.8100;-37.8700;-4.9400
1252.7660;-42.2800;-37.7100;-4.5700
1252.9650;-41.7700;-37.5600;-4.2100
1253.1640;-41.2900;-37.3900;-3.9000
1253.3630;-40.8400;-37.2400;-3.6000
1253.5620;-40.4400;-37.0800;-3.3600
1253.7610;-40.0900;-36.9200;-3.1700
1253.9600;-39.7800;-36.7600;-3.0200
1254.1590;-39.5200;-36.5900;-2.9300
1254.3580;-39.3000;-36.4400;-2.8600
1254.5580;-39.1600;-36.2700;-2.8900
1254.7570;-39.0700;-36.1200;-2.9500
1254.9560;-39.0200;-35.9500;-3.0700
1255.1550;-39.0600;-35.7800;-3.2800
1255.3540;-39.1500;-35.6400;-3.5100
1255.5530;-39.3200;-35.4900;-3.8300
1255.7520;-39.5600;-35.3400;-4.2200
1255.9510;-39.8600;-35.1700;-4.6900
1256.1500;-40.2700;-35.0400;-5.2300
1256.3500;-40.7400;-34.8700;-5.8700
1256.5490;-41.3100;-34.7200;-6.5900
1256.7480;-41.9700;-34.5700;-7.4000
1256.9470;-42.6700;-34.4200;-8.2500
1257.1460;-43.4400;-34.2700;-9.1700
1257.3450;-44.1900;-34.1000;-10.0900
1257.5440;-44.8300;-33.9600;-10.8700
1257.7430;-45.1900;-33.8100;-11.3800
1257.9430;-45.1000;-33.6500;-11.4500
1258.1420;-44.5900;-33.5100;-11.0800
1258.3410;-43.6900;-33.3400;-10.3500
1258.5400;-42.6200;-33.1900;-9.4300
1258.7390;-41.4700;-33.0300;-8.4400
1258.9380;-40.3500;-32.8700;-7.4800
1259.1370;-39.3100;-32.7300;-6.5800
1259.3360;-38.3400;-32.5600;-5.7800
1259.5350;-37.4600;-32.4200;-5.0400
1259.7350;-36.6700;-32.2700;-4.4000
1259.9340;-35.8400;-32.1100;-3.7300
1260.1330;-35.3400;-31.9700;-3.3700
1260.3320;-34.7900;-31.8100;-2.9800
1260.5310;-34.3400;-31.6800;-2.6600
1260.7300;-33.9300;-31.5300;-2.4000
1260.9290;-33.6000;-31.3800;-2.2200
1261.1280;-33.3400;-31.2500;-2.0900
1261.3270;-33.1500;-31.0900;-2.0600
1261.5270;-33.0500;-30.9700;-2.0800
1261.7260;-32.9800;-30.8200;-2.1600
1261.9250;-33.0000;-30.6800;-2.3200
1262.1240;-33.0900;-30.5500;-2.5400
1262.3230;-33.2400;-30.4000;-2.8400
1262.5220;-33.5000;-30.2700;-3.2300
1262.7210;-33.8000;-30.1300;-3.6700
1262.9200;-34.2100;-29.9800;-4.2300
1263.1200;-34.6900;-29.8500;-4.8400
1263.3190;-35.2700;-29.6900;-5.5800
1263.5180;-35.9600;-29.5600;-6.4000
1263.7170;-36.7100;-29.4100;-7.3000
1263.9160;-37.5600;-29.2600;-8.3000
1264.1150;-38.6100;-29.1300;-9.4800
1264.3140;-39.2400;-28.9600;-10.2800
1264.5130;-39.7700;-28.8300;-10.9400
1264.7120;-39.8500;-28.6800;-11.1700
1264.9120;-39.4000;-28.5300;-10.8700
1265.1110;-38.5000;-28.3900;-10.1100
1265.3100;-37.3800;-28.2300;-9.1500
1265.5090;-36.2000;-28.1000;-8.1000
1265.7080;-34.8800;-27.9500;-6.9300
1265.9070;-33.9800;-27.8100;-6.1700
1266.1060;-33.0300;-27.6800;-5.3500
1266.3050;-32.1800;-27.5400;-4.6400
1266.5040;-31.4200;-27.4200;-4.0000
1266.7040;-30.7700;-27.2900;-3.4800
1266.9030;-30.1800;-27.1600;-3.0200
1267.1020;-29.6900;-27.0400;-2.6500
1267.3010;-29.2900;-26.9100;-2.3800
1267.5000;-28.9600;-26.8000;-2.1600
1267.6990;-28.7100;-26.6800;-2.0300
1267.8980;-28.5200;-26.5600;-1.9600
1268.0970;-28.4100;-26.4600;-1.9500
1268.2970;-28.3800;-26.3300;-2.0500
1268.4960;-28.4100;-26.2300;-2.1800
1268.6950;-28.5100;-26.0800;-2.4300
1268.8940;-28.6700;-25.9900;-2.6800
1269.0930;-28.9100;-25.8800;-3.0300
1269.2920;-29.2300;-25.7500;-3.4800
1269.4910;-29.6200;-25.6500;-3.9700
1269.6900;-30.1100;-25.5100;-4.6000
1269.8890;-30.6600;-25.3900;-5.2700
1270.0890;-31.3000;-25.2600;-6.0400
1270.2880;-32.0200;-25.1300;-6.8900
1270.4870;-32.7900;-25.0300;-7.7600
1270.6860;-33.5500;-24.8900;-8.6600
1270.8850;-34.1600;-24.7600;-9.4000
1271.0840;-34.5400;-24.6300;-9.9100
1271.2830;-34.5100;-24.5100;-10.0000
1271.4820;-34.0500;-24.3900;-9.6600
1271.6810;-33.2700;-24.2600;-9.0100
1271.8810;-32.3000;-24.1500;-8.1500
1272.0800;-31.2900;-24.0300;-7.2600
1272.2790;-30.2900;-23.9100;-6.3800
1272.4780;-29.3600;-23.8200;-5.5400
1272.6770;-28.5300;-23.7000;-4.8300
1272.8760;-27.7700;-23.6100;-4.1600
1273.0750;-27.1000;-23.5000;-3.6000
1273.2740;-26.5100;-23.4000;-3.1100
1273.4740;-25.9300;-23.3200;-2.6100
1273.6730;-25.5700;-23.2100;-2.3600
1273.8720;-25.2100;-23.1300;-2.0800
1274.0710;-24.9200;-23.0300;-1.8900
1274.2700;-24.6700;-22.9300;-1.7400
1274.4690;-24.5100;-22.8500;-1.6600
1274.6680;-24.4000;-22.7500;-1.6500
1274.8670;-24.3500;-22.6600;-1.6900
1275.0660;-24.3800;-22.5600;-1.8200
1275.2660;-24.4500;-22.4700;-1.9800
1275.4650;-24.6100;-22.3800;-2.2300
1275.6640;-24.8200;-22.2700;-2.5500
1275.8630;-25.1100;-22.1800;-2.9300
1276.0620;-25.4900;-22.0700;-3.4200
1276.2610;-25.9400;-21.9700;-3.9700
1276.4600;-26.5000;-21.8700;-4.6300
1276.6590;-27.1200;-21.7500;-5.3700
1276.8580;-27.8500;-21.6600;-6.1900
1277.0580;-28.8300;-21.5400;-7.2900
1277.2570;-29.5700;-21.4500;-8.1200
1277.4560;-30.4700;-21.3500;-9.1200
1277.6550;-31.2800;-21.2400;-10.0400
1277.8540;-31.8600;-21.1600;-10.7000
1278.0530;-31.9900;-21.0500;-10.9400
1278.2520;-31.6300;-20.9600;-10.6700
1278.4510;-30.8700;-20.8700;-10.0000
1278.6500;-29.8800;-20.7700;-9.1100
1278.8500;-28.8200;-20.7000;-8.1200
1279.0490;-27.7700;-20.6000;-7.1700
1279.2480;-26.8100;-20.5200;-6.2900
1279.4470;-25.7800;-20.4400;-5.3400
1279.6460;-25.1300;-20.3500;-4.7800
1279.8450;-24.4100;-20.2800;-4.1300
1280.0440;-23.7900;-20.1900;-3.6000
1280.2430;-23.2400;-20.1300;-3.1100
1280.4430;-22.7600;-20.0400;-2.7200
1280.6420;-22.3500;-19.9700;-2.3800
1280.8410;-21.9900;-19.9000;-2.0900
1281.0400;-21.7000;-19.8200;-1.8800
1281.2390;-21.4700;-19.7500;-1.7200
1281.4380;-21.2900;-19.6700;-1.6200
1281.6370;-21.1700;-19.6000;-1.5700
1281.8360;-21.0800;-19.5300;-1.5500
1282.0350;-21.0600;-19.4500;-1.6100
1282.2350;-21.0800;-19.3900;-1.6900
1282.4340;-21.1400;-19.3000;-1.8400
1282.6330;-21.2600;-19.2400;-2.0200
1282.8320;-21.3800;-19.1700;-2.2100
1283.0310;-21.5500;-19.0900;-2.4600
1283.2300;-21.7300;-19.0200;-2.7100
1283.4290;-21.9200;-18.9400;-2.9800
1283.6280;-22.1400;-18.8700;-3.2700
1283.8270;-22.3100;-18.8000;-3.5100
1284.0270;-22.4700;-18.7200;-3.7500
1284.2260;-22.5900;-18.6600;-3.9300
1284.4250;-22.6400;-18.5800;-4.0600
1284.6240;-22.6400;-18.5100;-4.1300
1284.8230;-22.5400;-18.4300;-4.1100
1285.0220;-22.4000;-18.3600;-4.0400
1285.2210;-22.1700;-18.3000;-3.8700
1285.4200;-21.9000;-18.2200;-3.6800
1285.6200;-21.6100;-18.1600;-3.4500
1285.8190;-21.2700;-18.1000;-3.1700
1286.0180;-20.9500;-18.0300;-2.9200
1286.2170;-20.6100;-17.9800;-2.6300
1286.4160;-20.3000;-17.9100;-2.3900
1286.6150;-20.0300;-17.8800;-2.1500
1286.8140;-19.7600;-17.8200;-1.9400
1287.0130;-19.5400;-17.7600;-1.7800
1287.2120;-19.3400;-17.7200;-1.6200
1287.4120;-19.1900;-17.6600;-1.5300
1287.6110;-19.0900;-17.6300;-1.4600
1287.8100;-19.0200;-17.5700;-1.4500
1288.0090;-19.0100;-17.5200;-1.4900
1288.2080;-19.0200;-17.4800;-1.5400
1288.4070;-19.0800;-17.4300;-1.6500
1288.6060;-19.1900;-17.4000;-1.7900
1288.8050;-19.3200;-17.3400;-1.9800
1289.0040;-19.5100;-17.3000;-2.2100
1289.2040;-19.7000;-17.2500;-2.4500
1289.4030;-19.9300;-17.1900;-2.7400
1289.6020;-20.1700;-17.1600;-3.0100
1289.8010;-20.4100;-17.0900;-3.3200
1290.0000;-20.6500;-17.0400;-3.6100
1290.1990;-20.8300;-16.9900;-3.8400
1290.3980;-20.9800;-16.9300;-4.0500
1290.5970;-21.0800;-16.8900;-4.1900
1290.7970;-21.0900;-16.8200;-4.2700
1290.9960;-21.0100;-16.7600;-4.2500
1291.1950;-20.8400;-16.7000;-4.1400
1291.3940;-20.6100;-16.6400;-3.9700
1291.5930;-20.3100;-16.5800;-3.7300
1291.7920;-19.9700;-16.5200;-3.4500
1291.9910;-19.6300;-16.4800;-3.1500
1292.1900;-19.2700;-16.4200;-2.8500
1292.3890;-18.9300;-16.3800;-2.5500
1292.5890;-18.5800;-16.3300;-2.2500
1292.7880;-18.2800;-16.2800;-2.0000
1292.9870;-18.0200;-16.2500;-1.7700
1293.1860;-17.7900;-16.2100;-1.5800
1293.3850;-17.6200;-16.1800;-1.4400
1293.5840;-17.4700;-16.1400;-1.3300
1293.7830;-17.3800;-16.1200;-1.2600
1293.9820;-17.3500;-16.0900;-1.2600
1294.1810;-17.3700;-16.0700;-1.3000
1294.3810;-17.4500;-16.0600;-1.3900
1294.5800;-17.5600;-16.0200;-1.5400
1294.7790;-17.7600;-16.0100;-1.7500
1294.9780;-18.0200;-15.9800;-2.0400
1295.1770;-18.3400;-15.9600;-2.3800
1295.3760;-18.7500;-15.9400;-2.8100
1295.5750;-19.2000;-15.9000;-3.3000
1295.7740;-19.7700;-15.8900;-3.8800
1295.9740;-20.4000;-15.8400;-4.5600
1296.1730;-21.1500;-15.8200;-5.3300
1296.3720;-22.0100;-15.7900;-6.2200
1296.5710;-22.9500;-15.7400;-7.2100
1296.7700;-24.0100;-15.7200;-8.2900
1296.9690;-25.1000;-15.6800;-9.4200
1297.1680;-26.1400;-15.6500;-10.4900
1297.3670;-26.9200;-15.6100;-11.3100
1297.5660;-27.2000;-15.5600;-11.6400
1297.7660;-26.8800;-15.5400;-11.3400
1297.9650;-26.0600;-15.4900;-10.5700
1298.1640;-24.9900;-15.4600;-9.5300
1298.3630;-23.8500;-15.4300;-8.4200
1298.5620;-22.7500;-15.3800;-7.3700
1298.7610;-21.7700;-15.3600;-6.4100
1298.9600;-20.8800;-15.3300;-5.5500
1299.1590;-20.1100;-15.3200;-4.7900
1299.3580;-19.4200;-15.2900;-4.1300
1299.5580;-18.8200;-15.2600;-3.5600
1299.7570;-18.3300;-15.2500;-3.0800
1299.9560;-17.8900;-15.2400;-2.6500
1300.1550;-17.5400;-15.2400;-2.3000
1300.3540;-17.2500;-15.2200;-2.0300
1300.5530;-17.0200;-15.2100;-1.8100
1300.7520;-16.8600;-15.2100;-1.6500
1300.9510;-16.7600;-15.2000;-1.5600
1301.1500;-16.7400;-15.2200;-1.5200
1301.3500;-16.7500;-15.2100;-1.5400
1301.5490;-16.8500;-15.2200;-1.6300
1301.7480;-16.9800;-15.2200;-1.7600
1301.9470;-17.1800;-15.2200;-1.9600
1302.1460;-17.4600;-15.2400;-2.2200
1302.3450;-17.7800;-15.2300;-2.5500
1302.5440;-18.1900;-15.2500;-2.9400
1302.7430;-18.6600;-15.2400;-3.4200
1302.9430;-19.2100;-15.2400;-3.9700
1303.1420;-19.8700;-15.2600;-4.6100
1303.3410;-20.6000;-15.2500;-5.3500
1303.5400;-21.4700;-15.2700;-6.2000
1303.7390;-22.4400;-15.2500;-7.1900
1303.9380;-23.5600;-15.2600;-8.3000
1304.1370;-24.8600;-15.2700;-9.5900
1304.3360;-26.3200;-15.2700;-11.0500
1304.5350;-27.9800;-15.2800;-12.7000
1304.7350;-30.0500;-15.2700;-14.7800
1304.9340;-31.1700;-15.2800;-15.8900
1305.1330;-31.7500;-15.2800;-16.4700
1305.3320;-31.1700;-15.2800;-15.8900
1305.5310;-29.8600;-15.3100;-14.5500
1305.7300;-28.3500;-15.3000;-13.0500
1305.9290;-26.9500;-15.3100;-11.6400
1306.1280;-25.5200;-15.3200;-10.2000
1306.3270;-24.6500;-15.3300;-9.3200
1306.5270;-23.7600;-15.3600;-8.4000
1306.7260;-22.9900;-15.3700;-7.6200
1306.9250;-22.3400;-15.3900;-6.9500
1307.1240;-21.7700;-15.4000;-6.3700
1307.3230;-21.3000;-15.4200;-5.8800
1307.5220;-20.9100;-15.4600;-5.4500
1307.7210;-20.5600;-15.4700;-5.0900
1307.9200;-20.2800;-15.4900;-4.7900
1308.1200;-20.0400;-15.5200;-4.5200
1308.3190;-19.8400;-15.5400;-4.3000
1308.5180;-19.6800;-15.5700;-4.1100
1308.7170;-19.5300;-15.5900;-3.9400
1308.9160;-19.4100;-15.6200;-3.7900
1309.1150;-19.3000;-15.6400;-3.6600
1309.3140;-19.2100;-15.6700;-3.5400
1309.5130;-19.1200;-15.7000;-3.4200
1309.7120;-19.0300;-15.7100;-3.3200
1309.9120;-18.9500;-15.7500;-3.2000
1310.1110;-18.8700;-15.7700;-3.1000
1310.3100;-18.7900;-15.8000;-2.9900
1310.5090;-18.7100;-15.8200;-2.8900
1310.7080;-18.6300;-15.8400;-2.7900
1310.9070;-18.5700;-15.8800;-2.6900
1311.1060;-18.5200;-15.9100;-2.6100
1311.3050;-18.4800;-15.9400;-2.5400
1311.5040;-18.4500;-15.9800;-2.4700
1311.7040;-18.4500;-16.0100;-2.4400
1311.9030;-18.4700;-16.0500;-2.4200
1312.1020;-18.5200;-16.0800;-2.4400
1312.3010;-18.6100;-16.1400;-2.4700
1312.5000;-18.7300;-16.1800;-2.5500
1312.6990;-18.8900;-16.2300;-2.6600
1312.8980;-19.0800;-16.2700;-2.8100
1313.0970;-19.3300;-16.3200;-3.0100
1313.2970;-19.6400;-16.3800;-3.2600
1313.4960;-20.0100;-16.4400;-3.5700
1313.6950;-20.4400;-16.5000;-3.9400
1313.8940;-20.9200;-16.5400;-4.3800
1314.0930;-21.5000;-16.6100;-4.8900
1314.2920;-22.1500;-16.6700;-5.4800
1314.4910;-22.9000;-16.7300;-6.1700
1314.6900;-23.7500;-16.8000;-6.9500
1314.8890;-24.6900;-16.8400;-7.8500
1315.0890;-25.7600;-16.9000;-8.8600
1315.2880;-26.9000;-16.9500;-9.9500
1315.4870;-28.0800;-17.0100;-11.0700
1315.6860;-29.3500;-17.0800;-12.2700
1315.8850;-29.8700;-17.1200;-12.7500
1316.0840;-29.9800;-17.1800;-12.8000
1316.2830;-29.4500;-17.2300;-12.2200
1316.4820;-28.5300;-17.2900;-11.2400
1316.6810;-27.4000;-17.3500;-10.0500
1316.8810;-26.1200;-17.4000;-8.7200
1317.0800;-25.2700;-17.4900;-7.7800
1317.2790;-24.3600;-17.5300;-6.8300
1317.4780;-23.5500;-17.6100;-5.9400
1317.6770;-22.8300;-17.6700;-5.1600
1317.8760;-22.2300;-17.7300;-4.5000
1318.0750;-21.7000;-17.8000;-3.9000
1318.2740;-21.2800;-17.8600;-3.4200
1318.4740;-20.9100;-17.9400;-2.9700
1318.6730;-20.6400;-18.0200;-2.6200
1318.8720;-20.4300;-18.0900;-2.3400
1319.0710;-20.2800;-18.1800;-2.1000
1319.2700;-20.2000;-18.2500;-1.9500
1319.4690;-20.1600;-18.3500;-1.8100
1319.6680;-20.2000;-18.4300;-1.7700
1319.8670;-20.2900;-18.5500;-1.7400
1320.0660;-20.4300;-18.6100;-1.8200
1320.2660;-20.6400;-18.7100;-1.9300
1320.4650;-20.8900;-18.8000;-2.0900
1320.6640;-21.2200;-18.9000;-2.3200
1320.8630;-21.5800;-18.9900;-2.5900
1321.0620;-22.0000;-19.0800;-2.9200
1321.2610;-22.4700;-19.1900;-3.2800
1321.4600;-22.9900;-19.2700;-3.7200
1321.6590;-23.5500;-19.3700;-4.1800
1321.8580;-24.1200;-19.4700;-4.6500
1322.0580;-24.7200;-19.5600;-5.1600
1322.2570;-25.3000;-19.6700;-5.6300
1322.4560;-25.8200;-19.7500;-6.0700
1322.6550;-26.2600;-19.8500;-6.4100
1322.8540;-26.5500;-19.9500;-6.6000
1323.0530;-26.7000;-20.0500;-6.6500
1323.2520;-26.6700;-20.1700;-6.5000
1323.4510;-26.5000;-20.2600;-6.2400
1323.6500;-26.2300;-20.3700;-5.8600
1323.8500;-25.8700;-20.4700;-5.4000
1324.0490;-25.5000;-20.5800;-4.9200
1324.2480;-25.1000;-20.7000;-4.4000
1324.4470;-24.7300;-20.8000;-3.9300
1324.6460;-24.4100;-20.9200;-3.4900
1324.8450;-24.1100;-21.0300;-3.0800
1325.0440;-23.8800;-21.1500;-2.7300
1325.2430;-23.6900;-21.2800;-2.4100
1325.4430;-23.5700;-21.4000;-2.1700
1325.6420;-23.5000;-21.5500;-1.9500
1325.8410;-23.4800;-21.6700;-1.8100
1326.0400;-23.5300;-21.8000;-1.7300
1326.2390;-23.6200;-21.9400;-1.6800
1326.4380;-23.7800;-22.0700;-1.7100
1326.6370;-23.9900;-22.2200;-1.7700
1326.8360;-24.2600;-22.3400;-1.9200
1327.0350;-24.6100;-22.4800;-2.1300
1327.2350;-25.0000;-22.6200;-2.3800
1327.4340;-25.4700;-22.7500;-2.7200
1327.6330;-25.9900;-22.9000;-3.0900
1327.8320;-26.5800;-23.0200;-3.5600
1328.0310;-27.2400;-23.1700;-4.0700
1328.2300;-27.9700;-23.3000;-4.6700
1328.4290;-28.9300;-23.4400;-5.4900
1328.6280;-29.6100;-23.5800;-6.0300
1328.8270;-30.4700;-23.7100;-6.7600
1329.0270;-31.3200;-23.8600;-7.4600
1329.2260;-32.0900;-23.9800;-8.1100
1329.4250;-32.7000;-24.1200;-8.5800
1329.6240;-33.0800;-24.2500;-8.8300
1329.8230;-33.1900;-24.3800;-8.8100
1330.0220;-33.0100;-24.5300;-8.4800
1330.2210;-32.6400;-24.6600;-7.9800
1330.4200;-32.1400;-24.8000;-7.3400
1330.6200;-31.5900;-24.9300;-6.6600
1330.8190;-31.0500;-25.0800;-5.9700
1331.0180;-30.5400;-25.2300;-5.3100
1331.2170;-30.1100;-25.3800;-4.7300
1331.4160;-29.7100;-25.5400;-4.1700
1331.6150;-29.4000;-25.6800;-3.7200
1331.8140;-29.1500;-25.8400;-3.3100
1332.0130;-28.9700;-26.0000;-2.9700
1332.2120;-28.8600;-26.1500;-2.7100
1332.4120;-28.8100;-26.3300;-2.4800
1332.6110;-28.8400;-26.4900;-2.3500
1332.8100;-28.9100;-26.6600;-2.2500
1333.0090;-29.0400;-26.8200;-2.2200
1333.2080;-29.2400;-26.9900;-2.2500
1333.4070;-29.4800;-27.1600;-2.3200
1333.6060;-29.8000;-27.3300;-2.4700
1333.8050;-30.1500;-27.5100;-2.6400
1334.0040;-30.5700;-27.6600;-2.9100
1334.2040;-31.0400;-27.8400;-3.2000
1334.4030;-31.5400;-28.0100;-3.5300
1334.6020;-32.1000;-28.1600;-3.9400
1334.8010;-32.6600;-28.3400;-4.3200
1335.0000;-33.2600;-28.5400;-4.7200
1335.1990;-33.8500;-28.6800;-5.1700
1335.3980;-34.4100;-28.8300;-5.5800
1335.5970;-34.9000;-29.0100;-5.8900
1335.7970;-35.3100;-29.1700;-6.1400
1335.9960;-35.6100;-29.3400;-6.2700
1336.1950;-35.7500;-29.5100;-6.2400
1336.3940;-35.7600;-29.6700;-6.0900
1336.5930;-35.6600;-29.8500;-5.8100
1336.7920;-35.4600;-30.0000;-5.4600
1336.9910;-35.2300;-30.1700;-5.0600
1337.1900;-34.9600;-30.3400;-4.6200
1337.3890;-34.7100;-30.5100;-4.2000
1337.5890;-34.4600;-30.6900;-3.7700
1337.7880;-34.2500;-30.8600;-3.3900
1337.9870;-34.0900;-31.0500;-3.0400
1338.1860;-33.9600;-31.2100;-2.7500
1338.3850;-33.8900;-31.3900;-2.5000
1338.5840;-33.8500;-31.5800;-2.2700
1338.7830;-33.8800;-31.7500;-2.1300
1338.9820;-33.9500;-31.9500;-2.0000
1339.1810;-34.0800;-32.1300;-1.9500
1339.3810;-34.2700;-32.3200;-1.9500
1339.5800;-34.4900;-32.5000;-1.9900
1339.7790;-34.7700;-32.6800;-2.0900
1339.9780;-35.1000;-32.8800;-2.2200
1340.1770;-35.4800;-33.0600;-2.4200
1340.3760;-35.9200;-33.2700;-2.6500
1340.5750;-36.3800;-33.4500;-2.9300
1340.7740;-36.8900;-33.6400;-3.2500
1340.9740;-37.3900;-33.8200;-3.5700
1341.1730;-37.9300;-34.0000;-3.9300
1341.3720;-38.5900;-34.1900;-4.4000
1341.5710;-39.0100;-34.3700;-4.6400
1341.7700;-39.4800;-34.5600;-4.9200
1341.9690;-39.8900;-34.7400;-5.1500
1342.1680;-40.2200;-34.9100;-5.3100
1342.3670;-40.4200;-35.0900;-5.3300
1342.5660;-40.5300;-35.2700;-5.2600
1342.7660;-40.5300;-35.4600;-5.0700
1342.9650;-40.4400;-35.6300;-4.8100
1343.1640;-40.3000;-35.8100;-4.4900
1343.3630;-40.1100;-35.9900;-4.1200
1343.5620;-39.9300;-36.1600;-3.7700
1343.7610;-39.7400;-36.3600;-3.3800
1343.9600;-39.5800;-36.5400;-3.0400
1344.1590;-39.4600;-36.7300;-2.7300
1344.3580;-39.3600;-36.9100;-2.4500
1344.5580;-39.3300;-37.1000;-2.2300
1344.7570;-39.3200;-37.3000;-2.0200
1344.9560;-39.3600;-37.4700;-1.8900
1345.1550;-39.4600;-37.6600;-1.8000
1345.3540;-39.6100;-37.8300;-1.7800
1345.5530;-39.8300;-38.0200;-1.8100
1345.7520;-40.0900;-38.2100;-1.8800
1345.9510;-40.4400;-38.3900;-2.0500
1346.1500;-40.8300;-38.6300;-2.2000
1346.3500;-41.3000;-38.7900;-2.5100
1346.5490;-41.8600;-39.0000;-2.8600
1346.7480;-42.4700;-39.1800;-3.2900
1346.9470;-43.1800;-39.3700;-3.8100
1347.1460;-43.9700;-39.5500;-4.4200
1347.3450;-44.8600;-39.7200;-5.1400
1347.5440;-45.9200;-39.9500;-5.9700
1347.7430;-47.1100;-40.1800;-6.9300
1347.9430;-48.7900;-40.4000;-8.3900
1348.1420;-50.0200;-40.5700;-9.4500
1348.3410;-51.7500;-40.7600;-10.9900
1348.5400;-53.5500;-40.9100;-12.6400
1348.7390;-55.3100;-41.0700;-14.2400
1348.9380;-56.4800;-41.2400;-15.2400
1349.1370;-56.4500;-41.3900;-15.0600
1349.3360;-55.4000;-41.5500;-13.8500
1349.5350;-53.9600;-41.7100;-12.2500
1349.7350;-52.5800;-41.8600;-10.7200
1349.9340;-51.3800;-42.0500;-9.3300
1350.1330;-50.4000;-42.2300;-8.1700
1350.3320;-49.6600;-42.4800;-7.1800
1350.5310;-48.9800;-42.6800;-6.3000
1350.7300;-48.4200;-42.8500;-5.5700
1350.9290;-47.9300;-43.0100;-4.9200
1351.1280;-47.5700;-43.1300;-4.4400
1351.3270;-47.3300;-43.3000;-4.0300
1351.5270;-47.2000;-43.4800;-3.7200
1351.7260;-47.2300;-43.7100;-3.5200
1351.9250;-47.2700;-43.9100;-3.3600
1352.1240;-47.3900;-44.0800;-3.3100
1352.3230;-47.5900;-44.2800;-3.3100
1352.5220;-47.8900;-44.4800;-3.4100
1352.7210;-48.2400;-44.6600;-3.5800
1352.9200;-48.6700;-44.8100;-3.8600
1353.1200;-49.3000;-45.0800;-4.2200
1353.3190;-49.8600;-45.2000;-4.6600
1353.5180;-50.6000;-45.3800;-5.2200
1353.7170;-51.4800;-45.5800;-5.9000
1353.9160;-52.4000;-45.6800;-6.7200
1354.1150;-53.5300;-45.8500;-7.6800
1354.3140;-54.8900;-46.0700;-8.8200
1354.5130;-56.4300;-46.2700;-10.1600
1354.7120;-58.2500;-46.5900;-11.6600
1354.9120;-60.8000;-46.8600;-13.9400
1355.1110;-62.0900;-47.0600;-15.0300
1355.3100;-62.8500;-47.1600;-15.6900
1355.5090;-62.0800;-47.1700;-14.9100
1355.7080;-60.8700;-47.4200;-13.4500
1355.9070;-59.3400;-47.6900;-11.6500
1356.1060;-57.6900;-47.8500;-9.8400
1356.3050;-55.9800;-47.9300;-8.0500
1356.5040;-55.0700;-48.0300;-7.0400
1356.7040;-54.0600;-47.9300;-6.1300
1356.9030;-53.3400;-48.0800;-5.2600
1357.1020;-53.0000;-48.5100;-4.4900
1357.3010;-52.5500;-48.6600;-3.8900
1357.5000;-52.1400;-48.8300;-3.3100
1357.6990;-51.8600;-49.0000;-2.8600
1357.8980;-51.5600;-49.0700;-2.4900
1358.0970;-51.3400;-49.1200;-2.2200
1358.2970;-51.3100;-49.3000;-2.0100
1358.4960;-51.4000;-49.5200;-1.8800
1358.6950;-51.4800;-49.6600;-1.8200
1358.8940;-51.6300;-49.8200;-1.8100
1359.0930;-51.8600;-49.9700;-1.8900
1359.2920;-52.0500;-50.0300;-2.0200
1359.4910;-52.6000;-50.3900;-2.2100
1359.6900;-53.1900;-50.7000;-2.4900
1359.8890;-53.8000;-50.9000;-2.9000
1360.0890;-54.3900;-50.9500;-3.4400
1360.2880;-54.9900;-51.0100;-3.9800
1360.4870;-55.6300;-50.9900;-4.6400
1360.6860;-56.5600;-51.1700;-5.3900
1360.8850;-57.8200;-51.5100;-6.3100
1361.0840;-59.5600;-51.8000;-7.7600
1361.2830;-60.8400;-51.9900;-8.8500
1361.4820;-62.7300;-52.1300;-10.6000
1361.6810;-64.5000;-52.3600;-12.1400
1361.8810;-66.2200;-52.4800;-13.7400
1362.0800;-67.4500;-52.7100;-14.7400
1362.2790;-67.6600;-53.1200;-14.5400
1362.4780;-66.4300;-53.3500;-13.0800
1362.6770;-64.5200;-53.4900;-11.0300
1362.8760;-62.7700;-53.3600;-9.4100
1363.0750;-61.2800;-53.3200;-7.9600
1363.2740;-59.9800;-53.0700;-6.9100
1363.4740;-59.0600;-53.1500;-5.9100
1363.6730;-58.3000;-53.2300;-5.0700
1363.8720;-57.7100;-53.3700;-4.3400
1364.0710;-57.3200;-53.5900;-3.7300
1364.2700;-57.0200;-53.7800;-3.2400
1364.4690;-56.9100;-54.0900;-2.8200
1364.6680;-57.1300;-54.5900;-2.5400
1364.8670;-57.1000;-54.8200;-2.2800
1365.0660;-56.9000;-54.8100;-2.0900
1365.2660;-56.9900;-54.9800;-2.0100
1365.4650;-56.9100;-54.9400;-1.9700
1365.6640;-57.0700;-55.0100;-2.0600
1365.8630;-57.2600;-55.0800;-2.1800
1366.0620;-57.4800;-55.0800;-2.4000
1366.2610;-57.7600;-55.1000;-2.6600
1366.4600;-58.1900;-55.1900;-3.0000
1366.6590;-58.8000;-55.3600;-3.4400
1366.8580;-59.5700;-55.6300;-3.9400
1367.0580;-60.4100;-55.7800;-4.6300
1367.2570;-61.2700;-55.9100;-5.3600
1367.4560;-62.4000;-56.1700;-6.2300
1367.6550;-63.5500;-56.3800;-7.1700
1367.8540;-64.9700;-56.6800;-8.2900
1368.0530;-66.5700;-56.8000;-9.7700
1368.2520;-68.0600;-56.8100;-11.2500
1368.4510;-69.7000;-57.1300;-12.5700
1368.6500;-70.7000;-57.2400;-13.4600
1368.8500;-71.1500;-57.3800;-13.7700
1369.0490;-70.5300;-57.3500;-13.1800
1369.2480;-69.3100;-57.3400;-11.9700
1369.4470;-67.9200;-57.2800;-10.6400
1369.6460;-66.6900;-57.4000;-9.2900
1369.8450;-65.9500;-57.7300;-8.2200
1370.0440;-65.0700;-57.9200;-7.1500
1370.2430;-64.2800;-58.0800;-6.2000
1370.4430;-63.5800;-58.1300;-5.4500
1370.6420;-62.9900;-58.1900;-4.8000
1370.8410;-62.8500;-58.6200;-4.2300
1371.0400;-62.6900;-58.8100;-3.8800
1371.2390;-62.4700;-58.9800;-3.4900
1371.4380;-62.1600;-59.0300;-3.1300
1371.6370;-61.9500;-59.0200;-2.9300
1371.8360;-61.8300;-59.0300;-2.8000
1372.0350;-62.0000;-59.2400;-2.7600
1372.2350;-62.2200;-59.4500;-2.7700
1372.4340;-62.3600;-59.5800;-2.7800
1372.6330;-62.6000;-59.7100;-2.8900
1372.8320;-62.9000;-59.7700;-3.1300
1373.0310;-63.2000;-59.8200;-3.3800
1373.2300;-63.6500;-59.9800;-3.6700
1373.4290;-64.1700;-60.1800;-3.9900
1373.6280;-64.7700;-60.3000;-4.4700
1373.8270;-65.3800;-60.4400;-4.9400
1374.0270;-66.0800;-60.5500;-5.5300
1374.2260;-66.8000;-60.6800;-6.1200
1374.4250;-67.6700;-60.8800;-6.7900
1374.6240;-68.3900;-61.0400;-7.3500
1374.8230;-69.2900;-61.2800;-8.0100
1375.0220;-70.2000;-61.4500;-8.7500
1375.2210;-70.7100;-61.5800;-9.1300
1375.4200;-71.0400;-61.6900;-9.3500
1375.6200;-71.1500;-61.7900;-9.3600
1375.8190;-71.0600;-61.9200;-9.1400
1376.0180;-70.7400;-62.1300;-8.6100
1376.2170;-70.4300;-62.2900;-8.1400
1376.4160;-69.9600;-62.4300;-7.5300
1376.6150;-69.5800;-62.5700;-7.0100
1376.8140;-69.1200;-62.7600;-6.3600
1377.0130;-68.9900;-63.0000;-5.9900
1377.2120;-68.7500;-63.2300;-5.5200
1377.4120;-68.4300;-63.3200;-5.1100
1377.6110;-68.1500;-63.4600;-4.6900
1377.8100;-67.9200;-63.4800;-4.4400
1378.0090;-67.7500;-63.5200;-4.2300
1378.2080;-67.7300;-63.7000;-4.0300
1378.4070;-67.8400;-63.8900;-3.9500
1378.6060;-68.1600;-64.1800;-3.9800
1378.8050;-68.4300;-64.4700;-3.9600
1379.0040;-68.7000;-64.7000;-4.0000
1379.2040;-68.8800;-64.8500;-4.0300
1379.4030;-68.9800;-64.7900;-4.1900
1379.6020;-69.2900;-64.8000;-4.4900
1379.8010;-69.8800;-64.8500;-5.0300
1380.0000;-70.3500;-65.1000;-5.2500
1380.1990;-70.8900;-65.3400;-5.5500
1380.3980;-71.3800;-65.5600;-5.8200
1380.5970;-72.4700;-66.0700;-6.4000
1380.7970;-73.5000;-66.5800;-6.9200
1380.9960;-74.2400;-66.7200;-7.5200
1381.1950;-74.8200;-66.7100;-8.1100
1381.3940;-74.9400;-66.5200;-8.4200
1381.5930;-74.7400;-66.3200;-8.4200
1381.7920;-74.8800;-66.3800;-8.5000
1381.9910;-74.7600;-66.3600;-8.4000
1382.1900;-74.8700;-66.5100;-8.3600
1382.3890;-75.0800;-66.8700;-8.2100
1382.5890;-75.1500;-67.4100;-7.7400
1382.7880;-75.2900;-67.8600;-7.4300
1382.9870;-75.3600;-68.0900;-7.2700
1383.1860;-74.4700;-67.9400;-6.5300
1383.3850;-73.2200;-67.6000;-5.6200
1383.5840;-73.2300;-67.4500;-5.7800
1383.7830;-72.8100;-67.7100;-5.1000
1383.9820;-72.8300;-67.7800;-5.0500
1384.1810;-72.5300;-67.8100;-4.7200
1384.3810;-72.4100;-67.9300;-4.4800
1384.5800;-72.2000;-67.8100;-4.3900
1384.7790;-72.1800;-67.9700;-4.2100
1384.9780;-72.4200;-68.2800;-4.1400
1385.1770;-72.5700;-68.6200;-3.9500
1385.3760;-72.8400;-68.6300;-4.2100
1385.5750;-72.5800;-68.5100;-4.0700
1385.7740;-72.6800;-68.5700;-4.1100
1385.9740;-73.0100;-68.6500;-4.3600
1386.1730;-73.0400;-68.7400;-4.3000
1386.3720;-73.9200;-68.8400;-5.0800
1386.5710;-74.0200;-68.9800;-5.0400
1386.7700;-74.1400;-69.0500;-5.0900
1386.9690;-74.4400;-68.9900;-5.4500
1387.1680;-74.6200;-69.0500;-5.5700
1387.3670;-74.9000;-69.0700;-5.8300
1387.5660;-74.7600;-69.2200;-5.5400
1387.7660;-75.8500;-69.4900;-6.3600
1387.9650;-75.6900;-69.7600;-5.9300
1388.1640;-76.5300;-69.9600;-6.5700
1388.3630;-76.6500;-70.0600;-6.5900
1388.5620;-76.6900;-70.2400;-6.4500
1388.7610;-75.6600;-69.9400;-5.7200
1388.9600;-75.4300;-70.0200;-5.4100
1389.1590;-76.1500;-69.8400;-6.3100
1389.3580;-75.5900;-69.9300;-5.6600
1389.5580;-75.3200;-70.0100;-5.3100
1389.7570;-74.7700;-70.1500;-4.6200
1389.9560;-75.3700;-70.3000;-5.0700
1390.1550;-75.5600;-70.2500;-5.3100
1390.3540;-75.8200;-70.3600;-5.4600
1390.5530;-75.8900;-70.3900;-5.5000
1390.7520;-76.0700;-70.4600;-5.6100
1390.9510;-76.1200;-70.6800;-5.4400
1391.1500;-75.6600;-70.8500;-4.8100
1391.3500;-75.7900;-70.7800;-5.0100
1391.5490;-76.0200;-70.9100;-5.1100
1391.7480;-75.9500;-70.9300;-5.0200
1391.9470;-77.0700;-70.9200;-6.1500
1392.1460;-77.3500;-71.3600;-5.9900
1392.3450;-77.6900;-71.4700;-6.2200
1392.5440;-78.6400;-71.9400;-6.7000
1392.7430;-79.3300;-72.0600;-7.2700
1392.9430;-79.5000;-72.1400;-7.3600
1393.1420;-78.8100;-71.9400;-6.8700
1393.3410;-78.9600;-71.5800;-7.3800
1393.5400;-79.4600;-71.5500;-7.9100
1393.7390;-79.9200;-71.6200;-8.3000
1393.9380;-79.4600;-71.8500;-7.6100
1394.1370;-79.8500;-71.8300;-8.0200
1394.3360;-81.2800;-72.0400;-9.2400
1394.5350;-80.0800;-72.0500;-8.0300
1394.7350;-80.8800;-72.1200;-8.7600
1394.9340;-80.2800;-72.3700;-7.9100
1395.1330;-80.2800;-72.7900;-7.4900
1395.3320;-79.1100;-72.8000;-6.3100
1395.5310;-78.4700;-72.9900;-5.4800
1395.7300;-78.7800;-72.8700;-5.9100
1395.9290;-78.5300;-73.2600;-5.2700
1396.1280;-78.6900;-72.8800;-5.8100
1396.3270;-79.6700;-73.0700;-6.6000
1396.5270;-77.9400;-73.3100;-4.6300
1396.7260;-78.2100;-73.4800;-4.7300
1396.9250;-78.2900;-73.4800;-4.8100
1397.1240;-77.4900;-73.5800;-3.9100
1397.3230;-77.0700;-73.2300;-3.8400
1397.5220;-76.4900;-73.0300;-3.4600
1397.7210;-76.9900;-73.1700;-3.8200
1397.9200;-76.9100;-73.5500;-3.3600
1398.1200;-76.3200;-73.6700;-2.6500
1398.3190;-77.1100;-73.5200;-3.5900
1398.5180;-77.2300;-73.5900;-3.6400
1398.7170;-77.6300;-73.8200;-3.8100
1398.9160;-77.7500;-73.6100;-4.1400
1399.1150;-76.4100;-73.6400;-2.7700
1399.3140;-77.1600;-73.7900;-3.3700
1399.5130;-76.9600;-74.4200;-2.5400
1399.7120;-76.8300;-74.1900;-2.6400
1399.9120;-76.6200;-74.2200;-2.4000
1400.1110;-77.2800;-74.6900;-2.5900
1400.3100;-77.4400;-74.5900;-2.8500
1400.5090;-77.2100;-74.6700;-2.5400
1400.7080;-77.8600;-75.0900;-2.7700
1400.9070;-78.5400;-75.0900;-3.4500
1401.1060;-78.6200;-74.8500;-3.7700
1401.3050;-78.8800;-74.9200;-3.9600
1401.5040;-77.4000;-74.6700;-2.7300
1401.7040;-77.6800;-74.9200;-2.7600
1401.9030;-77.7000;-74.9000;-2.8000
1402.1020;-77.8100;-75.2600;-2.5500
1402.3010;-77.9100;-75.0600;-2.8500
1402.5000;-78.3500;-74.9400;-3.4100
1402.6990;-78.3800;-74.9700;-3.4100
1402.8980;-79.3400;-75.1500;-4.1900
1403.0970;-78.2500;-74.8000;-3.4500
1403.2970;-78.7600;-75.5000;-3.2600
1403.4960;-78.3800;-75.3700;-3.0100
1403.6950;-80.2500;-75.3200;-4.9300
1403.8940;-79.5100;-75.5300;-3.9800
1404.0930;-79.5100;-75.3200;-4.1900
1404.2920;-80.7600;-75.3000;-5.4600
1404.4910;-79.4100;-75.9000;-3.5100
1404.6900;-81.7700;-75.7700;-6.0000
1404.8890;-80.3700;-76.4800;-3.8900
1405.0890;-80.6700;-76.1200;-4.5500
1405.2880;-81.0900;-75.9300;-5.1600
1405.4870;-80.1300;-76.3600;-3.7700
1405.6860;-82.1300;-75.3900;-6.7400
1405.8850;-81.0400;-76.2300;-4.8100
1406.0840;-80.8500;-75.9000;-4.9500
1406.2830;-82.0700;-75.9000;-6.1700
1406.4820;-80.6700;-75.9900;-4.6800
1406.6810;-82.0200;-75.3900;-6.6300
1406.8810;-81.3500;-75.9200;-5.4300
1407.0800;-81.6700;-75.9700;-5.7000
1407.2790;-81.1000;-76.2000;-4.9000
1407.4780;-79.7300;-75.9700;-3.7600
1407.6770;-81.6700;-76.2100;-5.4600
1407.8760;-81.0000;-76.4900;-4.5100
1408.0750;-82.0200;-76.1600;-5.8600
1408.2740;-81.1400;-76.8600;-4.2800
1408.4740;-82.0200;-76.0000;-6.0200
1408.6730;-81.2400;-76.9300;-4.3100
1408.8720;-82.4600;-76.5100;-5.9500
1409.0710;-81.1400;-76.5100;-4.6300
1409.2700;-80.3000;-76.3400;-3.9600
1409.4690;-80.7700;-77.5400;-3.2300
1409.6680;-79.9100;-76.7900;-3.1200
1409.8670;-82.8100;-76.6100;-6.2000
1410.0660;-81.3500;-76.2800;-5.0700
1410.2660;-81.9000;-75.8500;-6.0500
1410.4650;-79.4500;-76.0300;-3.4200
1410.6640;-81.3500;-76.1800;-5.1700
1410.8630;-80.4200;-76.3100;-4.1100
1411.0620;-83.0300;-76.4200;-6.6100
1411.2610;-79.9400;-76.4100;-3.5300
1411.4600;-82.0200;-76.4400;-5.5800
1411.6590;-79.9100;-76.4700;-3.4400
1411.8580;-80.1800;-76.4700;-3.7100
1412.0580;-80.9500;-76.5100;-4.4400
1412.2570;-79.8700;-76.1300;-3.7400
1412.4560;-80.6800;-76.0900;-4.5900
1412.6550;-80.2200;-76.5900;-3.6300
1412.8540;-81.3000;-76.2600;-5.0400
1413.0530;-79.4500;-75.9200;-3.5300
1413.2520;-80.5900;-76.9700;-3.6200
1413.4510;-80.2200;-76.3400;-3.8800
1413.6500;-81.5100;-75.9500;-5.5600
1413.8500;-81.4600;-76.1000;-5.3600
1414.0490;-79.6300;-77.2100;-2.4200
1414.2480;-81.3600;-76.9300;-4.4300
1414.4470;-80.8700;-76.8300;-4.0400
1414.6460;-81.2500;-76.5000;-4.7500
1414.8450;-79.9900;-76.9400;-3.0500
1415.0440;-81.1100;-76.7100;-4.4000
1415.2430;-81.4600;-76.1700;-5.2900
1415.4430;-80.1500;-76.6000;-3.5500
1415.6420;-79.9200;-76.2100;-3.7100
1415.8410;-80.7800;-76.0800;-4.7000
1416.0400;-81.9700;-75.8900;-6.0800
1416.2390;-81.0600;-76.2200;-4.8400
1416.4380;-79.9200;-76.0500;-3.8700
1416.6370;-79.1100;-76.5200;-2.5900
1416.8360;-81.3600;-76.4200;-4.9400
1417.0350;-80.6900;-76.5200;-4.1700
1417.2350;-80.5100;-75.9800;-4.5300
1417.4340;-82.9700;-76.0500;-6.9200
1417.6330;-79.0800;-76.3500;-2.7300
1417.8320;-79.8100;-76.5200;-3.2900
1418.0310;-80.8700;-76.6200;-4.2500
1418.2300;-78.8400;-76.3500;-2.4900
1418.4290;-79.4900;-75.6300;-3.8600
1418.6280;-80.2700;-75.9500;-4.3200
1418.8270;-81.0100;-76.1600;-4.8500
1419.0270;-80.9600;-76.5200;-4.4400
1419.2260;-79.6300;-76.7600;-2.8700
1419.4250;-80.1900;-76.3500;-3.8400
1419.6240;-79.5300;-76.8900;-2.6400
1419.8230;-79.9500;-76.0100;-3.9400
1420.0220;-80.7800;-75.6200;-5.1600
1420.2210;-80.3100;-76.1000;-4.2100
1420.4200;-79.3000;-75.8400;-3.4600
1420.6200;-80.2300;-75.9500;-4.2800
1420.8190;-79.4300;-76.0800;-3.3500
1421.0180;-80.3500;-75.5100;-4.8400
1421.2170;-80.2700;-75.8300;-4.4400
1421.4160;-79.9500;-75.6400;-4.3100
1421.6150;-79.9300;-76.0500;-3.8800
1421.8140;-80.9700;-76.0200;-4.9500
1422.0130;-78.2800;-75.8100;-2.4700
1422.2120;-79.0000;-76.1400;-2.8600
1422.4120;-78.7600;-76.0800;-2.6800
1422.6110;-80.1200;-76.2000;-3.9200
1422.8100;-78.2500;-75.8100;-2.4400
1423.0090;-80.4000;-76.1800;-4.2200
1423.2080;-79.4000;-75.7800;-3.6200
1423.4070;-80.3600;-76.0200;-4.3400
1423.6060;-79.2100;-76.6300;-2.5800
1423.8050;-78.9100;-75.9600;-2.9500
1424.0040;-79.7500;-75.4900;-4.2600
1424.2040;-79.0000;-75.3300;-3.6700
1424.4030;-79.9600;-75.4500;-4.5100
1424.6020;-79.7500;-75.5000;-4.2500
1424.8010;-79.9600;-75.6300;-4.3300
1425.0000;-80.9700;-76.0500;-4.9200
