Wavelength;Intensity_Meas;Intensity_Ref;Difference_dB
1200.0000;-62.1700;-57.0700;-5.1000
1200.1990;-62.1800;-57.0400;-5.1400
1200.3980;-62.0900;-57.0000;-5.0900
1200.5970;-62.0200;-56.9900;-5.0300
1200.7970;-61.9500;-56.9700;-4.9800
1200.9960;-61.9300;-56.9200;-5.0100
1201.1950;-61.9200;-56.8900;-5.0300
1201.3940;-61.8300;-56.8600;-4.9700
1201.5930;-61.7900;-56.8100;-4.9800
1201.7920;-61.7600;-56.7700;-4.9900
1201.9910;-61.7600;-56.7100;-5.0500
1202.1900;-61.6900;-56.6600;-5.0300
1202.3890;-61.6400;-56.6200;-5.0200
1202.5890;-61.6400;-56.5700;-5.0700
1202.7880;-61.6500;-56.5200;-5.1300
1202.9870;-61.6000;-56.4600;-5.1400
1203.1860;-61.5900;-56.4100;-5.1800
1203.3850;-61.5100;-56.3700;-5.1400
1203.5840;-61.5200;-56.3200;-5.2000
1203.7830;-61.5600;-56.2800;-5.2800
1203.9820;-61.5000;-56.2400;-5.2600
1204.1810;-61.4400;-56.1900;-5.2500
1204.3810;-61.4400;-56.1700;-5.2700
1204.5800;-61.4500;-56.1300;-5.3200
1204.7790;-61.4000;-56.0900;-5.3100
1204.9780;-61.3600;-56.0600;-5.3000
1205.1770;-61.3200;-56.0400;-5.2800
1205.3760;-61.3200;-56.0100;-5.3100
1205.5750;-61.3000;-55.9900;-5.3100
1205.7740;-61.2400;-55.9800;-5.2600
1205.9740;-61.1600;-55.9500;-5.2100
1206.1730;-61.1800;-55.9400;-5.2400
1206.3720;-61.1400;-55.9300;-5.2100
1206.5710;-61.0600;-55.9100;-5.1500
1206.7700;-61.0300;-55.8800;-5.1500
1206.9690;-60.9800;-55.8600;-5.1200
1207.1680;-60.9300;-55.8300;-5.1000
1207.3670;-60.8400;-55.8100;-5.0300
1207.5660;-60.7600;-55.7800;-4.9800
1207.7660;-60.6900;-55.7500;-4.9400
1207.9650;-60.6100;-55.7100;-4.9000
1208.1640;-60.5700;-55.6800;-4.8900
1208.3630;-60.4900;-55.6600;-4.8300
1208.5620;-60.4300;-55.6000;-4.8300
1208.7610;-60.4200;-55.5600;-4.8600
1208.9600;-60.3600;-55.5100;-4.8500
1209.1590;-60.2900;-55.4500;-4.8400
1209.3580;-60.2700;-55.4100;-4.8600
1209.5580;-60.2800;-55.3600;-4.9200
1209.7570;-60.2900;-55.3100;-4.9800
1209.9560;-60.2600;-55.2600;-5.0000
1210.1550;-60.2400;-55.2100;-5.0300
1210.3540;-60.2500;-55.1800;-5.0700
1210.5530;-60.2700;-55.1100;-5.1600
1210.7520;-60.3100;-55.0700;-5.2400
1210.9510;-60.2800;-55.0300;-5.2500
1211.1500;-60.2900;-54.9800;-5.3100
1211.3500;-60.3200;-54.9500;-5.3700
1211.5490;-60.3300;-54.9100;-5.4200
1211.7480;-60.3300;-54.8700;-5.4600
1211.9470;-60.3200;-54.8400;-5.4800
1212.1460;-60.3200;-54.8100;-5.5100
1212.3450;-60.3200;-54.7800;-5.5400
1212.5440;-60.2900;-54.7600;-5.5300
1212.7430;-60.2500;-54.7400;-5.5100
1212.9430;-60.2500;-54.7100;-5.5400
1213.1420;-60.2200;-54.6700;-5.5500
1213.3410;-60.1300;-54.6500;-5.4800
1213.5400;-60.0500;-54.6200;-5.4300
1213.7390;-60.0300;-54.6000;-5.4300
1213.9380;-59.9600;-54.5600;-5.4000
1214.1370;-59.8400;-54.5300;-5.3100
1214.3360;-59.7200;-54.5100;-5.2100
1214.5350;-59.6500;-54.4600;-5.1900
1214.7350;-59.5800;-54.4300;-5.1500
1214.9340;-59.4900;-54.3900;-5.1000
1215.1330;-59.3900;-54.3400;-5.0500
1215.3320;-59.3200;-54.3000;-5.0200
1215.5310;-59.2900;-54.2500;-5.0400
1215.7300;-59.2400;-54.2000;-5.0400
1215.9290;-59.1600;-54.1500;-5.0100
1216.1280;-59.1200;-54.1000;-5.0200
1216.3270;-59.1000;-54.0400;-5.0600
1216.5270;-59.1000;-53.9900;-5.1100
1216.7260;-59.0700;-53.9300;-5.1400
1216.9250;-59.0300;-53.8800;-5.1500
1217.1240;-59.0400;-53.8100;-5.2300
1217.3230;-59.0500;-53.7700;-5.2800
1217.5220;-59.0400;-53.7200;-5.3200
1217.7210;-59.0300;-53.6700;-5.3600
1217.9200;-59.0200;-53.6200;-5.4000
1218.1200;-59.0500;-53.5700;-5.4800
1218.3190;-59.0400;-53.5300;-5.5100
1218.5180;-59.0000;-53.4800;-5.5200
1218.7170;-59.0400;-53.4500;-5.5900
1218.9160;-59.0200;-53.4100;-5.6100
1219.1150;-59.0000;-53.3600;-5.6400
1219.3140;-58.9600;-53.3500;-5.6100
1219.5130;-58.9300;-53.3200;-5.6100
1219.7120;-58.9200;-53.2800;-5.6400
1219.9120;-58.8700;-53.2400;-5.6300
1220.1110;-58.7800;-53.2100;-5.5700
1220.3100;-58.6900;-53.1800;-5.5100
1220.5090;-58.6200;-53.1400;-5.4800
1220.7080;-58.5200;-53.1100;-5.4100
1220.9070;-58.3800;-53.0700;-5.3100
1221.1060;-58.2600;-53.0200;-5.2400
1221.3050;-58.1600;-52.9800;-5.1800
1221.5040;-58.0400;-52.9100;-5.1300
1221.7040;-57.9300;-52.8700;-5.0600
1221.9030;-57.8100;-52.8100;-5.0000
1222.1020;-57.7500;-52.7400;-5.0100
1222.3010;-57.6800;-52.7000;-4.9800
1222.5000;-57.5900;-52.6200;-4.9700
1222.6990;-57.5500;-52.5600;-4.9900
1222.8980;-57.5300;-52.4900;-5.0400
1223.0970;-57.5100;-52.4200;-5.0900
1223.2970;-57.4900;-52.3700;-5.1200
1223.4960;-57.4600;-52.2800;-5.1800
1223.6950;-57.5000;-52.2200;-5.2800
1223.8940;-57.5100;-52.1600;-5.3500
1224.0930;-57.5000;-52.0800;-5.4200
1224.2920;-57.4900;-52.0300;-5.4600
1224.4910;-57.5000;-51.9500;-5.5500
1224.6900;-57.5000;-51.8900;-5.6100
1224.8890;-57.4500;-51.8300;-5.6200
1225.0890;-57.4200;-51.7700;-5.6500
1225.2880;-57.3800;-51.7200;-5.6600
1225.4870;-57.3100;-51.6500;-5.6600
1225.6860;-57.2400;-51.6100;-5.6300
1225.8850;-57.1400;-51.5600;-5.5800
1226.0840;-57.0500;-51.5000;-5.5500
1226.2830;-56.9500;-51.4700;-5.4800
1226.4820;-56.8000;-51.4000;-5.4000
1226.6810;-56.6800;-51.3600;-5.3200
1226.8810;-56.5200;-51.3100;-5.2100
1227.0800;-56.3700;-51.2500;-5.1200
1227.2790;-56.2000;-51.2200;-4.9800
1227.4780;-56.0300;-51.1500;-4.8800
1227.6770;-55.9000;-51.1000;-4.8000
1227.8760;-55.6900;-51.0500;-4.6400
1228.0750;-55.5600;-50.9800;-4.5800
1228.2740;-55.4300;-50.9300;-4.5000
1228.4740;-55.3200;-50.8500;-4.4700
1228.6730;-55.2300;-50.7900;-4.4400
1228.8720;-55.1400;-50.7300;-4.4100
1229.0710;-55.0700;-50.6500;-4.4200
1229.2700;-55.0600;-50.5900;-4.4700
1229.4690;-55.0300;-50.5000;-4.5300
1229.6680;-55.0400;-50.4300;-4.6100
1229.8670;-55.0600;-50.3500;-4.7100
1230.0660;-55.1100;-50.2700;-4.8400
1230.2660;-55.1700;-50.2100;-4.9600
1230.4650;-55.2100;-50.1100;-5.1000
1230.6640;-55.3100;-50.0300;-5.2800
1230.8630;-55.4000;-49.9800;-5.4200
1231.0620;-55.4800;-49.9000;-5.5800
1231.2610;-55.5600;-49.8500;-5.7100
1231.4600;-55.6300;-49.7900;-5.8400
1231.6590;-55.7000;-49.7200;-5.9800
1231.8580;-55.7000;-49.6600;-6.0400
1232.0580;-55.7000;-49.6000;-6.1000
1232.2570;-55.6800;-49.5500;-6.1300
1232.4560;-55.6500;-49.4900;-6.1600
1232.6550;-55.5500;-49.4400;-6.1100
1232.8540;-55.4100;-49.3700;-6.0400
1233.0530;-55.2800;-49.3200;-5.9600
1233.2520;-55.1200;-49.2800;-5.8400
1233.4510;-54.9100;-49.2100;-5.7000
1233.6500;-54.7300;-49.1700;-5.5600
1233.8500;-54.5100;-49.1000;-5.4100
1234.0490;-54.3100;-49.0400;-5.2700
1234.2480;-54.0900;-48.9800;-5.1100
1234.4470;-53.8800;-48.9000;-4.9800
1234.6460;-53.7300;-48.8500;-4.8800
1234.8450;-53.5600;-48.7800;-4.7800
1235.0440;-53.4200;-48.7000;-4.7200
1235.2430;-53.3000;-48.6300;-4.6700
1235.4430;-53.2200;-48.5400;-4.6800
1235.6420;-53.1600;-48.4800;-4.6800
1235.8410;-53.1100;-48.3800;-4.7300
1236.0400;-53.1100;-48.3000;-4.8100
1236.2390;-53.1100;-48.2100;-4.9000
1236.4380;-53.1200;-48.1100;-5.0100
1236.6370;-53.1700;-48.0400;-5.1300
1236.8360;-53.2100;-47.9400;-5.2700
1237.0350;-53.2900;-47.8600;-5.4300
1237.2350;-53.3300;-47.7700;-5.5600
1237.4340;-53.3700;-47.6800;-5.6900
1237.6330;-53.4400;-47.6100;-5.8300
1237.8320;-53.4800;-47.5200;-5.9600
1238.0310;-53.5000;-47.4400;-6.0600
1238.2300;-53.5000;-47.3600;-6.1400
1238.4290;-53.4800;-47.2700;-6.2100
1238.6280;-53.4600;-47.2100;-6.2500
1238.8270;-53.3900;-47.1200;-6.2700
1239.0270;-53.3200;-47.0600;-6.2600
1239.2260;-53.2100;-46.9600;-6.2500
1239.4250;-53.1000;-46.8800;-6.2200
1239.6240;-52.9800;-46.8100;-6.1700
1239.8230;-52.8300;-46.7200;-6.1100
1240.0220;-52.7000;-46.6500;-6.0500
1240.2210;-52.5300;-46.5400;-5.9900
1240.4200;-52.3700;-46.4500;-5.9200
1240.6200;-52.2300;-46.3700;-5.8600
1240.8190;-52.0800;-46.2600;-5.8200
1241.0180;-51.9400;-46.1600;-5.7800
1241.2170;-51.8000;-46.0400;-5.7600
1241.4160;-51.6900;-45.9100;-5.7800
1241.6150;-51.5900;-45.8000;-5.7900
1241.8140;-51.4900;-45.6900;-5.8000
1242.0130;-51.4300;-45.5700;-5.8600
1242.2120;-51.3500;-45.4400;-5.9100
1242.4120;-51.3000;-45.3300;-5.9700
1242.6110;-51.2200;-45.1800;-6.0400
1242.8100;-51.1600;-45.0600;-6.1000
1243.0090;-51.0800;-44.9200;-6.1600
1243.2080;-50.9600;-44.8000;-6.1600
1243.4070;-50.8300;-44.6800;-6.1500
1243.6060;-50.6700;-44.5300;-6.1400
1243.8050;-50.4800;-44.4100;-6.0700
1244.0040;-50.2600;-44.2800;-5.9800
1244.2040;-50.0000;-44.1500;-5.8500
1244.4030;-49.7400;-44.0300;-5.7100
1244.6020;-49.4700;-43.8800;-5.5900
1244.8010;-49.1800;-43.7600;-5.4200
1245.0000;-48.9100;-43.6400;-5.2700
1245.1990;-48.6400;-43.5100;-5.1300
1245.3980;-48.3800;-43.4000;-4.9800
1245.5970;-48.1300;-43.2500;-4.8800
1245.7970;-47.9100;-43.1300;-4.7800
1245.9960;-47.7200;-42.9900;-4.7300
1246.1950;-47.5300;-42.8500;-4.6800
1246.3940;-47.3900;-42.7300;-4.6600
1246.5930;-47.2600;-42.5700;-4.6900
1246.7920;-47.1600;-42.4300;-4.7300
1246.9910;-47.0800;-42.2800;-4.8000
1247.1900;-47.0200;-42.1200;-4.9000
1247.3890;-47.0000;-41.9800;-5.0200
1247.5890;-46.9700;-41.8100;-5.1600
1247.7880;-46.9700;-41.6600;-5.3100
1247.9870;-46.9900;-41.4900;-5.5000
1248.1860;-46.9900;-41.3300;-5.6600
1248.3850;-47.0000;-41.1800;-5.8200
1248.5840;-46.9800;-41.0000;-5.9800
1248.7830;-46.9500;-40.8400;-6.1100
1248.9820;-46.8900;-40.6800;-6.2100
1249.1810;-46.7500;-40.5200;-6.2300
1249.3810;-46.5900;-40.3600;-6.2300
1249.5800;-46.3600;-40.1800;-6.1800
1249.7790;-46.0700;-40.0300;-6.0400
1249.9780;-45.6800;-39.8600;-5.8200
1250.1770;-45.3700;-39.7000;-5.6700
1250.3760;-45.0000;-39.5600;-5.4400
1250.5750;-44.5700;-39.3900;-5.1800
1250.7740;-44.1800;-39.2300;-4.9500
1250.9740;-43.7800;-39.0900;-4.6900
1251.1730;-43.3900;-38.9300;-4.4600
1251.3720;-43.0300;-38.7900;-4.2400
1251.5710;-42.7100;-38.6400;-4.0700
1251.7700;-42.4100;-38.4900;-3.9200
1251.9690;-42.1200;-38.3300;-3.7900
1252.1680;-41.8800;-38.1700;-3.7100
1252.3670;-41.6900;-38.0300;-3.6600
1252.5660;-41.5200;-37.8700;-3.6500
1252.7660;-41.4000;-37.7100;-3.6900
1252.9650;-41.3000;-37.5600;-3.7400
1253.1640;-41.2400;-37.3900;-3.8500
1253.3630;-41.2300;-37.2400;-3.9900
1253.5620;-41.2500;-37.0800;-4.1700
1253.7610;-41.3300;-36.9200;-4.4100
1253.9600;-41.4200;-36.7600;-4.6600
1254.1590;-41.5500;-36.5900;-4.9600
1254.3580;-41.7100;-36.4400;-5.2700
1254.5580;-41.8800;-36.2700;-5.6100
1254.7570;-42.0500;-36.1200;-5.9300
1254.9560;-42.1800;-35.9500;-6.2300
1255.1550;-42.2800;-35.7800;-6.5000
1255.3540;-42.2900;-35.6400;-6.6500
1255.5530;-42.2000;-35.4900;-6.7100
1255.7520;-42.0000;-35.3400;-6.6600
1255.9510;-41.6700;-35.1700;-6.5000
1256.1500;-41.2500;-35.0400;-6.2100
1256.3500;-40.7500;-34.8700;-5.8800
1256.5490;-40.2100;-34.7200;-5.4900
1256.7480;-39.6600;-34.5700;-5.0900
1256.9470;-39.1000;-34.4200;-4.6800
1257.1460;-38.5700;-34.2700;-4.3000
1257.3450;-38.0500;-34.1000;-3.9500
1257.5440;-37.5900;-33.9600;-3.6300
1257.7430;-37.1700;-33.8100;-3.3600
1257.9430;-36.7700;-33.6500;-3.1200
1258.1420;-36.4400;-33.5100;-2.9300
1258.3410;-36.1400;-33.3400;-2.8000
1258.5400;-35.8600;-33.1900;-2.6700
1258.7390;-35.7000;-33.0300;-2.6700
1258.9380;-35.5500;-32.8700;-2.6800
1259.1370;-35.4700;-32.7300;-2.7400
1259.3360;-35.4200;-32.5600;-2.8600
1259.5350;-35.4400;-32.4200;-3.0200
1259.7350;-35.5100;-32.2700;-3.2400
1259.9340;-35.6400;-32.1100;-3.5300
1260.1330;-35.8700;-31.9700;-3.9000
1260.3320;-36.1500;-31.8100;-4.3400
1260.5310;-36.5300;-31.6800;-4.8500
1260.7300;-36.9900;-31.5300;-5.4600
1260.9290;-37.5400;-31.3800;-6.1600
1261.1280;-38.3300;-31.2500;-7.0800
1261.3270;-38.9500;-31.0900;-7.8600
1261.5270;-39.7700;-30.9700;-8.8000
1261.7260;-40.5700;-30.8200;-9.7500
1261.9250;-41.2600;-30.6800;-10.5800
1262.1240;-41.6200;-30.5500;-11.0700
1262.3230;-41.5000;-30.4000;-11.1000
1262.5220;-40.8900;-30.2700;-10.6200
1262.7210;-39.9100;-30.1300;-9.7800
1262.9200;-38.7800;-29.9800;-8.8000
1263.1200;-37.6100;-29.8500;-7.7600
1263.3190;-36.4900;-29.6900;-6.8000
1263.5180;-35.2900;-29.5600;-5.7300
1263.7170;-34.5300;-29.4100;-5.1200
1263.9160;-33.7000;-29.2600;-4.4400
1264.1150;-32.9500;-29.1300;-3.8200
1264.3140;-32.2900;-28.9600;-3.3300
1264.5130;-31.7100;-28.8300;-2.8800
1264.7120;-31.1900;-28.6800;-2.5100
1264.9120;-30.7500;-28.5300;-2.2200
1265.1110;-30.3700;-28.3900;-1.9800
1265.3100;-30.0700;-28.2300;-1.8400
1265.5090;-29.8300;-28.1000;-1.7300
1265.7080;-29.6500;-27.9500;-1.7000
1265.9070;-29.5400;-27.8100;-1.7300
1266.1060;-29.4800;-27.6800;-1.8000
1266.3050;-29.5100;-27.5400;-1.9700
1266.5040;-29.6000;-27.4200;-2.1800
1266.7040;-29.7700;-27.2900;-2.4800
1266.9030;-30.0200;-27.1600;-2.8600
1267.1020;-30.3500;-27.0400;-3.3100
1267.3010;-30.7900;-26.9100;-3.8800
1267.5000;-31.3300;-26.8000;-4.5300
1267.6990;-31.9900;-26.6800;-5.3100
1267.8980;-32.7800;-26.5600;-6.2200
1268.0970;-33.7200;-26.4600;-7.2600
1268.2970;-34.8300;-26.3300;-8.5000
1268.4960;-36.1200;-26.2300;-9.8900
1268.6950;-37.5700;-26.0800;-11.4900
1268.8940;-39.3800;-25.9900;-13.3900
1269.0930;-40.3000;-25.8800;-14.4200
1269.2920;-40.6000;-25.7500;-14.8500
1269.4910;-39.7900;-25.6500;-14.1400
1269.6900;-38.3300;-25.5100;-12.8200
1269.8890;-36.6900;-25.3900;-11.3000
1270.0890;-34.9500;-25.2600;-9.6900
1270.2880;-33.8200;-25.1300;-8.6900
1270.4870;-32.6600;-25.0300;-7.6300
1270.6860;-31.6300;-24.8900;-6.7400
1270.8850;-30.7300;-24.7600;-5.9700
1271.0840;-29.9800;-24.6300;-5.3500
1271.2830;-29.3200;-24.5100;-4.8100
1271.4820;-28.7700;-24.3900;-4.3800
1271.6810;-28.3200;-24.2600;-4.0600
1271.8810;-27.9500;-24.1500;-3.8000
1272.0800;-27.6900;-24.0300;-3.6600
1272.2790;-27.4800;-23.9100;-3.5700
1272.4780;-27.3700;-23.8200;-3.5500
1272.6770;-27.3300;-23.7000;-3.6300
1272.8760;-27.3700;-23.6100;-3.7600
1273.0750;-27.5000;-23.5000;-4.0000
1273.2740;-27.6800;-23.4000;-4.2800
1273.4740;-27.9600;-23.3200;-4.6400
1273.6730;-28.3000;-23.2100;-5.0900
1273.8720;-28.7000;-23.1300;-5.5700
1274.0710;-29.1800;-23.0300;-6.1500
1274.2700;-29.6700;-22.9300;-6.7400
1274.4690;-30.1900;-22.8500;-7.3400
1274.6680;-30.6500;-22.7500;-7.9000
1274.8670;-31.0300;-22.6600;-8.3700
1275.0660;-31.2500;-22.5600;-8.6900
1275.2660;-31.2300;-22.4700;-8.7600
1275.4650;-30.9700;-22.3800;-8.5900
1275.6640;-30.4800;-22.2700;-8.2100
1275.8630;-29.8400;-22.1800;-7.6600
1276.0620;-29.1000;-22.0700;-7.0300
1276.2610;-28.3200;-21.9700;-6.3500
1276.4600;-27.5600;-21.8700;-5.6900
1276.6590;-26.8000;-21.7500;-5.0500
1276.8580;-26.0000;-21.6600;-4.3400
1277.0580;-25.4700;-21.5400;-3.9300
1277.2570;-24.9100;-21.4500;-3.4600
1277.4560;-24.4000;-21.3500;-3.0500
1277.6550;-23.9500;-21.2400;-2.7100
1277.8540;-23.5800;-21.1600;-2.4200
1278.0530;-23.2500;-21.0500;-2.2000
1278.2520;-23.0000;-20.9600;-2.0400
1278.4510;-22.8000;-20.8700;-1.9300
1278.6500;-22.6600;-20.7700;-1.8900
1278.8500;-22.5900;-20.7000;-1.8900
1279.0490;-22.5700;-20.6000;-1.9700
1279.2480;-22.6300;-20.5200;-2.1100
1279.4470;-22.7300;-20.4400;-2.2900
1279.6460;-22.9000;-20.3500;-2.5500
1279.8450;-23.1500;-20.2800;-2.8700
1280.0440;-23.4500;-20.1900;-3.2600
1280.2430;-23.8200;-20.1300;-3.6900
1280.4430;-24.2400;-20.0400;-4.2000
1280.6420;-24.7200;-19.9700;-4.7500
1280.8410;-25.2700;-19.9000;-5.3700
1281.0400;-25.8300;-19.8200;-6.0100
1281.2390;-26.4200;-19.7500;-6.6700
1281.4380;-26.9400;-19.6700;-7.2700
1281.6370;-27.3800;-19.6000;-7.7800
1281.8360;-27.6400;-19.5300;-8.1100
1282.0350;-27.6500;-19.4500;-8.2000
1282.2350;-27.4200;-19.3900;-8.0300
1282.4340;-26.9300;-19.3000;-7.6300
1282.6330;-26.2900;-19.2400;-7.0500
1282.8320;-25.5400;-19.1700;-6.3700
1283.0310;-24.7600;-19.0900;-5.6700
1283.2300;-24.0200;-19.0200;-5.0000
1283.4290;-23.2900;-18.9400;-4.3500
1283.6280;-22.6300;-18.8700;-3.7600
1283.8270;-22.0300;-18.8000;-3.2300
1284.0270;-21.4900;-18.7200;-2.7700
1284.2260;-21.0400;-18.6600;-2.3800
1284.4250;-20.6300;-18.5800;-2.0500
1284.6240;-20.3100;-18.5100;-1.8000
1284.8230;-20.0400;-18.4300;-1.6100
1285.0220;-19.8400;-18.3600;-1.4800
1285.2210;-19.7100;-18.3000;-1.4100
1285.4200;-19.6300;-18.2200;-1.4100
1285.6200;-19.6400;-18.1600;-1.4800
1285.8190;-19.6900;-18.1000;-1.5900
1286.0180;-19.8200;-18.0300;-1.7900
1286.2170;-20.0400;-17.9800;-2.0600
1286.4160;-20.3100;-17.9100;-2.4000
1286.6150;-20.6900;-17.8800;-2.8100
1286.8140;-21.1300;-17.8200;-3.3100
1287.0130;-21.6800;-17.7600;-3.9200
1287.2120;-22.3300;-17.7200;-4.6100
1287.4120;-23.0900;-17.6600;-5.4300
1287.6110;-23.9800;-17.6300;-6.3500
1287.8100;-24.9600;-17.5700;-7.3900
1288.0090;-26.0600;-17.5200;-8.5400
1288.2080;-27.1800;-17.4800;-9.7000
1288.4070;-28.1700;-17.4300;-10.7400
1288.6060;-28.8900;-17.4000;-11.4900
1288.8050;-28.7600;-17.3400;-11.4200
1289.0040;-28.0800;-17.3000;-10.7800
1289.2040;-26.9700;-17.2500;-9.7200
1289.4030;-25.5500;-17.1900;-8.3600
1289.6020;-24.5300;-17.1600;-7.3700
1289.8010;-23.4500;-17.0900;-6.3600
1290.0000;-22.4500;-17.0400;-5.4100
1290.1990;-21.5900;-16.9900;-4.6000
1290.3980;-20.8400;-16.9300;-3.9100
1290.5970;-20.1900;-16.8900;-3.3000
1290.7970;-19.6400;-16.8200;-2.8200
1290.9960;-19.1500;-16.7600;-2.3900
1291.1950;-18.7600;-16.7000;-2.0600
1291.3940;-18.4700;-16.6400;-1.8300
1291.5930;-18.2300;-16.5800;-1.6500
1291.7920;-18.0900;-16.5200;-1.5700
1291.9910;-18.0000;-16.4800;-1.5200
1292.1900;-18.0000;-16.4200;-1.5800
1292.3890;-18.0600;-16.3800;-1.6800
1292.5890;-18.1900;-16.3300;-1.8600
1292.7880;-18.4200;-16.2800;-2.1400
1292.9870;-18.7100;-16.2500;-2.4600
1293.1860;-19.1100;-16.2100;-2.9000
1293.3850;-19.6000;-16.1800;-3.4200
1293.5840;-20.1800;-16.1400;-4.0400
1293.7830;-20.9000;-16.1200;-4.7800
1293.9820;-21.7400;-16.0900;-5.6500
1294.1810;-22.7400;-16.0700;-6.6700
1294.3810;-23.9200;-16.0600;-7.8600
1294.5800;-25.3100;-16.0200;-9.2900
1294.7790;-26.9300;-16.0100;-10.9200
1294.9780;-29.0800;-15.9800;-13.1000
1295.1770;-30.2800;-15.9600;-14.3200
1295.3760;-30.8200;-15.9400;-14.8800
1295.5750;-29.9700;-15.9000;-14.0700
1295.7740;-28.2900;-15.8900;-12.4000
1295.9740;-26.4700;-15.8400;-10.6300
1296.1730;-24.5900;-15.8200;-8.7700
1296.3720;-23.4300;-15.7900;-7.6400
1296.5710;-22.2200;-15.7400;-6.4800
1296.7700;-21.1800;-15.7200;-5.4600
1296.9690;-20.3200;-15.6800;-4.6400
1297.1680;-19.5600;-15.6500;-3.9100
1297.3670;-18.9300;-15.6100;-3.3200
1297.5660;-18.3700;-15.5600;-2.8100
1297.7660;-17.9200;-15.5400;-2.3800
1297.9650;-17.5600;-15.4900;-2.0700
1298.1640;-17.2500;-15.4600;-1.7900
1298.3630;-17.0400;-15.4300;-1.6100
1298.5620;-16.8600;-15.3800;-1.4800
1298.7610;-16.7600;-15.3600;-1.4000
1298.9600;-16.7300;-15.3300;-1.4000
1299.1590;-16.7400;-15.3200;-1.4200
1299.3580;-16.8300;-15.2900;-1.5400
1299.5580;-16.9400;-15.2600;-1.6800
1299.7570;-17.1200;-15.2500;-1.8700
1299.9560;-17.3700;-15.2400;-2.1300
1300.1550;-17.6500;-15.2400;-2.4100
1300.3540;-18.0000;-15.2200;-2.7800
1300.5530;-18.3600;-15.2100;-3.1500
1300.7520;-18.7700;-15.2100;-3.5600
1300.9510;-19.2100;-15.2000;-4.0100
1301.1500;-19.6700;-15.2200;-4.4500
1301.3500;-20.1200;-15.2100;-4.9100
1301.5490;-20.5300;-15.2200;-5.3100
1301.7480;-20.8800;-15.2200;-5.6600
1301.9470;-21.1300;-15.2200;-5.9100
1302.1460;-21.2700;-15.2400;-6.0300
1302.3450;-21.2900;-15.2300;-6.0600
1302.5440;-21.1800;-15.2500;-5.9300
1302.7430;-20.9700;-15.2400;-5.7300
1302.9430;-20.6700;-15.2400;-5.4300
1303.1420;-20.3300;-15.2600;-5.0700
1303.3410;-19.9800;-15.2500;-4.7300
1303.5400;-19.6200;-15.2700;-4.3500
1303.7390;-19.2900;-15.2500;-4.0400
1303.9380;-18.9700;-15.2600;-3.7100
1304.1370;-18.7200;-15.2700;-3.4500
1304.3360;-18.5100;-15.2700;-3.2400
1304.5350;-18.3500;-15.2800;-3.0700
1304.7350;-18.2500;-15.2700;-2.9800
1304.9340;-18.1900;-15.2800;-2.9100
1305.1330;-18.2300;-15.2800;-2.9500
1305.3320;-18.3100;-15.2800;-3.0300
1305.5310;-18.4700;-15.3100;-3.1600
1305.7300;-18.7000;-15.3000;-3.4000
1305.9290;-19.0000;-15.3100;-3.6900
1306.1280;-19.4000;-15.3200;-4.0800
1306.3270;-19.8600;-15.3300;-4.5300
1306.5270;-20.4400;-15.3600;-5.0800
1306.7260;-21.1200;-15.3700;-5.7500
1306.9250;-21.9100;-15.3900;-6.5200
1307.1240;-22.8600;-15.4000;-7.4600
1307.3230;-23.9400;-15.4200;-8.5200
1307.5220;-25.1800;-15.4600;-9.7200
1307.7210;-26.5900;-15.4700;-11.1200
1307.9200;-28.0500;-15.4900;-12.5600
1308.1200;-29.6700;-15.5200;-14.1500
1308.3190;-30.1300;-15.5400;-14.5900
1308.5180;-29.8700;-15.5700;-14.3000
1308.7170;-28.7400;-15.5900;-13.1500
1308.9160;-27.3000;-15.6200;-11.6800
1309.1150;-25.6100;-15.6400;-9.9700
1309.3140;-24.5600;-15.6700;-8.8900
1309.5130;-23.4300;-15.7000;-7.7300
1309.7120;-22.4400;-15.7100;-6.7300
1309.9120;-21.6000;-15.7500;-5.8500
1310.1110;-20.8700;-15.7700;-5.1000
1310.3100;-20.2700;-15.8000;-4.4700
1310.5090;-19.7500;-15.8200;-3.9300
1310.7080;-19.3100;-15.8400;-3.4700
1310.9070;-18.9700;-15.8800;-3.0900
1311.1060;-18.6900;-15.9100;-2.7800
1311.3050;-18.4800;-15.9400;-2.5400
1311.5040;-18.3400;-15.9800;-2.3600
1311.7040;-18.2400;-16.0100;-2.2300
1311.9030;-18.2100;-16.0500;-2.1600
1312.1020;-18.2200;-16.0800;-2.1400
1312.3010;-18.3000;-16.1400;-2.1600
1312.5000;-18.4100;-16.1800;-2.2300
1312.6990;-18.5600;-16.2300;-2.3300
1312.8980;-18.7300;-16.2700;-2.4600
1313.0970;-18.9400;-16.3200;-2.6200
1313.2970;-19.1700;-16.3800;-2.7900
1313.4960;-19.4000;-16.4400;-2.9600
1313.6950;-19.6400;-16.5000;-3.1400
1313.8940;-19.8600;-16.5400;-3.3200
1314.0930;-20.0500;-16.6100;-3.4400
1314.2920;-20.2200;-16.6700;-3.5500
1314.4910;-20.3200;-16.7300;-3.5900
1314.6900;-20.3800;-16.8000;-3.5800
1314.8890;-20.3700;-16.8400;-3.5300
1315.0890;-20.3000;-16.9000;-3.4000
1315.2880;-20.2000;-16.9500;-3.2500
1315.4870;-20.0600;-17.0100;-3.0500
1315.6860;-19.9100;-17.0800;-2.8300
1315.8850;-19.7200;-17.1200;-2.6000
1316.0840;-19.5400;-17.1800;-2.3600
1316.2830;-19.3700;-17.2300;-2.1400
1316.4820;-19.2200;-17.2900;-1.9300
1316.6810;-19.1000;-17.3500;-1.7500
1316.8810;-18.9900;-17.4000;-1.5900
1317.0800;-18.9500;-17.4900;-1.4600
1317.2790;-18.9100;-17.5300;-1.3800
1317.4780;-18.9300;-17.6100;-1.3200
1317.6770;-18.9900;-17.6700;-1.3200
1317.8760;-19.0900;-17.7300;-1.3600
1318.0750;-19.2400;-17.8000;-1.4400
1318.2740;-19.4300;-17.8600;-1.5700
1318.4740;-19.6700;-17.9400;-1.7300
1318.6730;-19.9800;-18.0200;-1.9600
1318.8720;-20.3200;-18.0900;-2.2300
1319.0710;-20.7300;-18.1800;-2.5500
1319.2700;-21.1700;-18.2500;-2.9200
1319.4690;-21.6700;-18.3500;-3.3200
1319.6680;-22.2300;-18.4300;-3.8000
1319.8670;-22.8100;-18.5500;-4.2600
1320.0660;-23.4400;-18.6100;-4.8300
1320.2660;-24.0700;-18.7100;-5.3600
1320.4650;-24.7000;-18.8000;-5.9000
1320.6640;-25.2800;-18.9000;-6.3800
1320.8630;-25.7700;-18.9900;-6.7800
1321.0620;-26.1300;-19.0800;-7.0500
1321.2610;-26.3100;-19.1900;-7.1200
1321.4600;-26.3400;-19.2700;-7.0700
1321.6590;-26.1700;-19.3700;-6.8000
1321.8580;-25.8900;-19.4700;-6.4200
1322.0580;-25.5300;-19.5600;-5.9700
1322.2570;-25.1300;-19.6700;-5.4600
1322.4560;-24.7400;-19.7500;-4.9900
1322.6550;-24.3500;-19.8500;-4.5000
1322.8540;-24.0200;-19.9500;-4.0700
1323.0530;-23.7200;-20.0500;-3.6700
1323.2520;-23.4800;-20.1700;-3.3100
1323.4510;-23.3100;-20.2600;-3.0500
1323.6500;-23.1700;-20.3700;-2.8000
1323.8500;-23.1200;-20.4700;-2.6500
1324.0490;-23.1100;-20.5800;-2.5300
1324.2480;-23.1800;-20.7000;-2.4800
1324.4470;-23.3100;-20.8000;-2.5100
1324.6460;-23.5000;-20.9200;-2.5800
1324.8450;-23.7700;-21.0300;-2.7400
1325.0440;-24.0900;-21.1500;-2.9400
1325.2430;-24.5100;-21.2800;-3.2300
1325.4430;-25.0000;-21.4000;-3.6000
1325.6420;-25.5800;-21.5500;-4.0300
1325.8410;-26.2500;-21.6700;-4.5800
1326.0400;-27.0200;-21.8000;-5.2200
1326.2390;-27.9200;-21.9400;-5.9800
1326.4380;-29.1500;-22.0700;-7.0800
1326.6370;-30.1400;-22.2200;-7.9200
1326.8360;-31.5000;-22.3400;-9.1600
1327.0350;-33.1100;-22.4800;-10.6300
1327.2350;-35.0000;-22.6200;-12.3800
1327.4340;-37.1200;-22.7500;-14.3700
1327.6330;-39.7800;-22.9000;-16.8800
1327.8320;-40.6800;-23.0200;-17.6600
1328.0310;-40.2700;-23.1700;-17.1000
1328.2300;-38.6300;-23.3000;-15.3300
1328.4290;-36.8100;-23.4400;-13.3700
1328.6280;-34.9400;-23.5800;-11.3600
1328.8270;-33.8900;-23.7100;-10.1800
1329.0270;-32.8300;-23.8600;-8.9700
1329.2260;-31.9600;-23.9800;-7.9800
1329.4250;-31.2800;-24.1200;-7.1600
1329.6240;-30.7400;-24.2500;-6.4900
1329.8230;-30.3400;-24.3800;-5.9600
1330.0220;-30.0300;-24.5300;-5.5000
1330.2210;-29.8500;-24.6600;-5.1900
1330.4200;-29.7600;-24.8000;-4.9600
1330.6200;-29.7600;-24.9300;-4.8300
1330.8190;-29.8600;-25.0800;-4.7800
1331.0180;-30.0400;-25.2300;-4.8100
1331.2170;-30.3100;-25.3800;-4.9300
1331.4160;-30.6800;-25.5400;-5.1400
1331.6150;-31.1300;-25.6800;-5.4500
1331.8140;-31.6900;-25.8400;-5.8500
1332.0130;-32.3400;-26.0000;-6.3400
1332.2120;-33.1300;-26.1500;-6.9800
1332.4120;-34.0100;-26.3300;-7.6800
1332.6110;-35.0200;-26.4900;-8.5300
1332.8100;-36.1500;-26.6600;-9.4900
1333.0090;-37.3400;-26.8200;-10.5200
1333.2080;-38.7700;-26.9900;-11.7800
1333.4070;-39.5200;-27.1600;-12.3600
1333.6060;-40.0500;-27.3300;-12.7200
1333.8050;-39.9200;-27.5100;-12.4100
1334.0040;-39.2400;-27.6600;-11.5800
1334.2040;-38.2500;-27.8400;-10.4100
1334.4030;-37.1900;-28.0100;-9.1800
1334.6020;-36.0000;-28.1600;-7.8400
1334.8010;-35.2700;-28.3400;-6.9300
1335.0000;-34.4800;-28.5400;-5.9400
1335.1990;-33.8100;-28.6800;-5.1300
1335.3980;-33.2400;-28.8300;-4.4100
1335.5970;-32.7500;-29.0100;-3.7400
1335.7970;-32.3800;-29.1700;-3.2100
1335.9960;-32.0900;-29.3400;-2.7500
1336.1950;-31.8700;-29.5100;-2.3600
1336.3940;-31.7300;-29.6700;-2.0600
1336.5930;-31.6500;-29.8500;-1.8000
1336.7920;-31.6500;-30.0000;-1.6500
1336.9910;-31.7000;-30.1700;-1.5300
1337.1900;-31.8300;-30.3400;-1.4900
1337.3890;-32.0300;-30.5100;-1.5200
1337.5890;-32.2900;-30.6900;-1.6000
1337.7880;-32.6300;-30.8600;-1.7700
1337.9870;-33.0200;-31.0500;-1.9700
1338.1860;-33.5000;-31.2100;-2.2900
1338.3850;-34.0600;-31.3900;-2.6700
1338.5840;-34.7000;-31.5800;-3.1200
1338.7830;-35.4400;-31.7500;-3.6900
1338.9820;-36.2700;-31.9500;-4.3200
1339.1810;-37.2400;-32.1300;-5.1100
1339.3810;-38.3400;-32.3200;-6.0200
1339.5800;-39.8900;-32.5000;-7.3900
1339.7790;-41.0800;-32.6800;-8.4000
1339.9780;-42.7700;-32.8800;-9.8900
1340.1770;-44.7200;-33.0600;-11.6600
1340.3760;-46.8700;-33.2700;-13.6000
1340.5750;-49.3100;-33.4500;-15.8600
1340.7740;-49.8400;-33.6400;-16.2000
1340.9740;-49.1000;-33.8200;-15.2800
1341.1730;-47.4700;-34.0000;-13.4700
1341.3720;-45.5300;-34.1900;-11.3400
1341.5710;-44.3400;-34.3700;-9.9700
1341.7700;-43.1500;-34.5600;-8.5900
1341.9690;-42.1700;-34.7400;-7.4300
1342.1680;-41.3700;-34.9100;-6.4600
1342.3670;-40.7500;-35.0900;-5.6600
1342.5660;-40.2600;-35.2700;-4.9900
1342.7660;-39.9100;-35.4600;-4.4500
1342.9650;-39.6500;-35.6300;-4.0200
1343.1640;-39.5000;-35.8100;-3.6900
1343.3630;-39.4500;-35.9900;-3.4600
1343.5620;-39.4700;-36.1600;-3.3100
1343.7610;-39.6000;-36.3600;-3.2400
1343.9600;-39.7900;-36.5400;-3.2500
1344.1590;-40.0800;-36.7300;-3.3500
1344.3580;-40.4500;-36.9100;-3.5400
1344.5580;-40.9000;-37.1000;-3.8000
1344.7570;-41.4600;-37.3000;-4.1600
1344.9560;-42.0900;-37.4700;-4.6200
1345.1550;-42.8400;-37.6600;-5.1800
1345.3540;-43.7000;-37.8300;-5.8700
1345.5530;-44.7000;-38.0200;-6.6800
1345.7520;-45.8600;-38.2100;-7.6500
1345.9510;-47.2100;-38.3900;-8.8200
1346.1500;-49.1600;-38.6300;-10.5300
1346.3500;-50.6300;-38.7900;-11.8400
1346.5490;-52.6400;-39.0000;-13.6400
1346.7480;-54.5600;-39.1800;-15.3800
1346.9470;-55.6800;-39.3700;-16.3100
1347.1460;-55.2500;-39.5500;-15.7000
1347.3450;-53.7400;-39.7200;-14.0200
1347.5440;-52.1400;-39.9500;-12.1900
1347.7430;-50.6600;-40.1800;-10.4800
1347.9430;-49.3800;-40.4000;-8.9800
1348.1420;-48.2800;-40.5700;-7.7100
1348.3410;-47.4100;-40.7600;-6.6500
1348.5400;-46.6800;-40.9100;-5.7700
1348.7390;-46.0000;-41.0700;-4.9300
1348.9380;-45.6400;-41.2400;-4.4000
1349.1370;-45.2800;-41.3900;-3.8900
1349.3360;-45.0100;-41.5500;-3.4600
1349.5350;-44.8200;-41.7100;-3.1100
1349.7350;-44.7200;-41.8600;-2.8600
1349.9340;-44.7100;-42.0500;-2.6600
1350.1330;-44.7900;-42.2300;-2.5600
1350.3320;-44.9900;-42.4800;-2.5100
1350.5310;-45.2200;-42.6800;-2.5400
1350.7300;-45.4900;-42.8500;-2.6400
1350.9290;-45.8100;-43.0100;-2.8000
1351.1280;-46.1700;-43.1300;-3.0400
1351.3270;-46.6400;-43.3000;-3.3400
1351.5270;-47.2000;-43.4800;-3.7200
1351.7260;-47.8900;-43.7100;-4.1800
1351.9250;-48.7800;-43.9100;-4.8700
1352.1240;-49.4700;-44.0800;-5.3900
1352.3230;-50.3300;-44.2800;-6.0500
1352.5220;-51.3200;-44.4800;-6.8400
1352.7210;-52.3100;-44.6600;-7.6500
1352.9200;-53.3200;-44.8100;-8.5100
1353.1200;-54.3400;-45.0800;-9.2600
1353.3190;-54.9800;-45.2000;-9.7800
1353.5180;-55.3700;-45.3800;-9.9900
1353.7170;-55.3600;-45.5800;-9.7800
1353.9160;-54.9200;-45.6800;-9.2400
1354.1150;-54.3200;-45.8500;-8.4700
1354.3140;-53.6800;-46.0700;-7.6100
1354.5130;-53.0300;-46.2700;-6.7600
1354.7120;-52.5200;-46.5900;-5.9300
1354.9120;-52.0400;-46.8600;-5.1800
1355.1110;-51.5100;-47.0600;-4.4500
1355.3100;-51.0000;-47.1600;-3.8400
1355.5090;-50.4900;-47.1700;-3.3200
1355.7080;-50.3400;-47.4200;-2.9200
1355.9070;-50.2700;-47.6900;-2.5800
1356.1060;-50.1000;-47.8500;-2.2500
1356.3050;-49.9500;-47.9300;-2.0200
1356.5040;-49.9000;-48.0300;-1.8700
1356.7040;-49.7400;-47.9300;-1.8100
1356.9030;-49.8700;-48.0800;-1.7900
1357.1020;-50.2600;-48.5100;-1.7500
1357.3010;-50.6100;-48.6600;-1.9500
1357.5000;-50.9800;-48.8300;-2.1500
1357.6990;-51.4100;-49.0000;-2.4100
1357.8980;-51.8200;-49.0700;-2.7500
1358.0970;-52.2800;-49.1200;-3.1600
1358.2970;-52.9700;-49.3000;-3.6700
1358.4960;-53.7900;-49.5200;-4.2700
1358.6950;-54.6600;-49.6600;-5.0000
1358.8940;-55.7000;-49.8200;-5.8800
1359.0930;-56.9000;-49.9700;-6.9300
1359.2920;-58.0900;-50.0300;-8.0600
1359.4910;-60.1200;-50.3900;-9.7300
1359.6900;-61.5400;-50.7000;-10.8400
1359.8890;-63.5000;-50.9000;-12.6000
1360.0890;-65.1500;-50.9500;-14.2000
1360.2880;-65.8000;-51.0100;-14.7900
1360.4870;-64.9600;-50.9900;-13.9700
1360.6860;-63.6300;-51.1700;-12.4600
1360.8850;-62.3500;-51.5100;-10.8400
1361.0840;-61.0400;-51.8000;-9.2400
1361.2830;-59.7100;-51.9900;-7.7200
1361.4820;-58.6400;-52.1300;-6.5100
1361.6810;-57.9800;-52.3600;-5.6200
1361.8810;-57.2800;-52.4800;-4.8000
1362.0800;-56.7600;-52.7100;-4.0500
1362.2790;-56.5900;-53.1200;-3.4700
1362.4780;-56.2600;-53.3500;-2.9100
1362.6770;-56.0500;-53.4900;-2.5600
1362.8760;-55.6200;-53.3600;-2.2600
1363.0750;-55.3400;-53.3200;-2.0200
1363.2740;-54.9900;-53.0700;-1.9200
1363.4740;-54.9900;-53.1500;-1.8400
1363.6730;-55.0900;-53.2300;-1.8600
1363.8720;-55.3200;-53.3700;-1.9500
1364.0710;-55.6700;-53.5900;-2.0800
1364.2700;-56.1000;-53.7800;-2.3200
1364.4690;-56.6700;-54.0900;-2.5800
1364.6680;-57.5300;-54.5900;-2.9400
1364.8670;-58.2900;-54.8200;-3.4700
1365.0660;-59.0700;-54.8100;-4.2600
1365.2660;-59.8400;-54.9800;-4.8600
1365.4650;-60.4400;-54.9400;-5.5000
1365.6640;-61.4500;-55.0100;-6.4400
1365.8630;-62.6800;-55.0800;-7.6000
1366.0620;-63.9500;-55.0800;-8.8700
1366.2610;-65.2400;-55.1000;-10.1400
1366.4600;-66.7300;-55.1900;-11.5400
1366.6590;-68.0400;-55.3600;-12.6800
1366.8580;-69.0900;-55.6300;-13.4600
1367.0580;-69.0100;-55.7800;-13.2300
1367.2570;-68.1000;-55.9100;-12.1900
1367.4560;-67.1400;-56.1700;-10.9700
1367.6550;-65.9700;-56.3800;-9.5900
1367.8540;-64.9500;-56.6800;-8.2700
1368.0530;-63.8800;-56.8000;-7.0800
1368.2520;-62.8700;-56.8100;-6.0600
1368.4510;-62.5200;-57.1300;-5.3900
1368.6500;-61.9200;-57.2400;-4.6800
1368.8500;-61.3600;-57.3800;-3.9800
1369.0490;-60.8300;-57.3500;-3.4800
1369.2480;-60.4200;-57.3400;-3.0800
1369.4470;-60.0500;-57.2800;-2.7700
1369.6460;-59.9100;-57.4000;-2.5100
1369.8450;-60.0800;-57.7300;-2.3500
1370.0440;-60.1600;-57.9200;-2.2400
1370.2430;-60.2500;-58.0800;-2.1700
1370.4430;-60.3400;-58.1300;-2.2100
1370.6420;-60.4500;-58.1900;-2.2600
1370.8410;-60.8800;-58.6200;-2.2600
1371.0400;-61.4100;-58.8100;-2.6000
1371.2390;-61.9200;-58.9800;-2.9400
1371.4380;-62.3300;-59.0300;-3.3000
1371.6370;-62.7600;-59.0200;-3.7400
1371.8360;-63.2200;-59.0300;-4.1900
1372.0350;-63.9700;-59.2400;-4.7300
1372.2350;-64.8800;-59.4500;-5.4300
1372.4340;-65.8400;-59.5800;-6.2600
1372.6330;-66.8800;-59.7100;-7.1700
1372.8320;-67.7700;-59.7700;-8.0000
1373.0310;-68.8700;-59.8200;-9.0500
1373.2300;-70.0100;-59.9800;-10.0300
1373.4290;-70.8400;-60.1800;-10.6600
1373.6280;-71.9500;-60.3000;-11.6500
1373.8270;-72.2000;-60.4400;-11.7600
1374.0270;-72.0800;-60.5500;-11.5300
1374.2260;-71.3500;-60.6800;-10.6700
1374.4250;-70.7200;-60.8800;-9.8400
1374.6240;-69.7800;-61.0400;-8.7400
1374.8230;-69.0800;-61.2800;-7.8000
1375.0220;-68.5000;-61.4500;-7.0500
1375.2210;-67.8200;-61.5800;-6.2400
1375.4200;-67.2500;-61.6900;-5.5600
1375.6200;-66.6900;-61.7900;-4.9000
1375.8190;-66.2400;-61.9200;-4.3200
1376.0180;-66.0100;-62.1300;-3.8800
1376.2170;-65.7900;-62.2900;-3.5000
1376.4160;-65.5500;-62.4300;-3.1200
1376.6150;-65.4100;-62.5700;-2.8400
1376.8140;-65.3500;-62.7600;-2.5900
1377.0130;-65.4400;-63.0000;-2.4400
1377.2120;-65.5400;-63.2300;-2.3100
1377.4120;-65.5400;-63.3200;-2.2200
1377.6110;-65.6200;-63.4600;-2.1600
1377.8100;-65.6300;-63.4800;-2.1500
1378.0090;-65.7400;-63.5200;-2.2200
1378.2080;-66.0200;-63.7000;-2.3200
1378.4070;-66.3500;-63.8900;-2.4600
1378.6060;-66.7200;-64.1800;-2.5400
1378.8050;-67.1200;-64.4700;-2.6500
1379.0040;-67.5800;-64.7000;-2.8800
1379.2040;-67.9000;-64.8500;-3.0500
1379.4030;-68.1200;-64.7900;-3.3300
1379.6020;-68.4400;-64.8000;-3.6400
1379.8010;-68.6400;-64.8500;-3.7900
1380.0000;-68.9900;-65.1000;-3.8900
1380.1990;-69.4500;-65.3400;-4.1100
1380.3980;-70.3000;-65.5600;-4.7400
1380.5970;-70.8100;-66.0700;-4.7400
1380.7970;-71.7500;-66.5800;-5.1700
1380.9960;-72.1700;-66.7200;-5.4500
1381.1950;-72.3300;-66.7100;-5.6200
1381.3940;-72.4200;-66.5200;-5.9000
1381.5930;-72.4900;-66.3200;-6.1700
1381.7920;-72.7500;-66.3800;-6.3700
1381.9910;-73.0300;-66.3600;-6.6700
1382.1900;-73.5300;-66.5100;-7.0200
1382.3890;-73.9900;-66.8700;-7.1200
1382.5890;-74.9300;-67.4100;-7.5200
1382.7880;-75.5800;-67.8600;-7.7200
1382.9870;-76.2700;-68.0900;-8.1800
1383.1860;-76.8000;-67.9400;-8.8600
1383.3850;-76.8200;-67.6000;-9.2200
1383.5840;-77.2500;-67.4500;-9.8000
1383.7830;-77.4700;-67.7100;-9.7600
1383.9820;-78.5100;-67.7800;-10.7300
1384.1810;-79.2500;-67.8100;-11.4400
1384.3810;-78.8500;-67.9300;-10.9200
1384.5800;-78.8600;-67.8100;-11.0500
1384.7790;-78.2500;-67.9700;-10.2800
1384.9780;-80.2300;-68.2800;-11.9500
1385.1770;-79.1300;-68.6200;-10.5100
1385.3760;-79.4900;-68.6300;-10.8600
1385.5750;-77.3200;-68.5100;-8.8100
1385.7740;-76.7400;-68.5700;-8.1700
1385.9740;-75.9700;-68.6500;-7.3200
1386.1730;-76.1000;-68.7400;-7.3600
1386.3720;-75.3600;-68.8400;-6.5200
1386.5710;-75.0700;-68.9800;-6.0900
1386.7700;-74.4800;-69.0500;-5.4300
1386.9690;-74.0000;-68.9900;-5.0100
1387.1680;-73.5200;-69.0500;-4.4700
1387.3670;-73.2400;-69.0700;-4.1700
1387.5660;-73.1200;-69.2200;-3.9000
1387.7660;-73.1300;-69.4900;-3.6400
1387.9650;-72.8000;-69.7600;-3.0400
1388.1640;-73.1000;-69.9600;-3.1400
1388.3630;-73.1600;-70.0600;-3.1000
1388.5620;-72.6100;-70.2400;-2.3700
1388.7610;-72.4100;-69.9400;-2.4700
1388.9600;-72.2500;-70.0200;-2.2300
1389.1590;-72.4300;-69.8400;-2.5900
1389.3580;-72.2900;-69.9300;-2.3600
1389.5580;-72.2300;-70.0100;-2.2200
1389.7570;-72.5700;-70.1500;-2.4200
1389.9560;-73.0700;-70.3000;-2.7700
1390.1550;-73.1600;-70.2500;-2.9100
1390.3540;-73.0900;-70.3600;-2.7300
1390.5530;-73.0800;-70.3900;-2.6900
1390.7520;-73.6000;-70.4600;-3.1400
1390.9510;-73.6900;-70.6800;-3.0100
1391.1500;-74.1400;-70.8500;-3.2900
1391.3500;-74.0300;-70.7800;-3.2500
1391.5490;-75.0400;-70.9100;-4.1300
1391.7480;-74.8100;-70.9300;-3.8800
1391.9470;-75.5200;-70.9200;-4.6000
1392.1460;-75.2300;-71.3600;-3.8700
1392.3450;-75.7100;-71.4700;-4.2400
1392.5440;-76.2600;-71.9400;-4.3200
1392.7430;-76.6600;-72.0600;-4.6000
1392.9430;-77.1800;-72.1400;-5.0400
1393.1420;-77.1500;-71.9400;-5.2100
1393.3410;-75.9600;-71.5800;-4.3800
1393.5400;-75.6000;-71.5500;-4.0500
1393.7390;-75.7400;-71.6200;-4.1200
1393.9380;-75.3100;-71.8500;-3.4600
1394.1370;-75.7700;-71.8300;-3.9400
1394.3360;-75.2000;-72.0400;-3.1600
1394.5350;-75.1200;-72.0500;-3.0700
1394.7350;-75.1000;-72.1200;-2.9800
1394.9340;-75.4000;-72.3700;-3.0300
1395.1330;-75.9600;-72.7900;-3.1700
1395.3320;-76.0100;-72.8000;-3.2100
1395.5310;-75.4600;-72.9900;-2.4700
1395.7300;-76.0800;-72.8700;-3.2100
1395.9290;-75.4100;-73.2600;-2.1500
1396.1280;-75.6800;-72.8800;-2.8000
1396.3270;-75.3600;-73.0700;-2.2900
1396.5270;-75.7300;-73.3100;-2.4200
1396.7260;-76.2200;-73.4800;-2.7400
1396.9250;-76.4900;-73.4800;-3.0100
1397.1240;-76.4900;-73.5800;-2.9100
1397.3230;-76.4900;-73.2300;-3.2600
1397.5220;-76.8800;-73.0300;-3.8500
1397.7210;-76.5700;-73.1700;-3.4000
1397.9200;-76.8000;-73.5500;-3.2500
1398.1200;-76.6800;-73.6700;-3.0100
1398.3190;-76.4400;-73.5200;-2.9200
1398.5180;-76.7400;-73.5900;-3.1500
1398.7170;-77.6800;-73.8200;-3.8600
1398.9160;-78.5900;-73.6100;-4.9800
1399.1150;-78.6500;-73.6400;-5.0100
1399.3140;-77.8800;-73.7900;-4.0900
1399.5130;-78.8500;-74.4200;-4.4300
1399.7120;-78.8200;-74.1900;-4.6300
1399.9120;-78.5400;-74.2200;-4.3200
1400.1110;-78.1500;-74.6900;-3.4600
1400.3100;-78.0000;-74.5900;-3.4100
1400.5090;-79.0900;-74.6700;-4.4200
1400.7080;-79.4400;-75.0900;-4.3500
1400.9070;-79.9000;-75.0900;-4.8100
1401.1060;-78.6500;-74.8500;-3.8000
1401.3050;-78.3300;-74.9200;-3.4100
1401.5040;-78.8500;-74.6700;-4.1800
1401.7040;-78.8500;-74.9200;-3.9300
1401.9030;-79.4400;-74.9000;-4.5400
1402.1020;-79.8600;-75.2600;-4.6000
1402.3010;-80.1300;-75.0600;-5.0700
1402.5000;-78.9100;-74.9400;-3.9700
1402.6990;-78.7600;-74.9700;-3.7900
1402.8980;-78.6500;-75.1500;-3.5000
1403.0970;-79.3100;-74.8000;-4.5100
1403.2970;-78.1700;-75.5000;-2.6700
1403.4960;-78.9700;-75.3700;-3.6000
1403.6950;-78.4300;-75.3200;-3.1100
1403.8940;-79.0900;-75.5300;-3.5600
1404.0930;-79.3700;-75.3200;-4.0500
1404.2920;-79.2800;-75.3000;-3.9800
1404.4910;-78.4800;-75.9000;-2.5800
1404.6900;-78.9400;-75.7700;-3.1700
1404.8890;-79.3400;-76.4800;-2.8600
1405.0890;-81.2900;-76.1200;-5.1700
1405.2880;-79.5100;-75.9300;-3.5800
1405.4870;-79.3100;-76.3600;-2.9500
1405.6860;-79.9000;-75.3900;-4.5100
1405.8850;-79.1800;-76.2300;-2.9500
1406.0840;-81.7700;-75.9000;-5.8700
1406.2830;-80.5800;-75.9000;-4.6800
1406.4820;-80.3300;-75.9900;-4.3400
1406.6810;-79.1000;-75.3900;-3.7100
1406.8810;-80.0600;-75.9200;-4.1400
1407.0800;-79.5200;-75.9700;-3.5500
1407.2790;-81.2400;-76.2000;-5.0400
1407.4780;-81.1400;-75.9700;-5.1700
1407.6770;-81.5000;-76.2100;-5.2900
1407.8760;-78.6900;-76.4900;-2.2000
1408.0750;-81.3000;-76.1600;-5.1400
1408.2740;-79.9800;-76.8600;-3.1200
1408.4740;-80.5000;-76.0000;-4.5000
1408.6730;-79.2900;-76.9300;-2.3600
1408.8720;-80.1000;-76.5100;-3.5900
1409.0710;-81.1900;-76.5100;-4.6800
1409.2700;-79.8300;-76.3400;-3.4900
1409.4690;-82.2000;-77.5400;-4.6600
1409.6680;-80.9500;-76.7900;-4.1600
1409.8670;-80.4200;-76.6100;-3.8100
1410.0660;-82.2000;-76.2800;-5.9200
1410.2660;-80.2600;-75.8500;-4.4100
1410.4650;-79.1600;-76.0300;-3.1300
1410.6640;-80.2600;-76.1800;-4.0800
1410.8630;-80.8600;-76.3100;-4.5500
1411.0620;-80.6800;-76.4200;-4.2600
1411.2610;-79.5200;-76.4100;-3.1100
1411.4600;-80.4200;-76.4400;-3.9800
1411.6590;-81.5600;-76.4700;-5.0900
1411.8580;-79.6200;-76.4700;-3.1500
1412.0580;-81.5000;-76.5100;-4.9900
1412.2570;-80.5500;-76.1300;-4.4200
1412.4560;-80.7700;-76.0900;-4.6800
1412.6550;-79.8300;-76.5900;-3.2400
1412.8540;-80.5000;-76.2600;-4.2400
1413.0530;-79.6600;-75.9200;-3.7400
1413.2520;-80.4200;-76.9700;-3.4500
1413.4510;-80.7700;-76.3400;-4.4300
1413.6500;-80.3900;-75.9500;-4.4400
1413.8500;-80.2700;-76.1000;-4.1700
1414.0490;-80.2700;-77.2100;-3.0600
1414.2480;-80.3500;-76.9300;-3.4200
1414.4470;-80.3900;-76.8300;-3.5600
1414.6460;-81.0100;-76.5000;-4.5100
1414.8450;-80.5100;-76.9400;-3.5700
1415.0440;-82.0300;-76.7100;-5.3200
1415.2430;-80.6900;-76.1700;-4.5200
1415.4430;-82.0300;-76.6000;-5.4300
1415.6420;-83.6100;-76.2100;-7.4000
1415.8410;-81.7300;-76.0800;-5.6500
1416.0400;-82.0300;-75.8900;-6.1400
1416.2390;-83.2000;-76.2200;-6.9800
1416.4380;-81.9100;-76.0500;-5.8600
1416.6370;-81.7900;-76.5200;-5.2700
1416.8360;-81.0100;-76.4200;-4.5900
1417.0350;-82.1500;-76.5200;-5.6300
1417.2350;-81.3600;-75.9800;-5.3800
1417.4340;-79.8100;-76.0500;-3.7600
1417.6330;-79.5300;-76.3500;-3.1800
1417.8320;-79.4600;-76.5200;-2.9400
1418.0310;-80.0300;-76.6200;-3.4100
1418.2300;-78.9900;-76.3500;-2.6400
1418.4290;-80.6900;-75.6300;-5.0600
1418.6280;-81.5700;-75.9500;-5.6200
1418.8270;-80.2300;-76.1600;-4.0700
1419.0270;-80.0700;-76.5200;-3.5500
1419.2260;-81.9100;-76.7600;-5.1500
1419.4250;-80.3100;-76.3500;-3.9600
1419.6240;-79.9200;-76.8900;-3.0300
1419.8230;-81.2500;-76.0100;-5.2400
1420.0220;-80.3500;-75.6200;-4.7300
1420.2210;-79.4900;-76.1000;-3.3900
1420.4200;-81.4100;-75.8400;-5.5700
1420.6200;-79.9200;-75.9500;-3.9700
1420.8190;-80.7300;-76.0800;-4.6500
1421.0180;-79.0800;-75.5100;-3.5700
1421.2170;-80.3500;-75.8300;-4.5200
1421.4160;-80.6000;-75.6400;-4.9600
1421.6150;-80.4800;-76.0500;-4.4300
1421.8140;-80.1200;-76.0200;-4.1000
1422.0130;-80.5200;-75.8100;-4.7100
1422.2120;-79.5400;-76.1400;-3.4000
1422.4120;-79.5400;-76.0800;-3.4600
1422.6110;-78.9400;-76.2000;-2.7400
1422.8100;-82.9000;-75.8100;-7.0900
1423.0090;-79.9300;-76.1800;-3.7500
1423.2080;-79.3400;-75.7800;-3.5600
1423.4070;-79.8200;-76.0200;-3.8000
1423.6060;-80.9700;-76.6300;-4.3400
1423.8050;-79.0000;-75.9600;-3.0400
1424.0040;-80.7000;-75.4900;-5.2100
1424.2040;-80.8800;-75.3300;-5.5500
1424.4030;-79.1800;-75.4500;-3.7300
1424.6020;-80.4400;-75.5000;-4.9400
1424.8010;-79.8900;-75.6300;-4.2600
1425.0000;-79.4400;-76.0500;-3.3900
