Wavelength;Intensity_Meas;Intensity_Ref;Difference_dB
1200.0000;-62.0800;-57.0700;-5.0100
1200.1990;-62.0800;-57.0400;-5.0400
1200.3980;-61.9600;-57.0000;-4.9600
1200.5970;-61.8900;-56.9900;-4.9000
1200.7970;-61.8700;-56.9700;-4.9000
1200.9960;-61.8500;-56.9200;-4.9300
1201.1950;-61.7900;-56.8900;-4.9000
1201.3940;-61.6800;-56.8600;-4.8200
1201.5930;-61.6000;-56.8100;-4.7900
1201.7920;-61.6000;-56.7700;-4.8300
1201.9910;-61.5500;-56.7100;-4.8400
1202.1900;-61.4400;-56.6600;-4.7800
1202.3890;-61.3700;-56.6200;-4.7500
1202.5890;-61.3700;-56.5700;-4.8000
1202.7880;-61.3200;-56.5200;-4.8000
1202.9870;-61.2800;-56.4600;-4.8200
1203.1860;-61.2100;-56.4100;-4.8000
1203.3850;-61.1400;-56.3700;-4.7700
1203.5840;-61.1400;-56.3200;-4.8200
1203.7830;-61.1500;-56.2800;-4.8700
1203.9820;-61.0800;-56.2400;-4.8400
1204.1810;-61.0200;-56.1900;-4.8300
1204.3810;-61.0400;-56.1700;-4.8700
1204.5800;-61.0600;-56.1300;-4.9300
1204.7790;-61.0700;-56.0900;-4.9800
1204.9780;-61.0300;-56.0600;-4.9700
1205.1770;-61.0400;-56.0400;-5.0000
1205.3760;-61.0900;-56.0100;-5.0800
1205.5750;-61.1300;-55.9900;-5.1400
1205.7740;-61.1300;-55.9800;-5.1500
1205.9740;-61.1600;-55.9500;-5.2100
1206.1730;-61.2300;-55.9400;-5.2900
1206.3720;-61.2400;-55.9300;-5.3100
1206.5710;-61.2300;-55.9100;-5.3200
1206.7700;-61.2400;-55.8800;-5.3600
1206.9690;-61.2600;-55.8600;-5.4000
1207.1680;-61.2800;-55.8300;-5.4500
1207.3670;-61.2200;-55.8100;-5.4100
1207.5660;-61.1400;-55.7800;-5.3600
1207.7660;-61.1100;-55.7500;-5.3600
1207.9650;-61.0900;-55.7100;-5.3800
1208.1640;-60.9800;-55.6800;-5.3000
1208.3630;-60.8900;-55.6600;-5.2300
1208.5620;-60.7900;-55.6000;-5.1900
1208.7610;-60.7300;-55.5600;-5.1700
1208.9600;-60.6400;-55.5100;-5.1300
1209.1590;-60.4800;-55.4500;-5.0300
1209.3580;-60.4000;-55.4100;-4.9900
1209.5580;-60.3400;-55.3600;-4.9800
1209.7570;-60.2700;-55.3100;-4.9600
1209.9560;-60.1500;-55.2600;-4.8900
1210.1550;-60.0800;-55.2100;-4.8700
1210.3540;-60.0200;-55.1800;-4.8400
1210.5530;-59.9600;-55.1100;-4.8500
1210.7520;-59.9100;-55.0700;-4.8400
1210.9510;-59.8400;-55.0300;-4.8100
1211.1500;-59.7900;-54.9800;-4.8100
1211.3500;-59.8200;-54.9500;-4.8700
1211.5490;-59.8000;-54.9100;-4.8900
1211.7480;-59.7700;-54.8700;-4.9000
1211.9470;-59.7800;-54.8400;-4.9400
1212.1460;-59.8300;-54.8100;-5.0200
1212.3450;-59.8400;-54.7800;-5.0600
1212.5440;-59.8800;-54.7600;-5.1200
1212.7430;-59.8900;-54.7400;-5.1500
1212.9430;-59.9600;-54.7100;-5.2500
1213.1420;-60.0200;-54.6700;-5.3500
1213.3410;-60.0300;-54.6500;-5.3800
1213.5400;-60.0200;-54.6200;-5.4000
1213.7390;-60.0800;-54.6000;-5.4800
1213.9380;-60.1100;-54.5600;-5.5500
1214.1370;-60.0600;-54.5300;-5.5300
1214.3360;-60.0200;-54.5100;-5.5100
1214.5350;-60.0000;-54.4600;-5.5400
1214.7350;-59.9700;-54.4300;-5.5400
1214.9340;-59.8800;-54.3900;-5.4900
1215.1330;-59.7800;-54.3400;-5.4400
1215.3320;-59.7100;-54.3000;-5.4100
1215.5310;-59.6200;-54.2500;-5.3700
1215.7300;-59.5200;-54.2000;-5.3200
1215.9290;-59.3700;-54.1500;-5.2200
1216.1280;-59.2600;-54.1000;-5.1600
1216.3270;-59.1700;-54.0400;-5.1300
1216.5270;-59.0500;-53.9900;-5.0600
1216.7260;-58.9200;-53.9300;-4.9900
1216.9250;-58.7900;-53.8800;-4.9100
1217.1240;-58.6700;-53.8100;-4.8600
1217.3230;-58.6000;-53.7700;-4.8300
1217.5220;-58.5100;-53.7200;-4.7900
1217.7210;-58.4100;-53.6700;-4.7400
1217.9200;-58.3500;-53.6200;-4.7300
1218.1200;-58.3100;-53.5700;-4.7400
1218.3190;-58.2800;-53.5300;-4.7500
1218.5180;-58.2500;-53.4800;-4.7700
1218.7170;-58.2600;-53.4500;-4.8100
1218.9160;-58.3000;-53.4100;-4.8900
1219.1150;-58.3100;-53.3600;-4.9500
1219.3140;-58.3600;-53.3500;-5.0100
1219.5130;-58.4200;-53.3200;-5.1000
1219.7120;-58.5100;-53.2800;-5.2300
1219.9120;-58.5600;-53.2400;-5.3200
1220.1110;-58.6100;-53.2100;-5.4000
1220.3100;-58.6700;-53.1800;-5.4900
1220.5090;-58.7600;-53.1400;-5.6200
1220.7080;-58.7900;-53.1100;-5.6800
1220.9070;-58.7800;-53.0700;-5.7100
1221.1060;-58.7900;-53.0200;-5.7700
1221.3050;-58.8100;-52.9800;-5.8300
1221.5040;-58.7500;-52.9100;-5.8400
1221.7040;-58.6800;-52.8700;-5.8100
1221.9030;-58.5900;-52.8100;-5.7800
1222.1020;-58.5100;-52.7400;-5.7700
1222.3010;-58.4100;-52.7000;-5.7100
1222.5000;-58.2300;-52.6200;-5.6100
1222.6990;-58.0900;-52.5600;-5.5300
1222.8980;-57.9700;-52.4900;-5.4800
1223.0970;-57.8100;-52.4200;-5.3900
1223.2970;-57.6400;-52.3700;-5.2700
1223.4960;-57.4400;-52.2800;-5.1600
1223.6950;-57.3100;-52.2200;-5.0900
1223.8940;-57.1500;-52.1600;-4.9900
1224.0930;-56.9700;-52.0800;-4.8900
1224.2920;-56.8300;-52.0300;-4.8000
1224.4910;-56.6800;-51.9500;-4.7300
1224.6900;-56.5700;-51.8900;-4.6800
1224.8890;-56.4200;-51.8300;-4.5900
1225.0890;-56.3200;-51.7700;-4.5500
1225.2880;-56.2500;-51.7200;-4.5300
1225.4870;-56.1700;-51.6500;-4.5200
1225.6860;-56.1100;-51.6100;-4.5000
1225.8850;-56.0700;-51.5600;-4.5100
1226.0840;-56.0600;-51.5000;-4.5600
1226.2830;-56.0800;-51.4700;-4.6100
1226.4820;-56.0500;-51.4000;-4.6500
1226.6810;-56.0700;-51.3600;-4.7100
1226.8810;-56.0900;-51.3100;-4.7800
1227.0800;-56.0900;-51.2500;-4.8400
1227.2790;-56.0900;-51.2200;-4.8700
1227.4780;-56.0800;-51.1500;-4.9300
1227.6770;-56.0800;-51.1000;-4.9800
1227.8760;-56.0700;-51.0500;-5.0200
1228.0750;-56.0100;-50.9800;-5.0300
1228.2740;-55.9700;-50.9300;-5.0400
1228.4740;-55.9000;-50.8500;-5.0500
1228.6730;-55.8500;-50.7900;-5.0600
1228.8720;-55.7400;-50.7300;-5.0100
1229.0710;-55.6800;-50.6500;-5.0300
1229.2700;-55.6300;-50.5900;-5.0400
1229.4690;-55.5400;-50.5000;-5.0400
1229.6680;-55.4700;-50.4300;-5.0400
1229.8670;-55.3800;-50.3500;-5.0300
1230.0660;-55.3400;-50.2700;-5.0700
1230.2660;-55.2700;-50.2100;-5.0600
1230.4650;-55.2100;-50.1100;-5.1000
1230.6640;-55.1900;-50.0300;-5.1600
1230.8630;-55.1800;-49.9800;-5.2000
1231.0620;-55.1600;-49.9000;-5.2600
1231.2610;-55.1700;-49.8500;-5.3200
1231.4600;-55.2000;-49.7900;-5.4100
1231.6590;-55.2500;-49.7200;-5.5300
1231.8580;-55.2800;-49.6600;-5.6200
1232.0580;-55.3400;-49.6000;-5.7400
1232.2570;-55.4100;-49.5500;-5.8600
1232.4560;-55.4900;-49.4900;-6.0000
1232.6550;-55.5600;-49.4400;-6.1200
1232.8540;-55.6100;-49.3700;-6.2400
1233.0530;-55.6900;-49.3200;-6.3700
1233.2520;-55.7300;-49.2800;-6.4500
1233.4510;-55.7400;-49.2100;-6.5300
1233.6500;-55.7400;-49.1700;-6.5700
1233.8500;-55.7000;-49.1000;-6.6000
1234.0490;-55.6400;-49.0400;-6.6000
1234.2480;-55.5200;-48.9800;-6.5400
1234.4470;-55.3700;-48.9000;-6.4700
1234.6460;-55.2300;-48.8500;-6.3800
1234.8450;-55.0400;-48.7800;-6.2600
1235.0440;-54.8300;-48.7000;-6.1300
1235.2430;-54.6100;-48.6300;-5.9800
1235.4430;-54.4000;-48.5400;-5.8600
1235.6420;-54.2000;-48.4800;-5.7200
1235.8410;-53.9600;-48.3800;-5.5800
1236.0400;-53.7700;-48.3000;-5.4700
1236.2390;-53.5800;-48.2100;-5.3700
1236.4380;-53.4000;-48.1100;-5.2900
1236.6370;-53.2400;-48.0400;-5.2000
1236.8360;-53.0900;-47.9400;-5.1500
1237.0350;-53.0000;-47.8600;-5.1400
1237.2350;-52.8800;-47.7700;-5.1100
1237.4340;-52.7700;-47.6800;-5.0900
1237.6330;-52.7300;-47.6100;-5.1200
1237.8320;-52.6800;-47.5200;-5.1600
1238.0310;-52.6300;-47.4400;-5.1900
1238.2300;-52.6000;-47.3600;-5.2400
1238.4290;-52.5900;-47.2700;-5.3200
1238.6280;-52.6000;-47.2100;-5.3900
1238.8270;-52.5900;-47.1200;-5.4700
1239.0270;-52.6100;-47.0600;-5.5500
1239.2260;-52.6100;-46.9600;-5.6500
1239.4250;-52.6100;-46.8800;-5.7300
1239.6240;-52.6000;-46.8100;-5.7900
1239.8230;-52.5700;-46.7200;-5.8500
1240.0220;-52.5600;-46.6500;-5.9100
1240.2210;-52.4800;-46.5400;-5.9400
1240.4200;-52.4000;-46.4500;-5.9500
1240.6200;-52.3200;-46.3700;-5.9500
1240.8190;-52.1900;-46.2600;-5.9300
1241.0180;-52.0600;-46.1600;-5.9000
1241.2170;-51.9000;-46.0400;-5.8600
1241.4160;-51.7600;-45.9100;-5.8500
1241.6150;-51.6000;-45.8000;-5.8000
1241.8140;-51.4400;-45.6900;-5.7500
1242.0130;-51.3100;-45.5700;-5.7400
1242.2120;-51.1800;-45.4400;-5.7400
1242.4120;-51.0700;-45.3300;-5.7400
1242.6110;-50.9600;-45.1800;-5.7800
1242.8100;-50.8700;-45.0600;-5.8100
1243.0090;-50.8000;-44.9200;-5.8800
1243.2080;-50.7400;-44.8000;-5.9400
1243.4070;-50.6900;-44.6800;-6.0100
1243.6060;-50.6400;-44.5300;-6.1100
1243.8050;-50.6000;-44.4100;-6.1900
1244.0040;-50.5600;-44.2800;-6.2800
1244.2040;-50.4900;-44.1500;-6.3400
1244.4030;-50.4300;-44.0300;-6.4000
1244.6020;-50.3300;-43.8800;-6.4500
1244.8010;-50.2100;-43.7600;-6.4500
1245.0000;-50.0900;-43.6400;-6.4500
1245.1990;-49.9200;-43.5100;-6.4100
1245.3980;-49.7300;-43.4000;-6.3300
1245.5970;-49.5100;-43.2500;-6.2600
1245.7970;-49.2800;-43.1300;-6.1500
1245.9960;-49.0400;-42.9900;-6.0500
1246.1950;-48.7700;-42.8500;-5.9200
1246.3940;-48.5100;-42.7300;-5.7800
1246.5930;-48.2400;-42.5700;-5.6700
1246.7920;-47.9700;-42.4300;-5.5400
1246.9910;-47.7200;-42.2800;-5.4400
1247.1900;-47.4700;-42.1200;-5.3500
1247.3890;-47.2600;-41.9800;-5.2800
1247.5890;-47.0500;-41.8100;-5.2400
1247.7880;-46.8700;-41.6600;-5.2100
1247.9870;-46.7300;-41.4900;-5.2400
1248.1860;-46.6000;-41.3300;-5.2700
1248.3850;-46.5200;-41.1800;-5.3400
1248.5840;-46.4600;-41.0000;-5.4600
1248.7830;-46.4400;-40.8400;-5.6000
1248.9820;-46.4700;-40.6800;-5.7900
1249.1810;-46.5000;-40.5200;-5.9800
1249.3810;-46.5800;-40.3600;-6.2200
1249.5800;-46.6500;-40.1800;-6.4700
1249.7790;-46.7300;-40.0300;-6.7000
1249.9780;-46.8100;-39.8600;-6.9500
1250.1770;-46.8500;-39.7000;-7.1500
1250.3760;-46.8500;-39.5600;-7.2900
1250.5750;-46.7800;-39.3900;-7.3900
1250.7740;-46.6300;-39.2300;-7.4000
1250.9740;-46.4100;-39.0900;-7.3200
1251.1730;-46.0600;-38.9300;-7.1300
1251.3720;-45.5900;-38.7900;-6.8000
1251.5710;-45.2000;-38.6400;-6.5600
1251.7700;-44.6900;-38.4900;-6.2000
1251.9690;-44.1300;-38.3300;-5.8000
1252.1680;-43.5600;-38.1700;-5.3900
1252.3670;-43.0100;-38.0300;-4.9800
1252.5660;-42.4700;-37.8700;-4.6000
1252.7660;-41.9500;-37.7100;-4.2400
1252.9650;-41.4600;-37.5600;-3.9000
1253.1640;-41.0000;-37.3900;-3.6100
1253.3630;-40.5800;-37.2400;-3.3400
1253.5620;-40.2100;-37.0800;-3.1300
1253.7610;-39.8900;-36.9200;-2.9700
1253.9600;-39.6000;-36.7600;-2.8400
1254.1590;-39.3600;-36.5900;-2.7700
1254.3580;-39.1800;-36.4400;-2.7400
1254.5580;-39.0500;-36.2700;-2.7800
1254.7570;-38.9900;-36.1200;-2.8700
1254.9560;-38.9600;-35.9500;-3.0100
1255.1550;-39.0100;-35.7800;-3.2300
1255.3540;-39.1100;-35.6400;-3.4700
1255.5530;-39.2800;-35.4900;-3.7900
1255.7520;-39.5200;-35.3400;-4.1800
1255.9510;-39.8000;-35.1700;-4.6300
1256.1500;-40.1800;-35.0400;-5.1400
1256.3500;-40.6000;-34.8700;-5.7300
1256.5490;-41.0800;-34.7200;-6.3600
1256.7480;-41.6200;-34.5700;-7.0500
1256.9470;-42.1600;-34.4200;-7.7400
1257.1460;-42.6900;-34.2700;-8.4200
1257.3450;-43.1600;-34.1000;-9.0600
1257.5440;-43.4900;-33.9600;-9.5300
1257.7430;-43.6100;-33.8100;-9.8000
1257.9430;-43.4300;-33.6500;-9.7800
1258.1420;-43.0000;-33.5100;-9.4900
1258.3410;-42.3300;-33.3400;-8.9900
1258.5400;-41.5300;-33.1900;-8.3400
1258.7390;-40.6600;-33.0300;-7.6300
1258.9380;-39.7600;-32.8700;-6.8900
1259.1370;-38.9200;-32.7300;-6.1900
1259.3360;-38.1000;-32.5600;-5.5400
1259.5350;-37.3500;-32.4200;-4.9300
1259.7350;-36.6700;-32.2700;-4.4000
1259.9340;-36.0300;-32.1100;-3.9200
1260.1330;-35.4000;-31.9700;-3.4300
1260.3320;-35.0000;-31.8100;-3.1900
1260.5310;-34.6000;-31.6800;-2.9200
1260.7300;-34.2400;-31.5300;-2.7100
1260.9290;-33.9500;-31.3800;-2.5700
1261.1280;-33.7300;-31.2500;-2.4800
1261.3270;-33.5700;-31.0900;-2.4800
1261.5270;-33.4900;-30.9700;-2.5200
1261.7260;-33.4500;-30.8200;-2.6300
1261.9250;-33.4900;-30.6800;-2.8100
1262.1240;-33.5900;-30.5500;-3.0400
1262.3230;-33.7500;-30.4000;-3.3500
1262.5220;-33.9900;-30.2700;-3.7200
1262.7210;-34.2700;-30.1300;-4.1400
1262.9200;-34.6200;-29.9800;-4.6400
1263.1200;-35.0400;-29.8500;-5.1900
1263.3190;-35.4900;-29.6900;-5.8000
1263.5180;-36.0100;-29.5600;-6.4500
1263.7170;-36.5100;-29.4100;-7.1000
1263.9160;-36.9900;-29.2600;-7.7300
1264.1150;-37.4000;-29.1300;-8.2700
1264.3140;-37.6300;-28.9600;-8.6700
1264.5130;-37.6700;-28.8300;-8.8400
1264.7120;-37.4200;-28.6800;-8.7400
1264.9120;-36.9300;-28.5300;-8.4000
1265.1110;-36.2600;-28.3900;-7.8700
1265.3100;-35.4700;-28.2300;-7.2400
1265.5090;-34.6600;-28.1000;-6.5600
1265.7080;-33.8300;-27.9500;-5.8800
1265.9070;-33.0500;-27.8100;-5.2400
1266.1060;-32.3200;-27.6800;-4.6400
1266.3050;-31.6600;-27.5400;-4.1200
1266.5040;-31.0800;-27.4200;-3.6600
1266.7040;-30.5500;-27.2900;-3.2600
1266.9030;-30.1000;-27.1600;-2.9400
1267.1020;-29.7200;-27.0400;-2.6800
1267.3010;-29.4100;-26.9100;-2.5000
1267.5000;-29.1900;-26.8000;-2.3900
1267.6990;-29.0100;-26.6800;-2.3300
1267.8980;-28.9100;-26.5600;-2.3500
1268.0970;-28.8900;-26.4600;-2.4300
1268.2970;-28.9200;-26.3300;-2.5900
1268.4960;-29.0500;-26.2300;-2.8200
1268.6950;-29.2200;-26.0800;-3.1400
1268.8940;-29.4800;-25.9900;-3.4900
1269.0930;-29.8300;-25.8800;-3.9500
1269.2920;-30.2500;-25.7500;-4.5000
1269.4910;-30.8000;-25.6500;-5.1500
1269.6900;-31.4300;-25.5100;-5.9200
1269.8890;-32.1800;-25.3900;-6.7900
1270.0890;-33.0500;-25.2600;-7.7900
1270.2880;-34.0400;-25.1300;-8.9100
1270.4870;-35.1600;-25.0300;-10.1300
1270.6860;-36.2700;-24.8900;-11.3800
1270.8850;-37.2000;-24.7600;-12.4400
1271.0840;-37.5900;-24.6300;-12.9600
1271.2830;-37.1900;-24.5100;-12.6800
1271.4820;-36.1700;-24.3900;-11.7800
1271.6810;-34.8200;-24.2600;-10.5600
1271.8810;-33.4400;-24.1500;-9.2900
1272.0800;-32.1300;-24.0300;-8.1000
1272.2790;-30.9500;-23.9100;-7.0400
1272.4780;-29.9300;-23.8200;-6.1100
1272.6770;-29.0100;-23.7000;-5.3100
1272.8760;-28.2200;-23.6100;-4.6100
1273.0750;-27.5100;-23.5000;-4.0100
1273.2740;-26.9100;-23.4000;-3.5100
1273.4740;-26.4000;-23.3200;-3.0800
1273.6730;-25.8700;-23.2100;-2.6600
1273.8720;-25.5900;-23.1300;-2.4600
1274.0710;-25.2900;-23.0300;-2.2600
1274.2700;-25.0600;-22.9300;-2.1300
1274.4690;-24.8700;-22.8500;-2.0200
1274.6680;-24.7500;-22.7500;-2.0000
1274.8670;-24.6900;-22.6600;-2.0300
1275.0660;-24.6800;-22.5600;-2.1200
1275.2660;-24.7400;-22.4700;-2.2700
1275.4650;-24.8400;-22.3800;-2.4600
1275.6640;-25.0100;-22.2700;-2.7400
1275.8630;-25.2500;-22.1800;-3.0700
1276.0620;-25.5400;-22.0700;-3.4700
1276.2610;-25.9000;-21.9700;-3.9300
1276.4600;-26.2900;-21.8700;-4.4200
1276.6590;-26.7400;-21.7500;-4.9900
1276.8580;-27.2300;-21.6600;-5.5700
1277.0580;-27.7400;-21.5400;-6.2000
1277.2570;-28.3500;-21.4500;-6.9000
1277.4560;-28.7100;-21.3500;-7.3600
1277.6550;-29.0600;-21.2400;-7.8200
1277.8540;-29.2400;-21.1600;-8.0800
1278.0530;-29.2400;-21.0500;-8.1900
1278.2520;-29.0000;-20.9600;-8.0400
1278.4510;-28.6000;-20.8700;-7.7300
1278.6500;-28.0600;-20.7700;-7.2900
1278.8500;-27.4300;-20.7000;-6.7300
1279.0490;-26.7900;-20.6000;-6.1900
1279.2480;-26.0100;-20.5200;-5.4900
1279.4470;-25.5000;-20.4400;-5.0600
1279.6460;-24.9100;-20.3500;-4.5600
1279.8450;-24.3600;-20.2800;-4.0800
1280.0440;-23.8600;-20.1900;-3.6700
1280.2430;-23.4000;-20.1300;-3.2700
1280.4430;-23.0100;-20.0400;-2.9700
1280.6420;-22.6400;-19.9700;-2.6700
1280.8410;-22.3400;-19.9000;-2.4400
1281.0400;-22.0800;-19.8200;-2.2600
1281.2390;-21.8600;-19.7500;-2.1100
1281.4380;-21.7000;-19.6700;-2.0300
1281.6370;-21.5500;-19.6000;-1.9500
1281.8360;-21.4500;-19.5300;-1.9200
1282.0350;-21.3900;-19.4500;-1.9400
1282.2350;-21.3600;-19.3900;-1.9700
1282.4340;-21.3700;-19.3000;-2.0700
1282.6330;-21.3900;-19.2400;-2.1500
1282.8320;-21.4400;-19.1700;-2.2700
1283.0310;-21.4900;-19.0900;-2.4000
1283.2300;-21.5500;-19.0200;-2.5300
1283.4290;-21.6200;-18.9400;-2.6800
1283.6280;-21.6700;-18.8700;-2.8000
1283.8270;-21.7100;-18.8000;-2.9100
1284.0270;-21.7100;-18.7200;-2.9900
1284.2260;-21.6900;-18.6600;-3.0300
1284.4250;-21.6600;-18.5800;-3.0800
1284.6240;-21.5700;-18.5100;-3.0600
1284.8230;-21.4600;-18.4300;-3.0300
1285.0220;-21.3200;-18.3600;-2.9600
1285.2210;-21.1400;-18.3000;-2.8400
1285.4200;-20.9700;-18.2200;-2.7500
1285.6200;-20.7600;-18.1600;-2.6000
1285.8190;-20.5800;-18.1000;-2.4800
1286.0180;-20.3700;-18.0300;-2.3400
1286.2170;-20.1800;-17.9800;-2.2000
1286.4160;-20.0200;-17.9100;-2.1100
1286.6150;-19.8600;-17.8800;-1.9800
1286.8140;-19.7400;-17.8200;-1.9200
1287.0130;-19.6200;-17.7600;-1.8600
1287.2120;-19.5300;-17.7200;-1.8100
1287.4120;-19.4900;-17.6600;-1.8300
1287.6110;-19.4600;-17.6300;-1.8300
1287.8100;-19.4800;-17.5700;-1.9100
1288.0090;-19.5100;-17.5200;-1.9900
1288.2080;-19.5700;-17.4800;-2.0900
1288.4070;-19.6600;-17.4300;-2.2300
1288.6060;-19.7700;-17.4000;-2.3700
1288.8050;-19.9100;-17.3400;-2.5700
1289.0040;-20.0400;-17.3000;-2.7400
1289.2040;-20.1900;-17.2500;-2.9400
1289.4030;-20.3200;-17.1900;-3.1300
1289.6020;-20.4400;-17.1600;-3.2800
1289.8010;-20.5400;-17.0900;-3.4500
1290.0000;-20.5900;-17.0400;-3.5500
1290.1990;-20.6000;-16.9900;-3.6100
1290.3980;-20.5500;-16.9300;-3.6200
1290.5970;-20.4600;-16.8900;-3.5700
1290.7970;-20.3200;-16.8200;-3.5000
1290.9960;-20.1000;-16.7600;-3.3400
1291.1950;-19.8700;-16.7000;-3.1700
1291.3940;-19.6100;-16.6400;-2.9700
1291.5930;-19.3200;-16.5800;-2.7400
1291.7920;-19.0400;-16.5200;-2.5200
1291.9910;-18.7600;-16.4800;-2.2800
1292.1900;-18.5100;-16.4200;-2.0900
1292.3890;-18.2500;-16.3800;-1.8700
1292.5890;-18.0300;-16.3300;-1.7000
1292.7880;-17.8500;-16.2800;-1.5700
1292.9870;-17.7000;-16.2500;-1.4500
1293.1860;-17.6000;-16.2100;-1.3900
1293.3850;-17.5300;-16.1800;-1.3500
1293.5840;-17.5000;-16.1400;-1.3600
1293.7830;-17.5100;-16.1200;-1.3900
1293.9820;-17.5800;-16.0900;-1.4900
1294.1810;-17.7100;-16.0700;-1.6400
1294.3810;-17.8800;-16.0600;-1.8200
1294.5800;-18.1000;-16.0200;-2.0800
1294.7790;-18.3800;-16.0100;-2.3700
1294.9780;-18.7300;-15.9800;-2.7500
1295.1770;-19.1400;-15.9600;-3.1800
1295.3760;-19.6100;-15.9400;-3.6700
1295.5750;-20.1500;-15.9000;-4.2500
1295.7740;-20.7500;-15.8900;-4.8600
1295.9740;-21.4200;-15.8400;-5.5800
1296.1730;-22.1700;-15.8200;-6.3500
1296.3720;-22.9300;-15.7900;-7.1400
1296.5710;-23.7000;-15.7400;-7.9600
1296.7700;-24.3900;-15.7200;-8.6700
1296.9690;-24.9200;-15.6800;-9.2400
1297.1680;-25.1800;-15.6500;-9.5300
1297.3670;-25.1000;-15.6100;-9.4900
1297.5660;-24.7100;-15.5600;-9.1500
1297.7660;-24.0600;-15.5400;-8.5200
1297.9650;-23.3000;-15.4900;-7.8100
1298.1640;-22.4700;-15.4600;-7.0100
1298.3630;-21.6600;-15.4300;-6.2300
1298.5620;-20.8900;-15.3800;-5.5100
1298.7610;-20.1800;-15.3600;-4.8200
1298.9600;-19.5600;-15.3300;-4.2300
1299.1590;-18.9900;-15.3200;-3.6700
1299.3580;-18.4900;-15.2900;-3.2000
1299.5580;-18.0600;-15.2600;-2.8000
1299.7570;-17.6800;-15.2500;-2.4300
1299.9560;-17.3800;-15.2400;-2.1400
1300.1550;-17.1200;-15.2400;-1.8800
1300.3540;-16.9300;-15.2200;-1.7100
1300.5530;-16.7700;-15.2100;-1.5600
1300.7520;-16.6800;-15.2100;-1.4700
1300.9510;-16.6500;-15.2000;-1.4500
1301.1500;-16.6600;-15.2200;-1.4400
1301.3500;-16.7200;-15.2100;-1.5100
1301.5490;-16.8300;-15.2200;-1.6100
1301.7480;-16.9800;-15.2200;-1.7600
1301.9470;-17.2000;-15.2200;-1.9800
1302.1460;-17.4500;-15.2400;-2.2100
1302.3450;-17.7700;-15.2300;-2.5400
1302.5440;-18.1400;-15.2500;-2.8900
1302.7430;-18.5600;-15.2400;-3.3200
1302.9430;-19.0400;-15.2400;-3.8000
1303.1420;-19.5900;-15.2600;-4.3300
1303.3410;-20.2000;-15.2500;-4.9500
1303.5400;-20.8700;-15.2700;-5.6000
1303.7390;-21.6100;-15.2500;-6.3600
1303.9380;-22.4100;-15.2600;-7.1500
1304.1370;-23.2800;-15.2700;-8.0100
1304.3360;-24.2100;-15.2700;-8.9400
1304.5350;-25.1600;-15.2800;-9.8800
1304.7350;-26.1000;-15.2700;-10.8300
1304.9340;-26.9500;-15.2800;-11.6700
1305.1330;-27.6500;-15.2800;-12.3700
1305.3320;-28.0900;-15.2800;-12.8100
1305.5310;-28.2300;-15.3100;-12.9200
1305.7300;-28.0300;-15.3000;-12.7300
1305.9290;-27.5900;-15.3100;-12.2800
1306.1280;-27.0300;-15.3200;-11.7100
1306.3270;-26.3700;-15.3300;-11.0400
1306.5270;-25.6300;-15.3600;-10.2700
1306.7260;-25.1000;-15.3700;-9.7300
1306.9250;-24.5100;-15.3900;-9.1200
1307.1240;-23.9700;-15.4000;-8.5700
1307.3230;-23.4500;-15.4200;-8.0300
1307.5220;-23.0000;-15.4600;-7.5400
1307.7210;-22.5500;-15.4700;-7.0800
1307.9200;-22.1500;-15.4900;-6.6600
1308.1200;-21.7700;-15.5200;-6.2500
1308.3190;-21.4100;-15.5400;-5.8700
1308.5180;-21.0800;-15.5700;-5.5100
1308.7170;-20.7400;-15.5900;-5.1500
1308.9160;-20.4300;-15.6200;-4.8100
1309.1150;-20.1100;-15.6400;-4.4700
1309.3140;-19.8100;-15.6700;-4.1400
1309.5130;-19.5500;-15.7000;-3.8500
1309.7120;-19.2700;-15.7100;-3.5600
1309.9120;-19.0300;-15.7500;-3.2800
1310.1110;-18.7900;-15.7700;-3.0200
1310.3100;-18.5700;-15.8000;-2.7700
1310.5090;-18.3800;-15.8200;-2.5600
1310.7080;-18.2000;-15.8400;-2.3600
1310.9070;-18.0700;-15.8800;-2.1900
1311.1060;-17.9600;-15.9100;-2.0500
1311.3050;-17.8800;-15.9400;-1.9400
1311.5040;-17.8400;-15.9800;-1.8600
1311.7040;-17.8300;-16.0100;-1.8200
1311.9030;-17.8700;-16.0500;-1.8200
1312.1020;-17.9300;-16.0800;-1.8500
1312.3010;-18.0500;-16.1400;-1.9100
1312.5000;-18.2100;-16.1800;-2.0300
1312.6990;-18.4200;-16.2300;-2.1900
1312.8980;-18.6800;-16.2700;-2.4100
1313.0970;-18.9900;-16.3200;-2.6700
1313.2970;-19.3700;-16.3800;-2.9900
1313.4960;-19.8000;-16.4400;-3.3600
1313.6950;-20.3000;-16.5000;-3.8000
1313.8940;-20.8700;-16.5400;-4.3300
1314.0930;-21.5200;-16.6100;-4.9100
1314.2920;-22.2500;-16.6700;-5.5800
1314.4910;-23.0400;-16.7300;-6.3100
1314.6900;-23.9200;-16.8000;-7.1200
1314.8890;-24.8400;-16.8400;-8.0000
1315.0890;-25.7800;-16.9000;-8.8800
1315.2880;-26.6600;-16.9500;-9.7100
1315.4870;-27.3400;-17.0100;-10.3300
1315.6860;-27.6900;-17.0800;-10.6100
1315.8850;-27.6100;-17.1200;-10.4900
1316.0840;-27.1600;-17.1800;-9.9800
1316.2830;-26.4400;-17.2300;-9.2100
1316.4820;-25.6100;-17.2900;-8.3200
1316.6810;-24.7700;-17.3500;-7.4200
1316.8810;-23.9500;-17.4000;-6.5500
1317.0800;-23.2200;-17.4900;-5.7300
1317.2790;-22.5500;-17.5300;-5.0200
1317.4780;-21.9700;-17.6100;-4.3600
1317.6770;-21.4800;-17.6700;-3.8100
1317.8760;-21.0300;-17.7300;-3.3000
1318.0750;-20.6900;-17.8000;-2.8900
1318.2740;-20.3900;-17.8600;-2.5300
1318.4740;-20.1700;-17.9400;-2.2300
1318.6730;-20.0300;-18.0200;-2.0100
1318.8720;-19.9200;-18.0900;-1.8300
1319.0710;-19.9100;-18.1800;-1.7300
1319.2700;-19.9200;-18.2500;-1.6700
1319.4690;-20.0000;-18.3500;-1.6500
1319.6680;-20.1400;-18.4300;-1.7100
1319.8670;-20.3300;-18.5500;-1.7800
1320.0660;-20.5900;-18.6100;-1.9800
1320.2660;-20.8800;-18.7100;-2.1700
1320.4650;-21.2500;-18.8000;-2.4500
1320.6640;-21.6700;-18.9000;-2.7700
1320.8630;-22.1300;-18.9900;-3.1400
1321.0620;-22.6600;-19.0800;-3.5800
1321.2610;-23.2300;-19.1900;-4.0400
1321.4600;-23.8400;-19.2700;-4.5700
1321.6590;-24.4700;-19.3700;-5.1000
1321.8580;-25.1000;-19.4700;-5.6300
1322.0580;-25.7000;-19.5600;-6.1400
1322.2570;-26.2200;-19.6700;-6.5500
1322.4560;-26.6500;-19.7500;-6.9000
1322.6550;-26.8900;-19.8500;-7.0400
1322.8540;-26.9700;-19.9500;-7.0200
1323.0530;-26.8600;-20.0500;-6.8100
1323.2520;-26.6100;-20.1700;-6.4400
1323.4510;-26.2600;-20.2600;-6.0000
1323.6500;-25.8500;-20.3700;-5.4800
1323.8500;-25.4400;-20.4700;-4.9700
1324.0490;-25.0300;-20.5800;-4.4500
1324.2480;-24.6500;-20.7000;-3.9500
1324.4470;-24.3200;-20.8000;-3.5200
1324.6460;-24.0300;-20.9200;-3.1100
1324.8450;-23.8200;-21.0300;-2.7900
1325.0440;-23.6400;-21.1500;-2.4900
1325.2430;-23.5300;-21.2800;-2.2500
1325.4430;-23.4800;-21.4000;-2.0800
1325.6420;-23.4900;-21.5500;-1.9400
1325.8410;-23.5600;-21.6700;-1.8900
1326.0400;-23.6800;-21.8000;-1.8800
1326.2390;-23.8800;-21.9400;-1.9400
1326.4380;-24.1100;-22.0700;-2.0400
1326.6370;-24.4200;-22.2200;-2.2000
1326.8360;-24.8000;-22.3400;-2.4600
1327.0350;-25.2400;-22.4800;-2.7600
1327.2350;-25.7700;-22.6200;-3.1500
1327.4340;-26.3500;-22.7500;-3.6000
1327.6330;-27.0300;-22.9000;-4.1300
1327.8320;-27.7800;-23.0200;-4.7600
1328.0310;-28.8000;-23.1700;-5.6300
1328.2300;-29.5800;-23.3000;-6.2800
1328.4290;-30.6300;-23.4400;-7.1900
1328.6280;-31.7800;-23.5800;-8.2000
1328.8270;-32.9600;-23.7100;-9.2500
1329.0270;-34.1600;-23.8600;-10.3000
1329.2260;-35.1900;-23.9800;-11.2100
1329.4250;-35.8900;-24.1200;-11.7700
1329.6240;-36.0800;-24.2500;-11.8300
1329.8230;-35.7600;-24.3800;-11.3800
1330.0220;-35.1000;-24.5300;-10.5700
1330.2210;-34.2700;-24.6600;-9.6100
1330.4200;-33.4200;-24.8000;-8.6200
1330.6200;-32.6300;-24.9300;-7.7000
1330.8190;-31.9200;-25.0800;-6.8400
1331.0180;-31.3300;-25.2300;-6.1000
1331.2170;-30.8200;-25.3800;-5.4400
1331.4160;-30.4100;-25.5400;-4.8700
1331.6150;-30.0800;-25.6800;-4.4000
1331.8140;-29.8300;-25.8400;-3.9900
1332.0130;-29.6700;-26.0000;-3.6700
1332.2120;-29.5700;-26.1500;-3.4200
1332.4120;-29.5500;-26.3300;-3.2200
1332.6110;-29.5900;-26.4900;-3.1000
1332.8100;-29.6800;-26.6600;-3.0200
1333.0090;-29.8400;-26.8200;-3.0200
1333.2080;-30.0400;-26.9900;-3.0500
1333.4070;-30.3000;-27.1600;-3.1400
1333.6060;-30.5900;-27.3300;-3.2600
1333.8050;-30.9400;-27.5100;-3.4300
1334.0040;-31.3100;-27.6600;-3.6500
1334.2040;-31.7100;-27.8400;-3.8700
1334.4030;-32.1300;-28.0100;-4.1200
1334.6020;-32.5300;-28.1600;-4.3700
1334.8010;-32.9500;-28.3400;-4.6100
1335.0000;-33.3200;-28.5400;-4.7800
1335.1990;-33.6500;-28.6800;-4.9700
1335.3980;-33.9200;-28.8300;-5.0900
1335.5970;-34.1000;-29.0100;-5.0900
1335.7970;-34.2300;-29.1700;-5.0600
1335.9960;-34.2600;-29.3400;-4.9200
1336.1950;-34.2400;-29.5100;-4.7300
1336.3940;-34.1600;-29.6700;-4.4900
1336.5930;-34.0400;-29.8500;-4.1900
1336.7920;-33.9100;-30.0000;-3.9100
1336.9910;-33.7700;-30.1700;-3.6000
1337.1900;-33.6500;-30.3400;-3.3100
1337.3890;-33.5400;-30.5100;-3.0300
1337.5890;-33.4700;-30.6900;-2.7800
1337.7880;-33.4300;-30.8600;-2.5700
1337.9870;-33.4200;-31.0500;-2.3700
1338.1860;-33.4700;-31.2100;-2.2600
1338.3850;-33.5400;-31.3900;-2.1500
1338.5840;-33.6700;-31.5800;-2.0900
1338.7830;-33.8400;-31.7500;-2.0900
1338.9820;-34.0600;-31.9500;-2.1100
1339.1810;-34.3500;-32.1300;-2.2200
1339.3810;-34.6600;-32.3200;-2.3400
1339.5800;-35.0400;-32.5000;-2.5400
1339.7790;-35.4400;-32.6800;-2.7600
1339.9780;-35.9100;-32.8800;-3.0300
1340.1770;-36.4200;-33.0600;-3.3600
1340.3760;-36.9500;-33.2700;-3.6800
1340.5750;-37.5400;-33.4500;-4.0900
1340.7740;-38.1100;-33.6400;-4.4700
1340.9740;-38.8100;-33.8200;-4.9900
1341.1730;-39.2400;-34.0000;-5.2400
1341.3720;-39.7400;-34.1900;-5.5500
1341.5710;-40.1600;-34.3700;-5.7900
1341.7700;-40.4700;-34.5600;-5.9100
1341.9690;-40.6600;-34.7400;-5.9200
1342.1680;-40.7100;-34.9100;-5.8000
1342.3670;-40.6600;-35.0900;-5.5700
1342.5660;-40.5000;-35.2700;-5.2300
1342.7660;-40.3000;-35.4600;-4.8400
1342.9650;-40.0700;-35.6300;-4.4400
1343.1640;-39.8200;-35.8100;-4.0100
1343.3630;-39.6100;-35.9900;-3.6200
1343.5620;-39.3900;-36.1600;-3.2300
1343.7610;-39.2400;-36.3600;-2.8800
1343.9600;-39.1300;-36.5400;-2.5900
1344.1590;-39.0600;-36.7300;-2.3300
1344.3580;-39.0600;-36.9100;-2.1500
1344.5580;-39.0900;-37.1000;-1.9900
1344.7570;-39.1900;-37.3000;-1.8900
1344.9560;-39.3200;-37.4700;-1.8500
1345.1550;-39.5200;-37.6600;-1.8600
1345.3540;-39.7900;-37.8300;-1.9600
1345.5530;-40.1000;-38.0200;-2.0800
1345.7520;-40.5000;-38.2100;-2.2900
1345.9510;-40.9600;-38.3900;-2.5700
1346.1500;-41.5000;-38.6300;-2.8700
1346.3500;-42.1100;-38.7900;-3.3200
1346.5490;-42.8200;-39.0000;-3.8200
1346.7480;-43.6200;-39.1800;-4.4400
1346.9470;-44.5200;-39.3700;-5.1500
1347.1460;-45.5400;-39.5500;-5.9900
1347.3450;-46.7000;-39.7200;-6.9800
1347.5440;-48.0500;-39.9500;-8.1000
1347.7430;-50.0000;-40.1800;-9.8200
1347.9430;-51.4500;-40.4000;-11.0500
1348.1420;-53.4700;-40.5700;-12.9000
1348.3410;-55.5700;-40.7600;-14.8100
1348.5400;-57.1100;-40.9100;-16.2000
1348.7390;-57.3000;-41.0700;-16.2300
1348.9380;-56.1400;-41.2400;-14.9000
1349.1370;-54.5100;-41.3900;-13.1200
1349.3360;-52.9300;-41.5500;-11.3800
1349.5350;-51.6000;-41.7100;-9.8900
1349.7350;-50.4800;-41.8600;-8.6200
1349.9340;-49.6000;-42.0500;-7.5500
1350.1330;-48.9000;-42.2300;-6.6700
1350.3320;-48.4000;-42.4800;-5.9200
1350.5310;-47.9700;-42.6800;-5.2900
1350.7300;-47.6100;-42.8500;-4.7600
1350.9290;-47.3400;-43.0100;-4.3300
1351.1280;-47.1300;-43.1300;-4.0000
1351.3270;-47.0600;-43.3000;-3.7600
1351.5270;-47.1000;-43.4800;-3.6200
1351.7260;-47.2600;-43.7100;-3.5500
1351.9250;-47.4800;-43.9100;-3.5700
1352.1240;-47.7400;-44.0800;-3.6600
1352.3230;-48.1000;-44.2800;-3.8200
1352.5220;-48.5600;-44.4800;-4.0800
1352.7210;-49.0800;-44.6600;-4.4200
1352.9200;-49.7100;-44.8100;-4.9000
1353.1200;-50.5200;-45.0800;-5.4400
1353.3190;-51.3200;-45.2000;-6.1200
1353.5180;-52.3200;-45.3800;-6.9400
1353.7170;-53.5000;-45.5800;-7.9200
1353.9160;-54.7700;-45.6800;-9.0900
1354.1150;-56.2600;-45.8500;-10.4100
1354.3140;-58.0600;-46.0700;-11.9900
1354.5130;-60.3500;-46.2700;-14.0800
1354.7120;-61.7400;-46.5900;-15.1500
1354.9120;-62.5800;-46.8600;-15.7200
1355.1110;-61.8700;-47.0600;-14.8100
1355.3100;-60.2300;-47.1600;-13.0700
1355.5090;-58.4800;-47.1700;-11.3100
1355.7080;-57.2800;-47.4200;-9.8600
1355.9070;-55.9400;-47.6900;-8.2500
1356.1060;-55.0100;-47.8500;-7.1600
1356.3050;-54.0000;-47.9300;-6.0700
1356.5040;-53.2000;-48.0300;-5.1700
1356.7040;-52.4200;-47.9300;-4.4900
1356.9030;-51.9600;-48.0800;-3.8800
1357.1020;-51.8100;-48.5100;-3.3000
1357.3010;-51.5600;-48.6600;-2.9000
1357.5000;-51.3500;-48.8300;-2.5200
1357.6990;-51.2200;-49.0000;-2.2200
1357.8980;-51.0900;-49.0700;-2.0200
1358.0970;-51.0000;-49.1200;-1.8800
1358.2970;-51.1000;-49.3000;-1.8000
1358.4960;-51.3300;-49.5200;-1.8100
1358.6950;-51.5300;-49.6600;-1.8700
1358.8940;-51.8500;-49.8200;-2.0300
1359.0930;-52.2100;-49.9700;-2.2400
1359.2920;-52.5400;-50.0300;-2.5100
1359.4910;-53.2200;-50.3900;-2.8300
1359.6900;-53.9600;-50.7000;-3.2600
1359.8890;-54.7800;-50.9000;-3.8800
1360.0890;-55.5600;-50.9500;-4.6100
1360.2880;-56.4000;-51.0100;-5.3900
1360.4870;-57.2600;-50.9900;-6.2700
1360.6860;-58.7800;-51.1700;-7.6100
1360.8850;-60.0600;-51.5100;-8.5500
1361.0840;-61.8000;-51.8000;-10.0000
1361.2830;-63.7300;-51.9900;-11.7400
1361.4820;-65.6900;-52.1300;-13.5600
1361.6810;-66.8300;-52.3600;-14.4700
1361.8810;-66.7900;-52.4800;-14.3100
1362.0800;-65.7100;-52.7100;-13.0000
1362.2790;-64.6300;-53.1200;-11.5100
1362.4780;-63.2200;-53.3500;-9.8700
1362.6770;-61.7200;-53.4900;-8.2300
1362.8760;-60.2800;-53.3600;-6.9200
1363.0750;-59.1900;-53.3200;-5.8700
1363.2740;-58.1800;-53.0700;-5.1100
1363.4740;-57.5400;-53.1500;-4.3900
1363.6730;-57.0000;-53.2300;-3.7700
1363.8720;-56.6200;-53.3700;-3.2500
1364.0710;-56.4300;-53.5900;-2.8400
1364.2700;-56.2400;-53.7800;-2.4600
1364.4690;-56.3400;-54.0900;-2.2500
1364.6680;-56.6700;-54.5900;-2.0800
1364.8670;-56.8000;-54.8200;-1.9800
1365.0660;-56.7600;-54.8100;-1.9500
1365.2660;-56.9900;-54.9800;-2.0100
1365.4650;-57.0300;-54.9400;-2.0900
1365.6640;-57.3000;-55.0100;-2.2900
1365.8630;-57.6600;-55.0800;-2.5800
1366.0620;-58.0300;-55.0800;-2.9500
1366.2610;-58.5400;-55.1000;-3.4400
1366.4600;-59.0600;-55.1900;-3.8700
1366.6590;-59.8600;-55.3600;-4.5000
1366.8580;-60.8200;-55.6300;-5.1900
1367.0580;-61.8400;-55.7800;-6.0600
1367.2570;-62.9600;-55.9100;-7.0500
1367.4560;-64.3200;-56.1700;-8.1500
1367.6550;-65.7500;-56.3800;-9.3700
1367.8540;-67.3900;-56.6800;-10.7100
1368.0530;-68.9200;-56.8000;-12.1200
1368.2520;-69.9500;-56.8100;-13.1400
1368.4510;-70.8400;-57.1300;-13.7100
1368.6500;-70.1900;-57.2400;-12.9500
1368.8500;-69.1300;-57.3800;-11.7500
1369.0490;-67.5800;-57.3500;-10.2300
1369.2480;-66.3200;-57.3400;-8.9800
1369.4470;-65.2100;-57.2800;-7.9300
1369.6460;-64.3000;-57.4000;-6.9000
1369.8450;-63.7900;-57.7300;-6.0600
1370.0440;-63.2300;-57.9200;-5.3100
1370.2430;-62.6900;-58.0800;-4.6100
1370.4430;-62.1900;-58.1300;-4.0600
1370.6420;-61.7700;-58.1900;-3.5800
1370.8410;-61.7900;-58.6200;-3.1700
1371.0400;-61.8000;-58.8100;-2.9900
1371.2390;-61.7700;-58.9800;-2.7900
1371.4380;-61.6600;-59.0300;-2.6300
1371.6370;-61.5700;-59.0200;-2.5500
1371.8360;-61.6100;-59.0300;-2.5800
1372.0350;-61.8500;-59.2400;-2.6100
1372.2350;-62.2100;-59.4500;-2.7600
1372.4340;-62.5700;-59.5800;-2.9900
1372.6330;-62.9300;-59.7100;-3.2200
1372.8320;-63.3600;-59.7700;-3.5900
1373.0310;-63.8000;-59.8200;-3.9800
1373.2300;-64.4800;-59.9800;-4.5000
1373.4290;-65.2400;-60.1800;-5.0600
1373.6280;-66.0200;-60.3000;-5.7200
1373.8270;-66.9100;-60.4400;-6.4700
1374.0270;-67.8300;-60.5500;-7.2800
1374.2260;-68.8400;-60.6800;-8.1600
1374.4250;-69.9400;-60.8800;-9.0600
1374.6240;-71.1200;-61.0400;-10.0800
1374.8230;-72.0800;-61.2800;-10.8000
1375.0220;-72.5200;-61.4500;-11.0700
1375.2210;-72.7400;-61.5800;-11.1600
1375.4200;-72.4900;-61.6900;-10.8000
1375.6200;-71.8700;-61.7900;-10.0800
1375.8190;-70.9000;-61.9200;-8.9800
1376.0180;-70.4400;-62.1300;-8.3100
1376.2170;-69.7200;-62.2900;-7.4300
1376.4160;-69.0300;-62.4300;-6.6000
1376.6150;-68.4100;-62.5700;-5.8400
1376.8140;-68.0200;-62.7600;-5.2600
1377.0130;-67.8400;-63.0000;-4.8400
1377.2120;-67.5800;-63.2300;-4.3500
1377.4120;-67.2700;-63.3200;-3.9500
1377.6110;-66.9000;-63.4600;-3.4400
1377.8100;-66.6800;-63.4800;-3.2000
1378.0090;-66.6700;-63.5200;-3.1500
1378.2080;-66.7100;-63.7000;-3.0100
1378.4070;-66.7800;-63.8900;-2.8900
1378.6060;-67.1000;-64.1800;-2.9200
1378.8050;-67.4300;-64.4700;-2.9600
1379.0040;-67.8300;-64.7000;-3.1300
1379.2040;-68.0300;-64.8500;-3.1800
1379.4030;-68.3100;-64.7900;-3.5200
1379.6020;-68.5700;-64.8000;-3.7700
1379.8010;-68.9800;-64.8500;-4.1300
1380.0000;-69.5100;-65.1000;-4.4100
1380.1990;-70.2400;-65.3400;-4.9000
1380.3980;-71.0800;-65.5600;-5.5200
1380.5970;-72.2600;-66.0700;-6.1900
1380.7970;-73.2300;-66.5800;-6.6500
1380.9960;-74.2900;-66.7200;-7.5700
1381.1950;-74.8400;-66.7100;-8.1300
1381.3940;-75.5900;-66.5200;-9.0700
1381.5930;-76.0500;-66.3200;-9.7300
1381.7920;-76.1700;-66.3800;-9.7900
1381.9910;-77.1600;-66.3600;-10.8000
1382.1900;-76.5500;-66.5100;-10.0400
1382.3890;-78.3000;-66.8700;-11.4300
1382.5890;-77.3500;-67.4100;-9.9400
1382.7880;-77.5800;-67.8600;-9.7200
1382.9870;-77.1600;-68.0900;-9.0700
1383.1860;-77.0500;-67.9400;-9.1100
1383.3850;-76.2500;-67.6000;-8.6500
1383.5840;-75.2300;-67.4500;-7.7800
1383.7830;-75.1500;-67.7100;-7.4400
1383.9820;-74.5400;-67.7800;-6.7600
1384.1810;-74.0900;-67.8100;-6.2800
1384.3810;-73.9500;-67.9300;-6.0200
1384.5800;-73.9100;-67.8100;-6.1000
1384.7790;-73.7400;-67.9700;-5.7700
1384.9780;-73.5700;-68.2800;-5.2900
1385.1770;-73.6200;-68.6200;-5.0000
1385.3760;-73.6100;-68.6300;-4.9800
1385.5750;-73.3800;-68.5100;-4.8700
1385.7740;-73.9300;-68.5700;-5.3600
1385.9740;-73.8000;-68.6500;-5.1500
1386.1730;-73.8800;-68.7400;-5.1400
1386.3720;-74.2500;-68.8400;-5.4100
1386.5710;-74.0900;-68.9800;-5.1100
1386.7700;-73.5800;-69.0500;-4.5300
1386.9690;-73.9200;-68.9900;-4.9300
1387.1680;-74.0100;-69.0500;-4.9600
1387.3670;-74.1800;-69.0700;-5.1100
1387.5660;-73.7700;-69.2200;-4.5500
1387.7660;-74.1600;-69.4900;-4.6700
1387.9650;-74.4300;-69.7600;-4.6700
1388.1640;-74.7800;-69.9600;-4.8200
1388.3630;-74.4400;-70.0600;-4.3800
1388.5620;-75.1900;-70.2400;-4.9500
1388.7610;-74.8900;-69.9400;-4.9500
1388.9600;-74.3100;-70.0200;-4.2900
1389.1590;-74.2000;-69.8400;-4.3600
1389.3580;-74.1800;-69.9300;-4.2500
1389.5580;-74.4700;-70.0100;-4.4600
1389.7570;-74.5200;-70.1500;-4.3700
1389.9560;-74.4100;-70.3000;-4.1100
1390.1550;-74.5600;-70.2500;-4.3100
1390.3540;-75.1700;-70.3600;-4.8100
1390.5530;-74.6300;-70.3900;-4.2400
1390.7520;-74.9000;-70.4600;-4.4400
1390.9510;-74.9700;-70.6800;-4.2900
1391.1500;-75.3700;-70.8500;-4.5200
1391.3500;-75.5800;-70.7800;-4.8000
1391.5490;-75.8100;-70.9100;-4.9000
1391.7480;-75.7700;-70.9300;-4.8400
1391.9470;-75.9800;-70.9200;-5.0600
1392.1460;-76.8200;-71.3600;-5.4600
1392.3450;-76.7700;-71.4700;-5.3000
1392.5440;-77.7100;-71.9400;-5.7700
1392.7430;-79.1100;-72.0600;-7.0500
1392.9430;-78.3200;-72.1400;-6.1800
1393.1420;-79.7100;-71.9400;-7.7700
1393.3410;-79.3300;-71.5800;-7.7500
1393.5400;-78.7500;-71.5500;-7.2000
1393.7390;-78.0200;-71.6200;-6.4000
1393.9380;-79.7800;-71.8500;-7.9300
1394.1370;-79.3300;-71.8300;-7.5000
1394.3360;-78.4200;-72.0400;-6.3800
1394.5350;-79.0500;-72.0500;-7.0000
1394.7350;-78.3400;-72.1200;-6.2200
1394.9340;-77.9900;-72.3700;-5.6200
1395.1330;-78.4200;-72.7900;-5.6300
1395.3320;-78.3700;-72.8000;-5.5700
1395.5310;-78.3700;-72.9900;-5.3800
1395.7300;-78.7200;-72.8700;-5.8500
1395.9290;-77.3700;-73.2600;-4.1100
1396.1280;-77.6900;-72.8800;-4.8100
1396.3270;-77.7100;-73.0700;-4.6400
1396.5270;-76.7300;-73.3100;-3.4200
1396.7260;-77.2000;-73.4800;-3.7200
1396.9250;-77.7400;-73.4800;-4.2600
1397.1240;-76.7000;-73.5800;-3.1200
1397.3230;-76.1100;-73.2300;-2.8800
1397.5220;-76.6600;-73.0300;-3.6300
1397.7210;-76.1000;-73.1700;-2.9300
1397.9200;-77.0300;-73.5500;-3.4800
1398.1200;-76.9700;-73.6700;-3.3000
1398.3190;-76.4000;-73.5200;-2.8800
1398.5180;-76.6300;-73.5900;-3.0400
1398.7170;-76.2300;-73.8200;-2.4100
1398.9160;-76.8000;-73.6100;-3.1900
1399.1150;-76.8500;-73.6400;-3.2100
1399.3140;-76.2200;-73.7900;-2.4300
1399.5130;-76.4100;-74.4200;-1.9900
1399.7120;-77.0800;-74.1900;-2.8900
1399.9120;-77.7500;-74.2200;-3.5300
1400.1110;-77.0600;-74.6900;-2.3700
1400.3100;-77.2800;-74.5900;-2.6900
1400.5090;-78.1200;-74.6700;-3.4500
1400.7080;-77.5300;-75.0900;-2.4400
1400.9070;-77.7500;-75.0900;-2.6600
1401.1060;-77.8600;-74.8500;-3.0100
1401.3050;-78.3500;-74.9200;-3.4300
1401.5040;-78.2500;-74.6700;-3.5800
1401.7040;-78.4000;-74.9200;-3.4800
1401.9030;-78.1700;-74.9000;-3.2700
1402.1020;-78.2000;-75.2600;-2.9400
1402.3010;-78.7600;-75.0600;-3.7000
1402.5000;-78.8500;-74.9400;-3.9100
1402.6990;-78.2000;-74.9700;-3.2300
1402.8980;-79.0900;-75.1500;-3.9400
1403.0970;-78.0300;-74.8000;-3.2300
1403.2970;-78.5900;-75.5000;-3.0900
1403.4960;-78.4800;-75.3700;-3.1100
1403.6950;-79.1800;-75.3200;-3.8600
1403.8940;-79.1800;-75.5300;-3.6500
1404.0930;-79.6800;-75.3200;-4.3600
1404.2920;-79.2100;-75.3000;-3.9100
1404.4910;-79.3400;-75.9000;-3.4400
1404.6900;-79.5100;-75.7700;-3.7400
1404.8890;-79.6500;-76.4800;-3.1700
1405.0890;-80.4900;-76.1200;-4.3700
1405.2880;-80.6200;-75.9300;-4.6900
1405.4870;-79.5100;-76.3600;-3.1500
1405.6860;-80.8900;-75.3900;-5.5000
1405.8850;-81.7700;-76.2300;-5.5400
1406.0840;-82.5200;-75.9000;-6.6200
1406.2830;-79.8600;-75.9000;-3.9600
1406.4820;-79.5100;-75.9900;-3.5200
1406.6810;-79.9400;-75.3900;-4.5500
1406.8810;-82.8100;-75.9200;-6.8900
1407.0800;-81.0500;-75.9700;-5.0800
1407.2790;-81.7200;-76.2000;-5.5200
1407.4780;-80.3400;-75.9700;-4.3700
1407.6770;-81.1000;-76.2100;-4.8900
1407.8760;-80.7200;-76.4900;-4.2300
1408.0750;-80.8100;-76.1600;-4.6500
1408.2740;-81.2400;-76.8600;-4.3800
1408.4740;-80.5000;-76.0000;-4.5000
1408.6730;-80.3400;-76.9300;-3.4100
1408.8720;-81.0500;-76.5100;-4.5400
1409.0710;-80.2600;-76.5100;-3.7500
1409.2700;-84.5700;-76.3400;-8.2300
1409.4690;-80.5900;-77.5400;-3.0500
1409.6680;-79.9400;-76.7900;-3.1500
1409.8670;-80.1000;-76.6100;-3.4900
1410.0660;-80.5500;-76.2800;-4.2700
1410.2660;-79.3500;-75.8500;-3.5000
1410.4650;-81.1400;-76.0300;-5.1100
1410.6640;-81.4500;-76.1800;-5.2700
1410.8630;-80.7700;-76.3100;-4.4600
1411.0620;-81.7800;-76.4200;-5.3600
1411.2610;-80.6800;-76.4100;-4.2700
1411.4600;-79.2200;-76.4400;-2.7800
1411.6590;-80.9000;-76.4700;-4.4300
1411.8580;-80.4200;-76.4700;-3.9500
1412.0580;-79.3200;-76.5100;-2.8100
1412.2570;-79.9100;-76.1300;-3.7800
1412.4560;-79.5200;-76.0900;-3.4300
1412.6550;-79.8300;-76.5900;-3.2400
1412.8540;-79.4200;-76.2600;-3.1600
1413.0530;-79.0700;-75.9200;-3.1500
1413.2520;-79.4800;-76.9700;-2.5100
1413.4510;-81.3000;-76.3400;-4.9600
1413.6500;-81.0600;-75.9500;-5.1100
1413.8500;-79.6700;-76.1000;-3.5700
1414.0490;-79.5300;-77.2100;-2.3200
1414.2480;-80.6900;-76.9300;-3.7600
1414.4470;-84.5800;-76.8300;-7.7500
1414.6460;-79.7000;-76.5000;-3.2000
1414.8450;-80.8700;-76.9400;-3.9300
1415.0440;-81.7900;-76.7100;-5.0800
1415.2430;-81.2500;-76.1700;-5.0800
1415.4430;-80.6000;-76.6000;-4.0000
1415.6420;-79.4600;-76.2100;-3.2500
1415.8410;-80.1500;-76.0800;-4.0700
1416.0400;-79.6700;-75.8900;-3.7800
1416.2390;-80.1500;-76.2200;-3.9300
1416.4380;-79.3300;-76.0500;-3.2800
1416.6370;-80.6400;-76.5200;-4.1200
1416.8360;-82.4000;-76.4200;-5.9800
1417.0350;-81.0600;-76.5200;-4.5400
1417.2350;-81.0100;-75.9800;-5.0300
1417.4340;-78.5600;-76.0500;-2.5100
1417.6330;-81.7300;-76.3500;-5.3800
1417.8320;-80.9100;-76.5200;-4.3900
1418.0310;-79.9200;-76.6200;-3.3000
1418.2300;-80.0300;-76.3500;-3.6800
1418.4290;-80.0300;-75.6300;-4.4000
1418.6280;-81.3600;-75.9500;-5.4100
1418.8270;-79.7000;-76.1600;-3.5400
1419.0270;-82.3400;-76.5200;-5.8200
1419.2260;-82.8900;-76.7600;-6.1300
1419.4250;-81.3600;-76.3500;-5.0100
1419.6240;-81.3600;-76.8900;-4.4700
1419.8230;-79.3000;-76.0100;-3.2900
1420.0220;-79.8100;-75.6200;-4.1900
1420.2210;-80.7800;-76.1000;-4.6800
1420.4200;-78.9900;-75.8400;-3.1500
1420.6200;-80.3900;-75.9500;-4.4400
1420.8190;-81.4600;-76.0800;-5.3800
1421.0180;-79.8800;-75.5100;-4.3700
1421.2170;-79.1400;-75.8300;-3.3100
1421.4160;-79.5300;-75.6400;-3.8900
1421.6150;-79.6400;-76.0500;-3.5900
1421.8140;-80.2000;-76.0200;-4.1800
1422.0130;-79.2100;-75.8100;-3.4000
1422.2120;-78.6800;-76.1400;-2.5400
1422.4120;-81.3700;-76.0800;-5.2900
1422.6110;-80.7400;-76.2000;-4.5400
1422.8100;-81.4700;-75.8100;-5.6600
1423.0090;-80.7000;-76.1800;-4.5200
1423.2080;-80.7900;-75.7800;-5.0100
1423.4070;-81.0700;-76.0200;-5.0500
1423.6060;-79.2100;-76.6300;-2.5800
1423.8050;-80.5700;-75.9600;-4.6100
1424.0040;-79.4000;-75.4900;-3.9100
1424.2040;-79.2400;-75.3300;-3.9100
1424.4030;-79.7800;-75.4500;-4.3300
1424.6020;-79.5400;-75.5000;-4.0400
1424.8010;-80.5700;-75.6300;-4.9400
1425.0000;-78.8500;-76.0500;-2.8000
