Wavelength;Intensity_Meas;Intensity_Ref;Difference_dB
1200.0000;-62.2800;-57.0700;-5.2100
1200.1990;-62.2500;-57.0400;-5.2100
1200.3980;-62.1900;-57.0000;-5.1900
1200.5970;-62.1200;-56.9900;-5.1300
1200.7970;-62.0800;-56.9700;-5.1100
1200.9960;-62.0900;-56.9200;-5.1700
1201.1950;-62.0500;-56.8900;-5.1600
1201.3940;-61.9400;-56.8600;-5.0800
1201.5930;-61.8800;-56.8100;-5.0700
1201.7920;-61.8300;-56.7700;-5.0600
1201.9910;-61.8000;-56.7100;-5.0900
1202.1900;-61.6800;-56.6600;-5.0200
1202.3890;-61.6400;-56.6200;-5.0200
1202.5890;-61.6000;-56.5700;-5.0300
1202.7880;-61.5500;-56.5200;-5.0300
1202.9870;-61.5300;-56.4600;-5.0700
1203.1860;-61.4400;-56.4100;-5.0300
1203.3850;-61.3700;-56.3700;-5.0000
1203.5840;-61.3500;-56.3200;-5.0300
1203.7830;-61.3200;-56.2800;-5.0400
1203.9820;-61.2800;-56.2400;-5.0400
1204.1810;-61.2000;-56.1900;-5.0100
1204.3810;-61.2200;-56.1700;-5.0500
1204.5800;-61.2000;-56.1300;-5.0700
1204.7790;-61.1500;-56.0900;-5.0600
1204.9780;-61.1200;-56.0600;-5.0600
1205.1770;-61.1300;-56.0400;-5.0900
1205.3760;-61.1400;-56.0100;-5.1300
1205.5750;-61.1200;-55.9900;-5.1300
1205.7740;-61.0800;-55.9800;-5.1000
1205.9740;-61.1300;-55.9500;-5.1800
1206.1730;-61.1400;-55.9400;-5.2000
1206.3720;-61.1400;-55.9300;-5.2100
1206.5710;-61.0700;-55.9100;-5.1600
1206.7700;-61.0600;-55.8800;-5.1800
1206.9690;-61.0700;-55.8600;-5.2100
1207.1680;-61.0500;-55.8300;-5.2200
1207.3670;-60.9600;-55.8100;-5.1500
1207.5660;-60.8900;-55.7800;-5.1100
1207.7660;-60.8400;-55.7500;-5.0900
1207.9650;-60.7900;-55.7100;-5.0800
1208.1640;-60.7200;-55.6800;-5.0400
1208.3630;-60.6300;-55.6600;-4.9700
1208.5620;-60.5400;-55.6000;-4.9400
1208.7610;-60.5100;-55.5600;-4.9500
1208.9600;-60.4700;-55.5100;-4.9600
1209.1590;-60.3300;-55.4500;-4.8800
1209.3580;-60.2800;-55.4100;-4.8700
1209.5580;-60.2700;-55.3600;-4.9100
1209.7570;-60.2500;-55.3100;-4.9400
1209.9560;-60.2100;-55.2600;-4.9500
1210.1550;-60.1600;-55.2100;-4.9500
1210.3540;-60.1400;-55.1800;-4.9600
1210.5530;-60.1600;-55.1100;-5.0500
1210.7520;-60.1600;-55.0700;-5.0900
1210.9510;-60.1400;-55.0300;-5.1100
1211.1500;-60.1100;-54.9800;-5.1300
1211.3500;-60.1500;-54.9500;-5.2000
1211.5490;-60.1800;-54.9100;-5.2700
1211.7480;-60.1400;-54.8700;-5.2700
1211.9470;-60.1700;-54.8400;-5.3300
1212.1460;-60.1900;-54.8100;-5.3800
1212.3450;-60.1900;-54.7800;-5.4100
1212.5440;-60.2000;-54.7600;-5.4400
1212.7430;-60.1900;-54.7400;-5.4500
1212.9430;-60.2100;-54.7100;-5.5000
1213.1420;-60.1900;-54.6700;-5.5200
1213.3410;-60.1500;-54.6500;-5.5000
1213.5400;-60.1200;-54.6200;-5.5000
1213.7390;-60.0600;-54.6000;-5.4600
1213.9380;-60.0300;-54.5600;-5.4700
1214.1370;-59.9300;-54.5300;-5.4000
1214.3360;-59.8000;-54.5100;-5.2900
1214.5350;-59.7200;-54.4600;-5.2600
1214.7350;-59.6400;-54.4300;-5.2100
1214.9340;-59.5400;-54.3900;-5.1500
1215.1330;-59.3900;-54.3400;-5.0500
1215.3320;-59.2800;-54.3000;-4.9800
1215.5310;-59.2000;-54.2500;-4.9500
1215.7300;-59.1200;-54.2000;-4.9200
1215.9290;-59.0100;-54.1500;-4.8600
1216.1280;-58.9100;-54.1000;-4.8100
1216.3270;-58.8700;-54.0400;-4.8300
1216.5270;-58.8200;-53.9900;-4.8300
1216.7260;-58.7500;-53.9300;-4.8200
1216.9250;-58.7100;-53.8800;-4.8300
1217.1240;-58.6900;-53.8100;-4.8800
1217.3230;-58.6700;-53.7700;-4.9000
1217.5220;-58.6700;-53.7200;-4.9500
1217.7210;-58.6300;-53.6700;-4.9600
1217.9200;-58.6700;-53.6200;-5.0500
1218.1200;-58.7000;-53.5700;-5.1300
1218.3190;-58.7100;-53.5300;-5.1800
1218.5180;-58.7400;-53.4800;-5.2600
1218.7170;-58.8000;-53.4500;-5.3500
1218.9160;-58.8700;-53.4100;-5.4600
1219.1150;-58.8800;-53.3600;-5.5200
1219.3140;-58.9200;-53.3500;-5.5700
1219.5130;-58.9800;-53.3200;-5.6600
1219.7120;-59.0300;-53.2800;-5.7500
1219.9120;-59.0500;-53.2400;-5.8100
1220.1110;-59.0100;-53.2100;-5.8000
1220.3100;-58.9900;-53.1800;-5.8100
1220.5090;-58.9700;-53.1400;-5.8300
1220.7080;-58.8700;-53.1100;-5.7600
1220.9070;-58.7700;-53.0700;-5.7000
1221.1060;-58.6300;-53.0200;-5.6100
1221.3050;-58.5400;-52.9800;-5.5600
1221.5040;-58.3800;-52.9100;-5.4700
1221.7040;-58.2100;-52.8700;-5.3400
1221.9030;-58.0500;-52.8100;-5.2400
1222.1020;-57.8800;-52.7400;-5.1400
1222.3010;-57.7400;-52.7000;-5.0400
1222.5000;-57.5600;-52.6200;-4.9400
1222.6990;-57.4200;-52.5600;-4.8600
1222.8980;-57.3100;-52.4900;-4.8200
1223.0970;-57.1900;-52.4200;-4.7700
1223.2970;-57.0700;-52.3700;-4.7000
1223.4960;-56.9700;-52.2800;-4.6900
1223.6950;-56.9100;-52.2200;-4.6900
1223.8940;-56.8800;-52.1600;-4.7200
1224.0930;-56.8000;-52.0800;-4.7200
1224.2920;-56.7700;-52.0300;-4.7400
1224.4910;-56.7700;-51.9500;-4.8200
1224.6900;-56.7500;-51.8900;-4.8600
1224.8890;-56.7500;-51.8300;-4.9200
1225.0890;-56.7500;-51.7700;-4.9800
1225.2880;-56.7800;-51.7200;-5.0600
1225.4870;-56.7900;-51.6500;-5.1400
1225.6860;-56.8000;-51.6100;-5.1900
1225.8850;-56.8300;-51.5600;-5.2700
1226.0840;-56.8500;-51.5000;-5.3500
1226.2830;-56.8600;-51.4700;-5.3900
1226.4820;-56.8300;-51.4000;-5.4300
1226.6810;-56.8100;-51.3600;-5.4500
1226.8810;-56.8000;-51.3100;-5.4900
1227.0800;-56.7300;-51.2500;-5.4800
1227.2790;-56.6300;-51.2200;-5.4100
1227.4780;-56.5100;-51.1500;-5.3600
1227.6770;-56.3800;-51.1000;-5.2800
1227.8760;-56.2600;-51.0500;-5.2100
1228.0750;-56.0700;-50.9800;-5.0900
1228.2740;-55.8900;-50.9300;-4.9600
1228.4740;-55.6800;-50.8500;-4.8300
1228.6730;-55.5500;-50.7900;-4.7600
1228.8720;-55.3700;-50.7300;-4.6400
1229.0710;-55.2000;-50.6500;-4.5500
1229.2700;-55.0900;-50.5900;-4.5000
1229.4690;-54.9500;-50.5000;-4.4500
1229.6680;-54.8300;-50.4300;-4.4000
1229.8670;-54.7300;-50.3500;-4.3800
1230.0660;-54.6700;-50.2700;-4.4000
1230.2660;-54.6200;-50.2100;-4.4100
1230.4650;-54.5600;-50.1100;-4.4500
1230.6640;-54.5500;-50.0300;-4.5200
1230.8630;-54.5900;-49.9800;-4.6100
1231.0620;-54.6200;-49.9000;-4.7200
1231.2610;-54.6800;-49.8500;-4.8300
1231.4600;-54.7500;-49.7900;-4.9600
1231.6590;-54.8300;-49.7200;-5.1100
1231.8580;-54.9200;-49.6600;-5.2600
1232.0580;-55.0100;-49.6000;-5.4100
1232.2570;-55.1200;-49.5500;-5.5700
1232.4560;-55.2300;-49.4900;-5.7400
1232.6550;-55.2900;-49.4400;-5.8500
1232.8540;-55.3300;-49.3700;-5.9600
1233.0530;-55.3800;-49.3200;-6.0600
1233.2520;-55.3900;-49.2800;-6.1100
1233.4510;-55.3200;-49.2100;-6.1100
1233.6500;-55.2500;-49.1700;-6.0800
1233.8500;-55.1400;-49.1000;-6.0400
1234.0490;-54.9900;-49.0400;-5.9500
1234.2480;-54.8100;-48.9800;-5.8300
1234.4470;-54.5900;-48.9000;-5.6900
1234.6460;-54.3900;-48.8500;-5.5400
1234.8450;-54.1800;-48.7800;-5.4000
1235.0440;-53.9500;-48.7000;-5.2500
1235.2430;-53.7600;-48.6300;-5.1300
1235.4430;-53.5600;-48.5400;-5.0200
1235.6420;-53.3900;-48.4800;-4.9100
1235.8410;-53.2100;-48.3800;-4.8300
1236.0400;-53.0800;-48.3000;-4.7800
1236.2390;-52.9800;-48.2100;-4.7700
1236.4380;-52.8700;-48.1100;-4.7600
1236.6370;-52.8100;-48.0400;-4.7700
1236.8360;-52.7500;-47.9400;-4.8100
1237.0350;-52.7300;-47.8600;-4.8700
1237.2350;-52.7200;-47.7700;-4.9500
1237.4340;-52.7000;-47.6800;-5.0200
1237.6330;-52.7300;-47.6100;-5.1200
1237.8320;-52.7700;-47.5200;-5.2500
1238.0310;-52.7900;-47.4400;-5.3500
1238.2300;-52.8400;-47.3600;-5.4800
1238.4290;-52.8700;-47.2700;-5.6000
1238.6280;-52.9300;-47.2100;-5.7200
1238.8270;-52.9500;-47.1200;-5.8300
1239.0270;-52.9700;-47.0600;-5.9100
1239.2260;-52.9800;-46.9600;-6.0200
1239.4250;-52.9500;-46.8800;-6.0700
1239.6240;-52.9300;-46.8100;-6.1200
1239.8230;-52.8500;-46.7200;-6.1300
1240.0220;-52.7800;-46.6500;-6.1300
1240.2210;-52.6700;-46.5400;-6.1300
1240.4200;-52.5300;-46.4500;-6.0800
1240.6200;-52.4100;-46.3700;-6.0400
1240.8190;-52.2400;-46.2600;-5.9800
1241.0180;-52.0600;-46.1600;-5.9000
1241.2170;-51.9000;-46.0400;-5.8600
1241.4160;-51.7400;-45.9100;-5.8300
1241.6150;-51.6000;-45.8000;-5.8000
1241.8140;-51.4600;-45.6900;-5.7700
1242.0130;-51.3400;-45.5700;-5.7700
1242.2120;-51.2600;-45.4400;-5.8200
1242.4120;-51.1700;-45.3300;-5.8400
1242.6110;-51.1100;-45.1800;-5.9300
1242.8100;-51.0500;-45.0600;-5.9900
1243.0090;-51.0100;-44.9200;-6.0900
1243.2080;-50.9900;-44.8000;-6.1900
1243.4070;-50.9400;-44.6800;-6.2600
1243.6060;-50.9100;-44.5300;-6.3800
1243.8050;-50.8500;-44.4100;-6.4400
1244.0040;-50.7600;-44.2800;-6.4800
1244.2040;-50.6500;-44.1500;-6.5000
1244.4030;-50.5100;-44.0300;-6.4800
1244.6020;-50.3400;-43.8800;-6.4600
1244.8010;-50.1100;-43.7600;-6.3500
1245.0000;-49.8600;-43.6400;-6.2200
1245.1990;-49.6000;-43.5100;-6.0900
1245.3980;-49.3000;-43.4000;-5.9000
1245.5970;-48.9900;-43.2500;-5.7400
1245.7970;-48.6600;-43.1300;-5.5300
1245.9960;-48.3300;-42.9900;-5.3400
1246.1950;-48.0200;-42.8500;-5.1700
1246.3940;-47.7000;-42.7300;-4.9700
1246.5930;-47.4100;-42.5700;-4.8400
1246.7920;-47.1100;-42.4300;-4.6800
1246.9910;-46.8400;-42.2800;-4.5600
1247.1900;-46.6000;-42.1200;-4.4800
1247.3890;-46.3700;-41.9800;-4.3900
1247.5890;-46.1700;-41.8100;-4.3600
1247.7880;-45.9800;-41.6600;-4.3200
1247.9870;-45.8000;-41.4900;-4.3100
1248.1860;-45.6700;-41.3300;-4.3400
1248.3850;-45.5500;-41.1800;-4.3700
1248.5840;-45.4300;-41.0000;-4.4300
1248.7830;-45.3300;-40.8400;-4.4900
1248.9820;-45.2500;-40.6800;-4.5700
1249.1810;-45.1400;-40.5200;-4.6200
1249.3810;-45.0500;-40.3600;-4.6900
1249.5800;-44.9200;-40.1800;-4.7400
1249.7790;-44.7800;-40.0300;-4.7500
1249.9780;-44.6200;-39.8600;-4.7600
1250.1770;-44.4300;-39.7000;-4.7300
1250.3760;-44.2200;-39.5600;-4.6600
1250.5750;-43.9600;-39.3900;-4.5700
1250.7740;-43.6900;-39.2300;-4.4600
1250.9740;-43.4200;-39.0900;-4.3300
1251.1730;-43.1000;-38.9300;-4.1700
1251.3720;-42.7800;-38.7900;-3.9900
1251.5710;-42.4800;-38.6400;-3.8400
1251.7700;-42.1600;-38.4900;-3.6700
1251.9690;-41.8700;-38.3300;-3.5400
1252.1680;-41.5800;-38.1700;-3.4100
1252.3670;-41.3200;-38.0300;-3.2900
1252.5660;-41.0900;-37.8700;-3.2200
1252.7660;-40.8800;-37.7100;-3.1700
1252.9650;-40.7300;-37.5600;-3.1700
1253.1640;-40.5900;-37.3900;-3.2000
1253.3630;-40.5100;-37.2400;-3.2700
1253.5620;-40.4700;-37.0800;-3.3900
1253.7610;-40.4800;-36.9200;-3.5600
1253.9600;-40.5600;-36.7600;-3.8000
1254.1590;-40.6800;-36.5900;-4.0900
1254.3580;-40.8900;-36.4400;-4.4500
1254.5580;-41.1600;-36.2700;-4.8900
1254.7570;-41.5100;-36.1200;-5.3900
1254.9560;-41.9500;-35.9500;-6.0000
1255.1550;-42.4800;-35.7800;-6.7000
1255.3540;-43.0900;-35.6400;-7.4500
1255.5530;-43.7700;-35.4900;-8.2800
1255.7520;-44.4800;-35.3400;-9.1400
1255.9510;-45.1800;-35.1700;-10.0100
1256.1500;-45.7300;-35.0400;-10.6900
1256.3500;-45.9800;-34.8700;-11.1100
1256.5490;-45.8100;-34.7200;-11.0900
1256.7480;-45.2200;-34.5700;-10.6500
1256.9470;-44.3300;-34.4200;-9.9100
1257.1460;-43.2800;-34.2700;-9.0100
1257.3450;-42.2000;-34.1000;-8.1000
1257.5440;-41.1400;-33.9600;-7.1800
1257.7430;-40.1500;-33.8100;-6.3400
1257.9430;-39.2300;-33.6500;-5.5800
1258.1420;-38.3900;-33.5100;-4.8800
1258.3410;-37.6500;-33.3400;-4.3100
1258.5400;-36.9700;-33.1900;-3.7800
1258.7390;-36.3600;-33.0300;-3.3300
1258.9380;-35.7300;-32.8700;-2.8600
1259.1370;-35.3600;-32.7300;-2.6300
1259.3360;-34.9400;-32.5600;-2.3800
1259.5350;-34.6100;-32.4200;-2.1900
1259.7350;-34.3300;-32.2700;-2.0600
1259.9340;-34.1000;-32.1100;-1.9900
1260.1330;-33.9600;-31.9700;-1.9900
1260.3320;-33.8600;-31.8100;-2.0500
1260.5310;-33.8400;-31.6800;-2.1600
1260.7300;-33.9000;-31.5300;-2.3700
1260.9290;-34.0200;-31.3800;-2.6400
1261.1280;-34.2400;-31.2500;-2.9900
1261.3270;-34.5300;-31.0900;-3.4400
1261.5270;-34.9300;-30.9700;-3.9600
1261.7260;-35.4400;-30.8200;-4.6200
1261.9250;-36.0500;-30.6800;-5.3700
1262.1240;-36.8200;-30.5500;-6.2700
1262.3230;-37.7100;-30.4000;-7.3100
1262.5220;-39.0400;-30.2700;-8.7700
1262.7210;-40.0400;-30.1300;-9.9100
1262.9200;-41.3400;-29.9800;-11.3600
1263.1200;-42.5600;-29.8500;-12.7100
1263.3190;-43.2300;-29.6900;-13.5400
1263.5180;-42.9600;-29.5600;-13.4000
1263.7170;-41.7900;-29.4100;-12.3800
1263.9160;-40.2200;-29.2600;-10.9600
1264.1150;-38.6200;-29.1300;-9.4900
1264.3140;-37.1300;-28.9600;-8.1700
1264.5130;-35.5900;-28.8300;-6.7600
1264.7120;-34.6200;-28.6800;-5.9400
1264.9120;-33.6100;-28.5300;-5.0800
1265.1110;-32.7000;-28.3900;-4.3100
1265.3100;-31.9000;-28.2300;-3.6700
1265.5090;-31.2100;-28.1000;-3.1100
1265.7080;-30.6100;-27.9500;-2.6600
1265.9070;-30.1000;-27.8100;-2.2900
1266.1060;-29.6400;-27.6800;-1.9600
1266.3050;-29.2800;-27.5400;-1.7400
1266.5040;-29.0000;-27.4200;-1.5800
1266.7040;-28.7700;-27.2900;-1.4800
1266.9030;-28.6400;-27.1600;-1.4800
1267.1020;-28.5400;-27.0400;-1.5000
1267.3010;-28.5300;-26.9100;-1.6200
1267.5000;-28.6000;-26.8000;-1.8000
1267.6990;-28.7200;-26.6800;-2.0400
1267.8980;-28.9300;-26.5600;-2.3700
1268.0970;-29.2000;-26.4600;-2.7400
1268.2970;-29.5500;-26.3300;-3.2200
1268.4960;-29.9800;-26.2300;-3.7500
1268.6950;-30.4600;-26.0800;-4.3800
1268.8940;-31.0200;-25.9900;-5.0300
1269.0930;-31.6200;-25.8800;-5.7400
1269.2920;-32.2500;-25.7500;-6.5000
1269.4910;-32.8400;-25.6500;-7.1900
1269.6900;-33.3400;-25.5100;-7.8300
1269.8890;-33.6600;-25.3900;-8.2700
1270.0890;-33.6900;-25.2600;-8.4300
1270.2880;-33.4400;-25.1300;-8.3100
1270.4870;-32.9200;-25.0300;-7.8900
1270.6860;-32.1900;-24.8900;-7.3000
1270.8850;-31.3800;-24.7600;-6.6200
1271.0840;-30.5200;-24.6300;-5.8900
1271.2830;-29.7100;-24.5100;-5.2000
1271.4820;-28.9300;-24.3900;-4.5400
1271.6810;-28.2300;-24.2600;-3.9700
1271.8810;-27.6000;-24.1500;-3.4500
1272.0800;-27.0300;-24.0300;-3.0000
1272.2790;-26.5600;-23.9100;-2.6500
1272.4780;-26.1500;-23.8200;-2.3300
1272.6770;-25.7700;-23.7000;-2.0700
1272.8760;-25.5600;-23.6100;-1.9500
1273.0750;-25.3800;-23.5000;-1.8800
1273.2740;-25.2500;-23.4000;-1.8500
1273.4740;-25.2000;-23.3200;-1.8800
1273.6730;-25.2400;-23.2100;-2.0300
1273.8720;-25.3200;-23.1300;-2.1900
1274.0710;-25.5000;-23.0300;-2.4700
1274.2700;-25.7400;-22.9300;-2.8100
1274.4690;-26.0600;-22.8500;-3.2100
1274.6680;-26.4800;-22.7500;-3.7300
1274.8670;-26.9900;-22.6600;-4.3300
1275.0660;-27.6000;-22.5600;-5.0400
1275.2660;-28.4600;-22.4700;-5.9900
1275.4650;-29.1900;-22.3800;-6.8100
1275.6640;-30.1600;-22.2700;-7.8900
1275.8630;-31.2600;-22.1800;-9.0800
1276.0620;-32.4500;-22.0700;-10.3800
1276.2610;-33.5600;-21.9700;-11.5900
1276.4600;-34.3200;-21.8700;-12.4500
1276.6590;-34.3500;-21.7500;-12.6000
1276.8580;-33.6000;-21.6600;-11.9400
1277.0580;-32.3700;-21.5400;-10.8300
1277.2570;-30.9600;-21.4500;-9.5100
1277.4560;-29.6200;-21.3500;-8.2700
1277.6550;-28.3600;-21.2400;-7.1200
1277.8540;-27.2400;-21.1600;-6.0800
1278.0530;-26.2700;-21.0500;-5.2200
1278.2520;-25.2800;-20.9600;-4.3200
1278.4510;-24.6700;-20.8700;-3.8000
1278.6500;-24.0200;-20.7700;-3.2500
1278.8500;-23.4800;-20.7000;-2.7800
1279.0490;-23.0000;-20.6000;-2.4000
1279.2480;-22.6100;-20.5200;-2.0900
1279.4470;-22.3000;-20.4400;-1.8600
1279.6460;-22.0500;-20.3500;-1.7000
1279.8450;-21.8800;-20.2800;-1.6000
1280.0440;-21.7600;-20.1900;-1.5700
1280.2430;-21.7100;-20.1300;-1.5800
1280.4430;-21.7200;-20.0400;-1.6800
1280.6420;-21.7900;-19.9700;-1.8200
1280.8410;-21.9400;-19.9000;-2.0400
1281.0400;-22.1200;-19.8200;-2.3000
1281.2390;-22.4000;-19.7500;-2.6500
1281.4380;-22.7300;-19.6700;-3.0600
1281.6370;-23.1200;-19.6000;-3.5200
1281.8360;-23.6000;-19.5300;-4.0700
1282.0350;-24.1000;-19.4500;-4.6500
1282.2350;-24.6800;-19.3900;-5.2900
1282.4340;-25.2800;-19.3000;-5.9800
1282.6330;-25.8800;-19.2400;-6.6400
1282.8320;-26.4000;-19.1700;-7.2300
1283.0310;-26.7600;-19.0900;-7.6700
1283.2300;-26.9100;-19.0200;-7.8900
1283.4290;-26.7600;-18.9400;-7.8200
1283.6280;-26.3600;-18.8700;-7.4900
1283.8270;-25.7700;-18.8000;-6.9700
1284.0270;-25.0400;-18.7200;-6.3200
1284.2260;-24.2900;-18.6600;-5.6300
1284.4250;-23.5100;-18.5800;-4.9300
1284.6240;-22.7900;-18.5100;-4.2800
1284.8230;-22.1200;-18.4300;-3.6900
1285.0220;-21.5100;-18.3600;-3.1500
1285.2210;-20.9800;-18.3000;-2.6800
1285.4200;-20.5100;-18.2200;-2.2900
1285.6200;-20.1100;-18.1600;-1.9500
1285.8190;-19.7800;-18.1000;-1.6800
1286.0180;-19.5100;-18.0300;-1.4800
1286.2170;-19.3300;-17.9800;-1.3500
1286.4160;-19.1800;-17.9100;-1.2700
1286.6150;-19.1300;-17.8800;-1.2500
1286.8140;-19.1300;-17.8200;-1.3100
1287.0130;-19.1900;-17.7600;-1.4300
1287.2120;-19.3400;-17.7200;-1.6200
1287.4120;-19.5400;-17.6600;-1.8800
1287.6110;-19.8400;-17.6300;-2.2100
1287.8100;-20.2100;-17.5700;-2.6400
1288.0090;-20.6600;-17.5200;-3.1400
1288.2080;-21.2300;-17.4800;-3.7500
1288.4070;-21.8800;-17.4300;-4.4500
1288.6060;-22.6500;-17.4000;-5.2500
1288.8050;-23.5300;-17.3400;-6.1900
1289.0040;-24.5200;-17.3000;-7.2200
1289.2040;-25.6000;-17.2500;-8.3500
1289.4030;-26.6600;-17.1900;-9.4700
1289.6020;-27.5800;-17.1600;-10.4200
1289.8010;-28.0800;-17.0900;-10.9900
1290.0000;-27.9600;-17.0400;-10.9200
1290.1990;-27.2900;-16.9900;-10.3000
1290.3980;-26.2400;-16.9300;-9.3100
1290.5970;-25.0800;-16.8900;-8.1900
1290.7970;-23.9200;-16.8200;-7.1000
1290.9960;-22.8600;-16.7600;-6.1000
1291.1950;-21.9200;-16.7000;-5.2200
1291.3940;-21.0900;-16.6400;-4.4500
1291.5930;-20.3700;-16.5800;-3.7900
1291.7920;-19.7400;-16.5200;-3.2200
1291.9910;-19.2200;-16.4800;-2.7400
1292.1900;-18.7900;-16.4200;-2.3700
1292.3890;-18.4400;-16.3800;-2.0600
1292.5890;-18.1700;-16.3300;-1.8400
1292.7880;-17.9600;-16.2800;-1.6800
1292.9870;-17.8500;-16.2500;-1.6000
1293.1860;-17.8000;-16.2100;-1.5900
1293.3850;-17.8200;-16.1800;-1.6400
1293.5840;-17.9200;-16.1400;-1.7800
1293.7830;-18.0900;-16.1200;-1.9700
1293.9820;-18.3500;-16.0900;-2.2600
1294.1810;-18.6800;-16.0700;-2.6100
1294.3810;-19.1000;-16.0600;-3.0400
1294.5800;-19.6300;-16.0200;-3.6100
1294.7790;-20.2500;-16.0100;-4.2400
1294.9780;-21.0200;-15.9800;-5.0400
1295.1770;-21.9000;-15.9600;-5.9400
1295.3760;-22.9500;-15.9400;-7.0100
1295.5750;-24.1700;-15.9000;-8.2700
1295.7740;-25.5800;-15.8900;-9.6900
1295.9740;-27.1700;-15.8400;-11.3300
1296.1730;-29.0800;-15.8200;-13.2600
1296.3720;-29.9300;-15.7900;-14.1400
1296.5710;-29.9700;-15.7400;-14.2300
1296.7700;-28.9000;-15.7200;-13.1800
1296.9690;-27.3100;-15.6800;-11.6300
1297.1680;-25.4300;-15.6500;-9.7800
1297.3670;-24.2100;-15.6100;-8.6000
1297.5660;-22.9300;-15.5600;-7.3700
1297.7660;-21.8400;-15.5400;-6.3000
1297.9650;-20.8900;-15.4900;-5.4000
1298.1640;-20.0900;-15.4600;-4.6300
1298.3630;-19.4000;-15.4300;-3.9700
1298.5620;-18.8200;-15.3800;-3.4400
1298.7610;-18.3400;-15.3600;-2.9800
1298.9600;-17.9500;-15.3300;-2.6200
1299.1590;-17.6600;-15.3200;-2.3400
1299.3580;-17.4200;-15.2900;-2.1300
1299.5580;-17.2500;-15.2600;-1.9900
1299.7570;-17.1700;-15.2500;-1.9200
1299.9560;-17.1400;-15.2400;-1.9000
1300.1550;-17.2100;-15.2400;-1.9700
1300.3540;-17.3200;-15.2200;-2.1000
1300.5530;-17.5100;-15.2100;-2.3000
1300.7520;-17.7700;-15.2100;-2.5600
1300.9510;-18.1100;-15.2000;-2.9100
1301.1500;-18.5500;-15.2200;-3.3300
1301.3500;-19.0400;-15.2100;-3.8300
1301.5490;-19.6600;-15.2200;-4.4400
1301.7480;-20.3400;-15.2200;-5.1200
1301.9470;-21.1500;-15.2200;-5.9300
1302.1460;-22.0800;-15.2400;-6.8400
1302.3450;-23.1100;-15.2300;-7.8800
1302.5440;-24.2900;-15.2500;-9.0400
1302.7430;-25.5100;-15.2400;-10.2700
1302.9430;-26.7200;-15.2400;-11.4800
1303.1420;-27.6900;-15.2600;-12.4300
1303.3410;-28.0900;-15.2500;-12.8400
1303.5400;-27.8100;-15.2700;-12.5400
1303.7390;-26.9400;-15.2500;-11.6900
1303.9380;-25.8300;-15.2600;-10.5700
1304.1370;-24.6900;-15.2700;-9.4200
1304.3360;-23.6100;-15.2700;-8.3400
1304.5350;-22.6800;-15.2800;-7.4000
1304.7350;-21.8400;-15.2700;-6.5700
1304.9340;-21.1400;-15.2800;-5.8600
1305.1330;-20.5500;-15.2800;-5.2700
1305.3320;-20.0600;-15.2800;-4.7800
1305.5310;-19.7000;-15.3100;-4.3900
1305.7300;-19.4000;-15.3000;-4.1000
1305.9290;-19.2000;-15.3100;-3.8900
1306.1280;-19.0700;-15.3200;-3.7500
1306.3270;-19.0300;-15.3300;-3.7000
1306.5270;-19.0800;-15.3600;-3.7200
1306.7260;-19.1900;-15.3700;-3.8200
1306.9250;-19.4000;-15.3900;-4.0100
1307.1240;-19.6800;-15.4000;-4.2800
1307.3230;-20.0400;-15.4200;-4.6200
1307.5220;-20.5100;-15.4600;-5.0500
1307.7210;-21.0500;-15.4700;-5.5800
1307.9200;-21.7200;-15.4900;-6.2300
1308.1200;-22.4900;-15.5200;-6.9700
1308.3190;-23.3700;-15.5400;-7.8300
1308.5180;-24.3600;-15.5700;-8.7900
1308.7170;-25.4100;-15.5900;-9.8200
1308.9160;-26.4800;-15.6200;-10.8600
1309.1150;-27.3700;-15.6400;-11.7300
1309.3140;-27.8700;-15.6700;-12.2000
1309.5130;-27.7800;-15.7000;-12.0800
1309.7120;-27.1400;-15.7100;-11.4300
1309.9120;-26.1600;-15.7500;-10.4100
1310.1110;-25.0600;-15.7700;-9.2900
1310.3100;-23.9800;-15.8000;-8.1800
1310.5090;-22.9600;-15.8200;-7.1400
1310.7080;-22.0300;-15.8400;-6.1900
1310.9070;-21.2200;-15.8800;-5.3400
1311.1060;-20.5100;-15.9100;-4.6000
1311.3050;-19.9000;-15.9400;-3.9600
1311.5040;-19.3700;-15.9800;-3.3900
1311.7040;-18.9300;-16.0100;-2.9200
1311.9030;-18.5600;-16.0500;-2.5100
1312.1020;-18.2500;-16.0800;-2.1700
1312.3010;-18.0200;-16.1400;-1.8800
1312.5000;-17.8500;-16.1800;-1.6700
1312.6990;-17.7400;-16.2300;-1.5100
1312.8980;-17.6600;-16.2700;-1.3900
1313.0970;-17.6400;-16.3200;-1.3200
1313.2970;-17.6800;-16.3800;-1.3000
1313.4960;-17.7700;-16.4400;-1.3300
1313.6950;-17.9000;-16.5000;-1.4000
1313.8940;-18.0500;-16.5400;-1.5100
1314.0930;-18.2600;-16.6100;-1.6500
1314.2920;-18.4900;-16.6700;-1.8200
1314.4910;-18.7500;-16.7300;-2.0200
1314.6900;-19.0400;-16.8000;-2.2400
1314.8890;-19.3200;-16.8400;-2.4800
1315.0890;-19.6200;-16.9000;-2.7200
1315.2880;-19.9000;-16.9500;-2.9500
1315.4870;-20.1800;-17.0100;-3.1700
1315.6860;-20.4200;-17.0800;-3.3400
1315.8850;-20.6100;-17.1200;-3.4900
1316.0840;-20.7700;-17.1800;-3.5900
1316.2830;-20.8600;-17.2300;-3.6300
1316.4820;-20.9200;-17.2900;-3.6300
1316.6810;-20.9100;-17.3500;-3.5600
1316.8810;-20.8500;-17.4000;-3.4500
1317.0800;-20.7900;-17.4900;-3.3000
1317.2790;-20.6800;-17.5300;-3.1500
1317.4780;-20.5700;-17.6100;-2.9600
1317.6770;-20.4400;-17.6700;-2.7700
1317.8760;-20.3200;-17.7300;-2.5900
1318.0750;-20.2300;-17.8000;-2.4300
1318.2740;-20.1400;-17.8600;-2.2800
1318.4740;-20.0900;-17.9400;-2.1500
1318.6730;-20.0600;-18.0200;-2.0400
1318.8720;-20.0500;-18.0900;-1.9600
1319.0710;-20.0800;-18.1800;-1.9000
1319.2700;-20.1300;-18.2500;-1.8800
1319.4690;-20.2200;-18.3500;-1.8700
1319.6680;-20.3300;-18.4300;-1.9000
1319.8670;-20.4700;-18.5500;-1.9200
1320.0660;-20.6200;-18.6100;-2.0100
1320.2660;-20.8000;-18.7100;-2.0900
1320.4650;-20.9900;-18.8000;-2.1900
1320.6640;-21.1900;-18.9000;-2.2900
1320.8630;-21.4000;-18.9900;-2.4100
1321.0620;-21.5900;-19.0800;-2.5100
1321.2610;-21.7900;-19.1900;-2.6000
1321.4600;-21.9600;-19.2700;-2.6900
1321.6590;-22.1000;-19.3700;-2.7300
1321.8580;-22.2300;-19.4700;-2.7600
1322.0580;-22.3200;-19.5600;-2.7600
1322.2570;-22.3900;-19.6700;-2.7200
1322.4560;-22.4100;-19.7500;-2.6600
1322.6550;-22.4200;-19.8500;-2.5700
1322.8540;-22.4100;-19.9500;-2.4600
1323.0530;-22.3700;-20.0500;-2.3200
1323.2520;-22.3500;-20.1700;-2.1800
1323.4510;-22.3100;-20.2600;-2.0500
1323.6500;-22.2900;-20.3700;-1.9200
1323.8500;-22.2800;-20.4700;-1.8100
1324.0490;-22.2800;-20.5800;-1.7000
1324.2480;-22.3400;-20.7000;-1.6400
1324.4470;-22.3900;-20.8000;-1.5900
1324.6460;-22.5000;-20.9200;-1.5800
1324.8450;-22.6300;-21.0300;-1.6000
1325.0440;-22.8100;-21.1500;-1.6600
1325.2430;-23.0300;-21.2800;-1.7500
1325.4430;-23.2900;-21.4000;-1.8900
1325.6420;-23.6200;-21.5500;-2.0700
1325.8410;-23.9700;-21.6700;-2.3000
1326.0400;-24.3900;-21.8000;-2.5900
1326.2390;-24.8500;-21.9400;-2.9100
1326.4380;-25.3600;-22.0700;-3.2900
1326.6370;-25.9400;-22.2200;-3.7200
1326.8360;-26.5500;-22.3400;-4.2100
1327.0350;-27.2200;-22.4800;-4.7400
1327.2350;-27.9100;-22.6200;-5.2900
1327.4340;-28.7700;-22.7500;-6.0200
1327.6330;-29.3200;-22.9000;-6.4200
1327.8320;-29.9500;-23.0200;-6.9300
1328.0310;-30.4900;-23.1700;-7.3200
1328.2300;-30.8800;-23.3000;-7.5800
1328.4290;-31.0800;-23.4400;-7.6400
1328.6280;-31.0700;-23.5800;-7.4900
1328.8270;-30.9000;-23.7100;-7.1900
1329.0270;-30.5900;-23.8600;-6.7300
1329.2260;-30.2000;-23.9800;-6.2200
1329.4250;-29.7900;-24.1200;-5.6700
1329.6240;-29.3700;-24.2500;-5.1200
1329.8230;-29.0000;-24.3800;-4.6200
1330.0220;-28.6500;-24.5300;-4.1200
1330.2210;-28.3700;-24.6600;-3.7100
1330.4200;-28.1400;-24.8000;-3.3400
1330.6200;-27.9600;-24.9300;-3.0300
1330.8190;-27.8600;-25.0800;-2.7800
1331.0180;-27.8000;-25.2300;-2.5700
1331.2170;-27.8200;-25.3800;-2.4400
1331.4160;-27.8900;-25.5400;-2.3500
1331.6150;-28.0300;-25.6800;-2.3500
1331.8140;-28.2500;-25.8400;-2.4100
1332.0130;-28.5100;-26.0000;-2.5100
1332.2120;-28.8700;-26.1500;-2.7200
1332.4120;-29.2800;-26.3300;-2.9500
1332.6110;-29.7900;-26.4900;-3.3000
1332.8100;-30.3800;-26.6600;-3.7200
1333.0090;-31.0500;-26.8200;-4.2300
1333.2080;-31.8400;-26.9900;-4.8500
1333.4070;-32.7200;-27.1600;-5.5600
1333.6060;-33.7400;-27.3300;-6.4100
1333.8050;-34.9100;-27.5100;-7.4000
1334.0040;-36.2200;-27.6600;-8.5600
1334.2040;-37.7100;-27.8400;-9.8700
1334.4030;-39.6500;-28.0100;-11.6400
1334.6020;-40.8800;-28.1600;-12.7200
1334.8010;-42.0100;-28.3400;-13.6700
1335.0000;-42.2800;-28.5400;-13.7400
1335.1990;-41.5700;-28.6800;-12.8900
1335.3980;-40.3600;-28.8300;-11.5300
1335.5970;-39.0300;-29.0100;-10.0200
1335.7970;-37.8300;-29.1700;-8.6600
1335.9960;-36.7800;-29.3400;-7.4400
1336.1950;-35.7200;-29.5100;-6.2100
1336.3940;-35.1100;-29.6700;-5.4400
1336.5930;-34.4800;-29.8500;-4.6300
1336.7920;-33.9700;-30.0000;-3.9700
1336.9910;-33.5500;-30.1700;-3.3800
1337.1900;-33.2500;-30.3400;-2.9100
1337.3890;-33.0200;-30.5100;-2.5100
1337.5890;-32.8700;-30.6900;-2.1800
1337.7880;-32.8000;-30.8600;-1.9400
1337.9870;-32.7900;-31.0500;-1.7400
1338.1860;-32.8700;-31.2100;-1.6600
1338.3850;-32.9900;-31.3900;-1.6000
1338.5840;-33.1900;-31.5800;-1.6100
1338.7830;-33.4600;-31.7500;-1.7100
1338.9820;-33.7800;-31.9500;-1.8300
1339.1810;-34.2000;-32.1300;-2.0700
1339.3810;-34.6600;-32.3200;-2.3400
1339.5800;-35.2200;-32.5000;-2.7200
1339.7790;-35.8500;-32.6800;-3.1700
1339.9780;-36.5700;-32.8800;-3.6900
1340.1770;-37.4000;-33.0600;-4.3400
1340.3760;-38.3300;-33.2700;-5.0600
1340.5750;-39.6400;-33.4500;-6.1900
1340.7740;-40.6200;-33.6400;-6.9800
1340.9740;-41.9900;-33.8200;-8.1700
1341.1730;-43.5500;-34.0000;-9.5500
1341.3720;-45.3600;-34.1900;-11.1700
1341.5710;-47.3900;-34.3700;-13.0200
1341.7700;-50.0500;-34.5600;-15.4900
1341.9690;-51.2500;-34.7400;-16.5100
1342.1680;-51.5300;-34.9100;-16.6200
1342.3670;-50.4400;-35.0900;-15.3500
1342.5660;-48.8400;-35.2700;-13.5700
1342.7660;-47.3300;-35.4600;-11.8700
1342.9650;-45.8600;-35.6300;-10.2300
1343.1640;-45.0600;-35.8100;-9.2500
1343.3630;-44.1800;-35.9900;-8.1900
1343.5620;-43.4400;-36.1600;-7.2800
1343.7610;-43.0500;-36.3600;-6.6900
1343.9600;-42.6500;-36.5400;-6.1100
1344.1590;-42.4400;-36.7300;-5.7100
1344.3580;-42.2400;-36.9100;-5.3300
1344.5580;-42.1700;-37.1000;-5.0700
1344.7570;-42.2100;-37.3000;-4.9100
1344.9560;-42.3400;-37.4700;-4.8700
1345.1550;-42.5700;-37.6600;-4.9100
1345.3540;-42.8100;-37.8300;-4.9800
1345.5530;-43.1200;-38.0200;-5.1000
1345.7520;-43.5000;-38.2100;-5.2900
1345.9510;-44.0000;-38.3900;-5.6100
1346.1500;-44.5500;-38.6300;-5.9200
1346.3500;-45.1400;-38.7900;-6.3500
1346.5490;-45.7800;-39.0000;-6.7800
1346.7480;-46.4200;-39.1800;-7.2400
1346.9470;-47.0400;-39.3700;-7.6700
1347.1460;-47.5900;-39.5500;-8.0400
1347.3450;-48.0600;-39.7200;-8.3400
1347.5440;-48.4900;-39.9500;-8.5400
1347.7430;-48.6100;-40.1800;-8.4300
1347.9430;-48.5600;-40.4000;-8.1600
1348.1420;-48.3100;-40.5700;-7.7400
1348.3410;-48.0000;-40.7600;-7.2400
1348.5400;-47.5600;-40.9100;-6.6500
1348.7390;-47.1100;-41.0700;-6.0400
1348.9380;-46.6800;-41.2400;-5.4400
1349.1370;-46.1800;-41.3900;-4.7900
1349.3360;-45.8900;-41.5500;-4.3400
1349.5350;-45.5700;-41.7100;-3.8600
1349.7350;-45.3000;-41.8600;-3.4400
1349.9340;-45.1000;-42.0500;-3.0500
1350.1330;-44.9800;-42.2300;-2.7500
1350.3320;-44.9700;-42.4800;-2.4900
1350.5310;-44.9400;-42.6800;-2.2600
1350.7300;-44.9500;-42.8500;-2.1000
1350.9290;-44.9800;-43.0100;-1.9700
1351.1280;-45.0400;-43.1300;-1.9100
1351.3270;-45.2000;-43.3000;-1.9000
1351.5270;-45.4100;-43.4800;-1.9300
1351.7260;-45.7400;-43.7100;-2.0300
1351.9250;-46.0700;-43.9100;-2.1600
1352.1240;-46.4300;-44.0800;-2.3500
1352.3230;-46.8400;-44.2800;-2.5600
1352.5220;-47.3300;-44.4800;-2.8500
1352.7210;-47.8200;-44.6600;-3.1600
1352.9200;-48.3400;-44.8100;-3.5300
1353.1200;-49.1600;-45.0800;-4.0800
1353.3190;-49.5300;-45.2000;-4.3300
1353.5180;-50.1300;-45.3800;-4.7500
1353.7170;-50.7300;-45.5800;-5.1500
1353.9160;-51.2000;-45.6800;-5.5200
1354.1150;-51.6600;-45.8500;-5.8100
1354.3140;-52.0900;-46.0700;-6.0200
1354.5130;-52.3900;-46.2700;-6.1200
1354.7120;-52.6900;-46.5900;-6.1000
1354.9120;-52.8400;-46.8600;-5.9800
1355.1110;-52.7600;-47.0600;-5.7000
1355.3100;-52.5600;-47.1600;-5.4000
1355.5090;-52.2200;-47.1700;-5.0500
1355.7080;-52.1200;-47.4200;-4.7000
1355.9070;-52.0400;-47.6900;-4.3500
1356.1060;-51.8100;-47.8500;-3.9600
1356.3050;-51.5500;-47.9300;-3.6200
1356.5040;-51.3500;-48.0300;-3.3200
1356.7040;-51.0400;-47.9300;-3.1100
1356.9030;-51.0000;-48.0800;-2.9200
1357.1020;-51.2100;-48.5100;-2.7000
1357.3010;-51.3400;-48.6600;-2.6800
1357.5000;-51.4700;-48.8300;-2.6400
1357.6990;-51.6400;-49.0000;-2.6400
1357.8980;-51.7800;-49.0700;-2.7100
1358.0970;-51.9500;-49.1200;-2.8300
1358.2970;-52.3100;-49.3000;-3.0100
1358.4960;-52.7700;-49.5200;-3.2500
1358.6950;-53.2100;-49.6600;-3.5500
1358.8940;-53.7400;-49.8200;-3.9200
1359.0930;-54.3400;-49.9700;-4.3700
1359.2920;-54.8700;-50.0300;-4.8400
1359.4910;-55.7300;-50.3900;-5.3400
1359.6900;-56.6300;-50.7000;-5.9300
1359.8890;-57.5400;-50.9000;-6.6400
1360.0890;-58.3400;-50.9500;-7.3900
1360.2880;-59.1300;-51.0100;-8.1200
1360.4870;-59.5700;-50.9900;-8.5800
1360.6860;-60.1000;-51.1700;-8.9300
1360.8850;-60.6000;-51.5100;-9.0900
1361.0840;-60.8300;-51.8000;-9.0300
1361.2830;-60.6000;-51.9900;-8.6100
1361.4820;-60.1700;-52.1300;-8.0400
1361.6810;-59.8100;-52.3600;-7.4500
1361.8810;-59.2300;-52.4800;-6.7500
1362.0800;-58.7600;-52.7100;-6.0500
1362.2790;-58.5500;-53.1200;-5.4300
1362.4780;-58.2300;-53.3500;-4.8800
1362.6770;-57.7800;-53.4900;-4.2900
1362.8760;-57.2000;-53.3600;-3.8400
1363.0750;-56.7600;-53.3200;-3.4400
1363.2740;-56.1700;-53.0700;-3.1000
1363.4740;-56.0900;-53.1500;-2.9400
1363.6730;-56.0100;-53.2300;-2.7800
1363.8720;-56.0500;-53.3700;-2.6800
1364.0710;-56.2100;-53.5900;-2.6200
1364.2700;-56.4400;-53.7800;-2.6600
1364.4690;-56.7900;-54.0900;-2.7000
1364.6680;-57.4300;-54.5900;-2.8400
1364.8670;-57.9100;-54.8200;-3.0900
1365.0660;-58.2000;-54.8100;-3.3900
1365.2660;-58.9500;-54.9800;-3.9700
1365.4650;-59.0500;-54.9400;-4.1100
1365.6640;-59.6000;-55.0100;-4.5900
1365.8630;-60.2500;-55.0800;-5.1700
1366.0620;-60.9200;-55.0800;-5.8400
1366.2610;-61.5600;-55.1000;-6.4600
1366.4600;-62.3500;-55.1900;-7.1600
1366.6590;-63.2500;-55.3600;-7.8900
1366.8580;-64.2200;-55.6300;-8.5900
1367.0580;-65.0000;-55.7800;-9.2200
1367.2570;-65.5800;-55.9100;-9.6700
1367.4560;-66.1200;-56.1700;-9.9500
1367.6550;-66.2800;-56.3800;-9.9000
1367.8540;-66.1500;-56.6800;-9.4700
1368.0530;-65.7500;-56.8000;-8.9500
1368.2520;-65.0500;-56.8100;-8.2400
1368.4510;-64.8300;-57.1300;-7.7000
1368.6500;-64.2600;-57.2400;-7.0200
1368.8500;-63.6900;-57.3800;-6.3100
1369.0490;-63.1100;-57.3500;-5.7600
1369.2480;-62.6100;-57.3400;-5.2700
1369.4470;-62.1800;-57.2800;-4.9000
1369.6460;-61.9700;-57.4000;-4.5700
1369.8450;-62.0500;-57.7300;-4.3200
1370.0440;-62.0400;-57.9200;-4.1200
1370.2430;-62.0500;-58.0800;-3.9700
1370.4430;-62.0400;-58.1300;-3.9100
1370.6420;-62.0500;-58.1900;-3.8600
1370.8410;-62.4300;-58.6200;-3.8100
1371.0400;-62.8600;-58.8100;-4.0500
1371.2390;-63.2800;-58.9800;-4.3000
1371.4380;-63.5700;-59.0300;-4.5400
1371.6370;-63.9500;-59.0200;-4.9300
1371.8360;-64.3100;-59.0300;-5.2800
1372.0350;-64.9600;-59.2400;-5.7200
1372.2350;-65.7200;-59.4500;-6.2700
1372.4340;-66.5200;-59.5800;-6.9400
1372.6330;-67.2600;-59.7100;-7.5500
1372.8320;-67.9700;-59.7700;-8.2000
1373.0310;-68.7000;-59.8200;-8.8800
1373.2300;-69.3900;-59.9800;-9.4100
1373.4290;-70.1000;-60.1800;-9.9200
1373.6280;-70.3100;-60.3000;-10.0100
1373.8270;-70.4200;-60.4400;-9.9800
1374.0270;-70.1000;-60.5500;-9.5500
1374.2260;-69.6700;-60.6800;-8.9900
1374.4250;-69.1300;-60.8800;-8.2500
1374.6240;-68.6700;-61.0400;-7.6300
1374.8230;-68.2000;-61.2800;-6.9200
1375.0220;-67.7000;-61.4500;-6.2500
1375.2210;-67.1100;-61.5800;-5.5300
1375.4200;-66.5700;-61.6900;-4.8800
1375.6200;-66.1400;-61.7900;-4.3500
1375.8190;-65.8700;-61.9200;-3.9500
1376.0180;-65.6700;-62.1300;-3.5400
1376.2170;-65.4600;-62.2900;-3.1700
1376.4160;-65.3400;-62.4300;-2.9100
1376.6150;-65.2900;-62.5700;-2.7200
1376.8140;-65.3600;-62.7600;-2.6000
1377.0130;-65.5200;-63.0000;-2.5200
1377.2120;-65.6600;-63.2300;-2.4300
1377.4120;-65.8000;-63.3200;-2.4800
1377.6110;-65.9600;-63.4600;-2.5000
1377.8100;-66.1000;-63.4800;-2.6200
1378.0090;-66.3800;-63.5200;-2.8600
1378.2080;-66.7700;-63.7000;-3.0700
1378.4070;-67.2500;-63.8900;-3.3600
1378.6060;-67.8900;-64.1800;-3.7100
1378.8050;-68.6100;-64.4700;-4.1400
1379.0040;-69.1100;-64.7000;-4.4100
1379.2040;-69.8700;-64.8500;-5.0200
1379.4030;-70.5400;-64.7900;-5.7500
1379.6020;-71.2900;-64.8000;-6.4900
1379.8010;-72.0600;-64.8500;-7.2100
1380.0000;-73.1200;-65.1000;-8.0200
1380.1990;-74.0000;-65.3400;-8.6600
1380.3980;-74.8000;-65.5600;-9.2400
1380.5970;-75.8200;-66.0700;-9.7500
1380.7970;-76.2400;-66.5800;-9.6600
1380.9960;-77.2300;-66.7200;-10.5100
1381.1950;-77.6000;-66.7100;-10.8900
1381.3940;-76.6000;-66.5200;-10.0800
1381.5930;-75.8100;-66.3200;-9.4900
1381.7920;-75.6800;-66.3800;-9.3000
1381.9910;-75.1600;-66.3600;-8.8000
1382.1900;-74.8100;-66.5100;-8.3000
1382.3890;-74.7100;-66.8700;-7.8400
1382.5890;-74.8300;-67.4100;-7.4200
1382.7880;-74.4700;-67.8600;-6.6100
1382.9870;-74.8200;-68.0900;-6.7300
1383.1860;-74.6500;-67.9400;-6.7100
1383.3850;-74.1700;-67.6000;-6.5700
1383.5840;-74.1100;-67.4500;-6.6600
1383.7830;-74.3800;-67.7100;-6.6700
1383.9820;-74.2100;-67.7800;-6.4300
1384.1810;-74.6600;-67.8100;-6.8500
1384.3810;-74.6300;-67.9300;-6.7000
1384.5800;-75.5800;-67.8100;-7.7700
1384.7790;-75.0200;-67.9700;-7.0500
1384.9780;-75.9500;-68.2800;-7.6700
1385.1770;-76.8700;-68.6200;-8.2500
1385.3760;-77.8600;-68.6300;-9.2300
1385.5750;-77.8600;-68.5100;-9.3500
1385.7740;-78.6000;-68.5700;-10.0300
1385.9740;-79.9100;-68.6500;-11.2600
1386.1730;-77.9600;-68.7400;-9.2200
1386.3720;-78.1500;-68.8400;-9.3100
1386.5710;-78.6000;-68.9800;-9.6200
1386.7700;-78.5200;-69.0500;-9.4700
1386.9690;-78.5200;-68.9900;-9.5300
1387.1680;-77.9600;-69.0500;-8.9100
1387.3670;-77.6400;-69.0700;-8.5700
1387.5660;-76.4800;-69.2200;-7.2600
1387.7660;-76.3300;-69.4900;-6.8400
1387.9650;-76.2500;-69.7600;-6.4900
1388.1640;-75.4100;-69.9600;-5.4500
1388.3630;-75.4900;-70.0600;-5.4300
1388.5620;-74.8800;-70.2400;-4.6400
1388.7610;-74.5000;-69.9400;-4.5600
1388.9600;-74.1600;-70.0200;-4.1400
1389.1590;-73.6700;-69.8400;-3.8300
1389.3580;-73.5700;-69.9300;-3.6400
1389.5580;-73.3000;-70.0100;-3.2900
1389.7570;-73.2700;-70.1500;-3.1200
1389.9560;-73.2500;-70.3000;-2.9500
1390.1550;-73.0500;-70.2500;-2.8000
1390.3540;-72.8000;-70.3600;-2.4400
1390.5530;-73.1200;-70.3900;-2.7300
1390.7520;-73.2100;-70.4600;-2.7500
1390.9510;-73.2900;-70.6800;-2.6100
1391.1500;-73.3900;-70.8500;-2.5400
1391.3500;-73.4400;-70.7800;-2.6600
1391.5490;-73.8800;-70.9100;-2.9700
1391.7480;-73.6500;-70.9300;-2.7200
1391.9470;-73.8700;-70.9200;-2.9500
1392.1460;-74.3800;-71.3600;-3.0200
1392.3450;-74.6100;-71.4700;-3.1400
1392.5440;-74.9300;-71.9400;-2.9900
1392.7430;-75.2300;-72.0600;-3.1700
1392.9430;-75.6400;-72.1400;-3.5000
1393.1420;-75.5600;-71.9400;-3.6200
1393.3410;-75.1900;-71.5800;-3.6100
1393.5400;-75.6700;-71.5500;-4.1200
1393.7390;-76.1300;-71.6200;-4.5100
1393.9380;-76.1600;-71.8500;-4.3100
1394.1370;-76.1300;-71.8300;-4.3000
1394.3360;-76.1900;-72.0400;-4.1500
1394.5350;-76.3900;-72.0500;-4.3400
1394.7350;-76.6600;-72.1200;-4.5400
1394.9340;-76.2700;-72.3700;-3.9000
1395.1330;-76.2900;-72.7900;-3.5000
1395.3320;-76.9000;-72.8000;-4.1000
1395.5310;-76.3500;-72.9900;-3.3600
1395.7300;-77.0300;-72.8700;-4.1600
1395.9290;-77.1500;-73.2600;-3.8900
1396.1280;-77.2900;-72.8800;-4.4100
1396.3270;-76.7300;-73.0700;-3.6600
1396.5270;-77.9400;-73.3100;-4.6300
1396.7260;-77.4700;-73.4800;-3.9900
1396.9250;-77.1500;-73.4800;-3.6700
1397.1240;-76.7000;-73.5800;-3.1200
1397.3230;-77.4900;-73.2300;-4.2600
1397.5220;-77.1700;-73.0300;-4.1400
1397.7210;-77.4500;-73.1700;-4.2800
1397.9200;-77.6900;-73.5500;-4.1400
1398.1200;-77.3500;-73.6700;-3.6800
1398.3190;-77.4300;-73.5200;-3.9100
1398.5180;-77.8100;-73.5900;-4.2200
1398.7170;-76.7800;-73.8200;-2.9600
1398.9160;-76.7600;-73.6100;-3.1500
1399.1150;-77.0400;-73.6400;-3.4000
1399.3140;-77.5300;-73.7900;-3.7400
1399.5130;-78.5400;-74.4200;-4.1200
1399.7120;-78.4800;-74.1900;-4.2900
1399.9120;-79.5100;-74.2200;-5.2900
1400.1110;-78.2200;-74.6900;-3.5300
1400.3100;-79.1200;-74.5900;-4.5300
1400.5090;-77.8100;-74.6700;-3.1400
1400.7080;-78.0000;-75.0900;-2.9100
1400.9070;-78.2700;-75.0900;-3.1800
1401.1060;-80.0500;-74.8500;-5.2000
1401.3050;-78.9400;-74.9200;-4.0200
1401.5040;-79.9300;-74.6700;-5.2600
1401.7040;-78.6200;-74.9200;-3.7000
1401.9030;-78.9400;-74.9000;-4.0400
1402.1020;-79.4400;-75.2600;-4.1800
1402.3010;-79.0000;-75.0600;-3.9400
1402.5000;-78.7600;-74.9400;-3.8200
1402.6990;-79.7200;-74.9700;-4.7500
1402.8980;-79.3700;-75.1500;-4.2200
1403.0970;-79.0900;-74.8000;-4.2900
1403.2970;-80.1700;-75.5000;-4.6700
1403.4960;-80.2900;-75.3700;-4.9200
1403.6950;-79.3100;-75.3200;-3.9900
1403.8940;-78.7000;-75.5300;-3.1700
1404.0930;-78.7900;-75.3200;-3.4700
1404.2920;-80.0500;-75.3000;-4.7500
1404.4910;-80.0100;-75.9000;-4.1100
1404.6900;-80.7600;-75.7700;-4.9900
1404.8890;-80.4100;-76.4800;-3.9300
1405.0890;-80.7100;-76.1200;-4.5900
1405.2880;-80.6700;-75.9300;-4.7400
1405.4870;-80.0900;-76.3600;-3.7300
1405.6860;-80.3700;-75.3900;-4.9800
1405.8850;-80.4900;-76.2300;-4.2600
1406.0840;-80.2100;-75.9000;-4.3100
1406.2830;-81.1800;-75.9000;-5.2800
1406.4820;-80.7100;-75.9900;-4.7200
1406.6810;-80.3400;-75.3900;-4.9500
1406.8810;-80.9500;-75.9200;-5.0300
1407.0800;-78.6900;-75.9700;-2.7200
1407.2790;-79.3800;-76.2000;-3.1800
1407.4780;-80.5900;-75.9700;-4.6200
1407.6770;-80.8100;-76.2100;-4.6000
1407.8760;-80.3400;-76.4900;-3.8500
1408.0750;-80.3800;-76.1600;-4.2200
1408.2740;-82.4600;-76.8600;-5.6000
1408.4740;-81.6100;-76.0000;-5.6100
1408.6730;-81.5000;-76.9300;-4.5700
1408.8720;-80.9000;-76.5100;-4.3900
1409.0710;-82.0800;-76.5100;-5.5700
1409.2700;-83.5100;-76.3400;-7.1700
1409.4690;-80.3800;-77.5400;-2.8400
1409.6680;-80.6800;-76.7900;-3.8900
1409.8670;-81.9000;-76.6100;-5.2900
1410.0660;-79.3200;-76.2800;-3.0400
1410.2660;-80.4200;-75.8500;-4.5700
1410.4650;-82.8800;-76.0300;-6.8500
1410.6640;-80.1800;-76.1800;-4.0000
1410.8630;-81.5600;-76.3100;-5.2500
1411.0620;-82.5300;-76.4200;-6.1100
1411.2610;-82.2000;-76.4100;-5.7900
1411.4600;-80.4200;-76.4400;-3.9800
1411.6590;-81.5000;-76.4700;-5.0300
1411.8580;-81.4500;-76.4700;-4.9800
1412.0580;-82.8100;-76.5100;-6.3000
1412.2570;-81.4500;-76.1300;-5.3200
1412.4560;-80.4200;-76.0900;-4.3300
1412.6550;-80.5900;-76.5900;-4.0000
1412.8540;-80.5900;-76.2600;-4.3300
1413.0530;-80.5900;-75.9200;-4.6700
1413.2520;-81.1900;-76.9700;-4.2200
1413.4510;-81.9000;-76.3400;-5.5600
1413.6500;-82.1500;-75.9500;-6.2000
1413.8500;-81.6800;-76.1000;-5.5800
1414.0490;-81.3100;-77.2100;-4.1000
1414.2480;-81.6200;-76.9300;-4.6900
1414.4470;-81.9700;-76.8300;-5.1400
1414.6460;-78.9600;-76.5000;-2.4600
1414.8450;-80.7800;-76.9400;-3.8400
1415.0440;-80.7800;-76.7100;-4.0700
1415.2430;-81.3600;-76.1700;-5.1900
1415.4430;-79.3900;-76.6000;-2.7900
1415.6420;-81.5700;-76.2100;-5.3600
1415.8410;-79.0200;-76.0800;-2.9400
1416.0400;-80.3100;-75.8900;-4.4200
1416.2390;-80.8700;-76.2200;-4.6500
1416.4380;-81.7300;-76.0500;-5.6800
1416.6370;-81.3100;-76.5200;-4.7900
1416.8360;-81.0600;-76.4200;-4.6400
1417.0350;-82.2100;-76.5200;-5.6900
1417.2350;-81.1100;-75.9800;-5.1300
1417.4340;-80.6900;-76.0500;-4.6400
1417.6330;-80.7300;-76.3500;-4.3800
1417.8320;-80.7800;-76.5200;-4.2600
1418.0310;-79.3900;-76.6200;-2.7700
1418.2300;-80.4700;-76.3500;-4.1200
1418.4290;-80.2700;-75.6300;-4.6400
1418.6280;-81.3100;-75.9500;-5.3600
1418.8270;-79.9900;-76.1600;-3.8300
1419.0270;-80.1500;-76.5200;-3.6300
1419.2260;-82.8900;-76.7600;-6.1300
1419.4250;-79.9500;-76.3500;-3.6000
1419.6240;-80.0300;-76.8900;-3.1400
1419.8230;-79.5300;-76.0100;-3.5200
1420.0220;-79.1700;-75.6200;-3.5500
1420.2210;-79.1100;-76.1000;-3.0100
1420.4200;-79.3300;-75.8400;-3.4900
1420.6200;-80.7800;-75.9500;-4.8300
1420.8190;-79.0800;-76.0800;-3.0000
1421.0180;-79.9900;-75.5100;-4.4800
1421.2170;-81.4100;-75.8300;-5.5800
1421.4160;-79.8400;-75.6400;-4.2000
1421.6150;-81.9200;-76.0500;-5.8700
1421.8140;-79.7800;-76.0200;-3.7600
1422.0130;-79.9600;-75.8100;-4.1500
1422.2120;-81.0700;-76.1400;-4.9300
1422.4120;-82.0400;-76.0800;-5.9600
1422.6110;-79.3400;-76.2000;-3.1400
1422.8100;-78.9100;-75.8100;-3.1000
1423.0090;-79.4400;-76.1800;-3.2600
1423.2080;-79.1800;-75.7800;-3.4000
1423.4070;-79.4000;-76.0200;-3.3800
1423.6060;-79.8500;-76.6300;-3.2200
1423.8050;-80.4400;-75.9600;-4.4800
1424.0040;-80.0400;-75.4900;-4.5500
1424.2040;-79.4000;-75.3300;-4.0700
1424.4030;-80.6100;-75.4500;-5.1600
1424.6020;-79.4400;-75.5000;-3.9400
1424.8010;-78.7600;-75.6300;-3.1300
1425.0000;-79.4700;-76.0500;-3.4200
