Wavelength (nm);Intensity (dBm)
1131.0;1131.0
1200.0;-61.61
1200.199;-61.54
1200.398;-61.44
1200.597;-61.44
1200.797;-61.37
1200.996;-61.3
1201.195;-61.24
1201.394;-61.18
1201.593;-61.14
1201.792;-61.08
1201.991;-61.03
1202.19;-60.97
1202.389;-60.92
1202.589;-60.89
1202.788;-60.82
1202.987;-60.79
1203.186;-60.76
1203.385;-60.75
1203.584;-60.73
1203.783;-60.67
1203.982;-60.69
1204.181;-60.67
1204.381;-60.67
1204.58;-60.68
1204.779;-60.7
1204.978;-60.74
1205.177;-60.77
1205.376;-60.76
1205.575;-60.8
1205.774;-60.83
1205.974;-60.87
1206.173;-60.85
1206.372;-60.84
1206.571;-60.88
1206.77;-60.85
1206.969;-60.78
1207.168;-60.75
1207.367;-60.68
1207.566;-60.66
1207.766;-60.57
1207.965;-60.5
1208.164;-60.41
1208.363;-60.34
1208.562;-60.29
1208.761;-60.19
1208.96;-60.11
1209.159;-60.07
1209.358;-60.0
1209.558;-59.93
1209.757;-59.86
1209.956;-59.82
1210.155;-59.78
1210.354;-59.71
1210.553;-59.64
1210.752;-59.6
1210.951;-59.56
1211.15;-59.49
1211.35;-59.44
1211.549;-59.45
1211.748;-59.42
1211.947;-59.37
1212.146;-59.34
1212.345;-59.31
1212.544;-59.34
1212.743;-59.3
1212.943;-59.27
1213.142;-59.27
1213.341;-59.29
1213.54;-59.3
1213.739;-59.25
1213.938;-59.25
1214.137;-59.29
1214.336;-59.28
1214.535;-59.26
1214.735;-59.22
1214.934;-59.24
1215.133;-59.24
1215.332;-59.17
1215.531;-59.16
1215.73;-59.14
1215.929;-59.11
1216.128;-59.06
1216.327;-58.99
1216.527;-59.0
1216.726;-58.97
1216.925;-58.91
1217.124;-58.83
1217.323;-58.81
1217.522;-58.82
1217.721;-58.75
1217.92;-58.69
1218.12;-58.67
1218.319;-58.65
1218.518;-58.63
1218.717;-58.57
1218.916;-58.54
1219.115;-58.54
1219.314;-58.51
1219.513;-58.46
1219.712;-58.42
1219.912;-58.42
1220.111;-58.4
1220.31;-58.33
1220.509;-58.28
1220.708;-58.26
1220.907;-58.22
1221.106;-58.13
1221.305;-58.07
1221.504;-58.04
1221.704;-57.97
1221.903;-57.88
1222.102;-57.79
1222.301;-57.75
1222.5;-57.7
1222.699;-57.61
1222.898;-57.52
1223.097;-57.47
1223.297;-57.43
1223.496;-57.36
1223.695;-57.28
1223.894;-57.25
1224.093;-57.21
1224.292;-57.15
1224.491;-57.08
1224.69;-57.03
1224.889;-56.98
1225.089;-56.9
1225.288;-56.8
1225.487;-56.72
1225.686;-56.63
1225.885;-56.5
1226.084;-56.35
1226.283;-56.23
1226.482;-56.11
1226.681;-55.95
1226.881;-55.76
1227.08;-55.64
1227.279;-55.53
1227.478;-55.37
1227.677;-55.25
1227.876;-55.17
1228.075;-55.06
1228.274;-54.96
1228.474;-54.88
1228.673;-54.83
1228.872;-54.8
1229.071;-54.73
1229.27;-54.7
1229.469;-54.69
1229.668;-54.68
1229.867;-54.67
1230.066;-54.68
1230.266;-54.7
1230.465;-54.74
1230.664;-54.77
1230.863;-54.83
1231.062;-54.9
1231.261;-54.97
1231.46;-55.03
1231.659;-55.08
1231.858;-55.13
1232.058;-55.13
1232.257;-55.09
1232.456;-55.04
1232.655;-54.95
1232.854;-54.82
1233.053;-54.63
1233.252;-54.43
1233.451;-54.23
1233.65;-54.01
1233.85;-53.77
1234.049;-53.55
1234.248;-53.35
1234.447;-53.14
1234.646;-52.96
1234.845;-52.82
1235.044;-52.69
1235.243;-52.57
1235.443;-52.46
1235.642;-52.39
1235.841;-52.35
1236.04;-52.3
1236.239;-52.26
1236.438;-52.24
1236.637;-52.25
1236.836;-52.25
1237.035;-52.24
1237.235;-52.27
1237.434;-52.27
1237.633;-52.27
1237.832;-52.29
1238.031;-52.29
1238.23;-52.28
1238.429;-52.23
1238.628;-52.19
1238.827;-52.14
1239.027;-52.06
1239.226;-51.96
1239.425;-51.84
1239.624;-51.74
1239.823;-51.61
1240.022;-51.47
1240.221;-51.34
1240.42;-51.21
1240.62;-51.09
1240.819;-50.98
1241.018;-50.87
1241.217;-50.79
1241.416;-50.7
1241.615;-50.62
1241.814;-50.59
1242.013;-50.53
1242.212;-50.5
1242.412;-50.45
1242.611;-50.42
1242.81;-50.38
1243.009;-50.32
1243.208;-50.29
1243.407;-50.24
1243.606;-50.16
1243.805;-50.1
1244.004;-50.02
1244.204;-49.96
1244.403;-49.87
1244.602;-49.79
1244.801;-49.74
1245.0;-49.67
1245.199;-49.63
1245.398;-49.59
1245.597;-49.56
1245.797;-49.54
1245.996;-49.5
1246.195;-49.5
1246.394;-49.46
1246.593;-49.39
1246.792;-49.32
1246.991;-49.2
1247.19;-49.05
1247.389;-48.82
1247.589;-48.55
1247.788;-48.24
1247.987;-47.86
1248.186;-47.47
1248.385;-47.03
1248.584;-46.57
1248.783;-46.11
1248.982;-45.59
1249.181;-45.23
1249.381;-44.79
1249.58;-44.37
1249.779;-43.97
1249.978;-43.59
1250.177;-43.25
1250.376;-42.92
1250.575;-42.63
1250.774;-42.33
1250.974;-42.08
1251.173;-41.85
1251.372;-41.62
1251.571;-41.43
1251.77;-41.23
1251.969;-41.05
1252.168;-40.87
1252.367;-40.7
1252.566;-40.56
1252.766;-40.38
1252.965;-40.23
1253.164;-40.07
1253.363;-39.9
1253.562;-39.75
1253.761;-39.56
1253.96;-39.39
1254.159;-39.21
1254.358;-39.01
1254.558;-38.85
1254.757;-38.65
1254.956;-38.46
1255.155;-38.27
1255.354;-38.07
1255.553;-37.9
1255.752;-37.7
1255.951;-37.52
1256.15;-37.34
1256.35;-37.15
1256.549;-36.99
1256.748;-36.81
1256.947;-36.63
1257.146;-36.44
1257.345;-36.27
1257.544;-36.11
1257.743;-35.89
1257.943;-35.75
1258.142;-35.57
1258.341;-35.4
1258.54;-35.22
1258.739;-35.03
1258.938;-34.85
1259.137;-34.67
1259.336;-34.5
1259.535;-34.33
1259.735;-34.15
1259.934;-33.97
1260.133;-33.81
1260.332;-33.64
1260.531;-33.48
1260.73;-33.32
1260.929;-33.16
1261.128;-33.0
1261.327;-32.86
1261.527;-32.72
1261.726;-32.57
1261.925;-32.42
1262.124;-32.28
1262.323;-32.15
1262.522;-32.0
1262.721;-31.87
1262.92;-31.73
1263.12;-31.58
1263.319;-31.45
1263.518;-31.31
1263.717;-31.18
1263.916;-31.03
1264.115;-30.89
1264.314;-30.76
1264.513;-30.62
1264.712;-30.48
1264.912;-30.34
1265.111;-30.2
1265.31;-30.07
1265.509;-29.94
1265.708;-29.81
1265.907;-29.68
1266.106;-29.56
1266.305;-29.45
1266.504;-29.33
1266.704;-29.23
1266.903;-29.12
1267.102;-29.01
1267.301;-28.92
1267.5;-28.83
1267.699;-28.75
1267.898;-28.66
1268.097;-28.59
1268.297;-28.53
1268.496;-28.46
1268.695;-28.41
1268.894;-28.36
1269.093;-28.32
1269.292;-28.3
1269.491;-28.29
1269.69;-28.3
1269.889;-28.31
1270.089;-28.35
1270.288;-28.43
1270.487;-28.52
1270.686;-28.66
1270.885;-28.81
1271.084;-29.01
1271.283;-29.26
1271.482;-29.54
1271.681;-29.89
1271.881;-30.29
1272.08;-30.76
1272.279;-31.31
1272.478;-31.95
1272.677;-32.7
1272.876;-33.53
1273.075;-34.51
1273.274;-35.62
1273.474;-36.85
1273.673;-38.41
1273.872;-39.36
1274.071;-40.11
1274.27;-40.01
1274.469;-39.1
1274.668;-37.72
1274.867;-36.23
1275.066;-34.62
1275.266;-33.55
1275.465;-32.44
1275.664;-31.42
1275.863;-30.54
1276.062;-29.74
1276.261;-29.04
1276.46;-28.43
1276.659;-27.88
1276.858;-27.41
1277.058;-27.0
1277.257;-26.64
1277.456;-26.35
1277.655;-26.06
1277.854;-25.9
1278.053;-25.74
1278.252;-25.62
1278.451;-25.53
1278.65;-25.48
1278.85;-25.47
1279.049;-25.48
1279.248;-25.53
1279.447;-25.59
1279.646;-25.68
1279.845;-25.8
1280.044;-25.93
1280.243;-26.09
1280.443;-26.25
1280.642;-26.42
1280.841;-26.61
1281.04;-26.8
1281.239;-27.01
1281.438;-27.2
1281.637;-27.41
1281.836;-27.61
1282.035;-27.82
1282.235;-28.06
1282.434;-28.33
1282.633;-28.56
1282.832;-28.8
1283.031;-29.09
1283.23;-29.39
1283.429;-29.72
1283.628;-30.08
1283.827;-30.46
1284.027;-30.89
1284.226;-31.34
1284.425;-31.82
1284.624;-32.33
1284.823;-32.83
1285.022;-33.33
1285.221;-33.76
1285.42;-34.09
1285.62;-34.27
1285.819;-34.23
1286.018;-34.0
1286.217;-33.56
1286.416;-32.96
1286.615;-32.29
1286.814;-31.53
1287.013;-30.77
1287.212;-30.0
1287.412;-29.26
1287.611;-28.57
1287.81;-27.89
1288.009;-27.27
1288.208;-26.67
1288.407;-26.03
1288.606;-25.59
1288.805;-25.1
1289.004;-24.64
1289.204;-24.19
1289.403;-23.79
1289.602;-23.39
1289.801;-23.03
1290.0;-22.68
1290.199;-22.35
1290.398;-22.05
1290.597;-21.75
1290.797;-21.47
1290.996;-21.19
1291.195;-20.94
1291.394;-20.73
1291.593;-20.5
1291.792;-20.3
1291.991;-20.12
1292.19;-19.96
1292.389;-19.82
1292.589;-19.67
1292.788;-19.57
1292.987;-19.47
1293.186;-19.39
1293.385;-19.34
1293.584;-19.29
1293.783;-19.27
1293.982;-19.26
1294.181;-19.28
1294.381;-19.32
1294.58;-19.37
1294.779;-19.46
1294.978;-19.55
1295.177;-19.69
1295.376;-19.83
1295.575;-19.99
1295.774;-20.2
1295.974;-20.41
1296.173;-20.67
1296.372;-20.94
1296.571;-21.25
1296.77;-21.6
1296.969;-21.97
1297.168;-22.4
1297.367;-22.85
1297.566;-23.34
1297.766;-23.91
1297.965;-24.52
1298.164;-25.2
1298.363;-25.94
1298.562;-26.76
1298.761;-27.68
1298.96;-28.92
1299.159;-29.84
1299.358;-31.06
1299.558;-32.35
1299.757;-33.58
1299.956;-34.55
1300.155;-34.92
1300.354;-34.56
1300.553;-33.62
1300.752;-32.41
1300.951;-31.17
1301.15;-29.97
1301.35;-28.88
1301.549;-27.9
1301.748;-27.01
1301.947;-26.22
1302.146;-25.38
1302.345;-24.87
1302.544;-24.29
1302.743;-23.76
1302.943;-23.28
1303.142;-22.86
1303.341;-22.48
1303.54;-22.14
1303.739;-21.83
1303.938;-21.55
1304.137;-21.31
1304.336;-21.11
1304.535;-20.92
1304.735;-20.77
1304.934;-20.63
1305.133;-20.54
1305.332;-20.46
1305.531;-20.41
1305.73;-20.39
1305.929;-20.38
1306.128;-20.4
1306.327;-20.45
1306.527;-20.51
1306.726;-20.61
1306.925;-20.71
1307.124;-20.86
1307.323;-21.02
1307.522;-21.21
1307.721;-21.44
1307.92;-21.67
1308.12;-21.95
1308.319;-22.25
1308.518;-22.59
1308.717;-22.97
1308.916;-23.36
1309.115;-23.81
1309.314;-24.28
1309.513;-24.8
1309.712;-25.37
1309.912;-25.96
1310.111;-26.62
1310.31;-27.31
1310.509;-28.06
1310.708;-29.05
1310.907;-29.75
1311.106;-30.65
1311.305;-31.54
1311.504;-32.41
1311.704;-33.13
1311.903;-33.65
1312.102;-33.87
1312.301;-33.78
1312.5;-33.42
1312.699;-32.84
1312.898;-32.18
1313.097;-31.45
1313.297;-30.75
1313.496;-30.1
1313.695;-29.47
1313.894;-28.91
1314.093;-28.39
1314.292;-27.93
1314.491;-27.53
1314.69;-27.16
1314.889;-26.84
1315.089;-26.55
1315.288;-26.31
1315.487;-26.06
1315.686;-25.93
1315.885;-25.78
1316.084;-25.66
1316.283;-25.59
1316.482;-25.53
1316.681;-25.51
1316.881;-25.49
1317.08;-25.52
1317.279;-25.57
1317.478;-25.63
1317.677;-25.73
1317.876;-25.82
1318.075;-25.95
1318.274;-26.1
1318.474;-26.25
1318.673;-26.45
1318.872;-26.64
1319.071;-26.87
1319.27;-27.08
1319.469;-27.31
1319.668;-27.57
1319.867;-27.81
1320.066;-28.07
1320.266;-28.31
1320.465;-28.63
1320.664;-28.82
1320.863;-29.04
1321.062;-29.25
1321.261;-29.42
1321.46;-29.59
1321.659;-29.7
1321.858;-29.8
1322.058;-29.85
1322.257;-29.87
1322.456;-29.87
1322.655;-29.82
1322.854;-29.77
1323.053;-29.67
1323.252;-29.57
1323.451;-29.46
1323.65;-29.34
1323.85;-29.23
1324.049;-29.1
1324.248;-28.98
1324.447;-28.86
1324.646;-28.75
1324.845;-28.66
1325.044;-28.56
1325.243;-28.49
1325.443;-28.42
1325.642;-28.38
1325.841;-28.34
1326.04;-28.31
1326.239;-28.3
1326.438;-28.29
1326.637;-28.3
1326.836;-28.33
1327.035;-28.37
1327.235;-28.43
1327.434;-28.48
1327.633;-28.56
1327.832;-28.64
1328.031;-28.74
1328.23;-28.86
1328.429;-28.97
1328.628;-29.12
1328.827;-29.26
1329.027;-29.41
1329.226;-29.6
1329.425;-29.78
1329.624;-29.98
1329.823;-30.18
1330.022;-30.42
1330.221;-30.66
1330.42;-30.92
1330.62;-31.21
1330.819;-31.51
1331.018;-31.83
1331.217;-32.18
1331.416;-32.55
1331.615;-32.95
1331.814;-33.36
1332.013;-33.82
1332.212;-34.29
1332.412;-34.81
1332.611;-35.38
1332.81;-35.97
1333.009;-36.61
1333.208;-37.29
1333.407;-38.02
1333.606;-38.99
1333.805;-39.69
1334.004;-40.63
1334.204;-41.63
1334.403;-42.72
1334.602;-43.84
1334.801;-45.02
1335.0;-46.16
1335.199;-47.15
1335.398;-47.86
1335.597;-48.11
1335.797;-47.94
1335.996;-47.39
1336.195;-46.65
1336.394;-45.85
1336.593;-45.06
1336.792;-44.35
1336.991;-43.69
1337.19;-43.12
1337.389;-42.61
1337.589;-42.18
1337.788;-41.83
1337.987;-41.52
1338.186;-41.28
1338.385;-41.07
1338.584;-40.92
1338.783;-40.82
1338.982;-40.75
1339.181;-40.74
1339.381;-40.74
1339.58;-40.78
1339.779;-40.85
1339.978;-40.95
1340.177;-41.09
1340.376;-41.23
1340.575;-41.41
1340.774;-41.58
1340.974;-41.76
1341.173;-41.97
1341.372;-42.16
1341.571;-42.38
1341.77;-42.57
1341.969;-42.77
1342.168;-42.95
1342.367;-43.13
1342.566;-43.3
1342.766;-43.44
1342.965;-43.59
1343.164;-43.7
1343.363;-43.8
1343.562;-43.9
1343.761;-43.98
1343.96;-44.07
1344.159;-44.13
1344.358;-44.19
1344.558;-44.25
1344.757;-44.3
1344.956;-44.36
1345.155;-44.4
1345.354;-44.45
1345.553;-44.5
1345.752;-44.57
1345.951;-44.65
1346.15;-44.71
1346.35;-44.8
1346.549;-44.89
1346.748;-44.98
1346.947;-45.08
1347.146;-45.17
1347.345;-45.28
1347.544;-45.43
1347.743;-45.6
1347.943;-45.76
1348.142;-45.89
1348.341;-46.05
1348.54;-46.16
1348.739;-46.31
1348.938;-46.46
1349.137;-46.61
1349.336;-46.77
1349.535;-46.93
1349.735;-47.11
1349.934;-47.3
1350.133;-47.52
1350.332;-47.79
1350.531;-48.03
1350.73;-48.25
1350.929;-48.46
1351.128;-48.61
1351.327;-48.81
1351.527;-49.05
1351.726;-49.32
1351.925;-49.56
1352.124;-49.79
1352.323;-50.02
1352.522;-50.28
1352.721;-50.48
1352.92;-50.7
1353.12;-51.02
1353.319;-51.17
1353.518;-51.41
1353.717;-51.65
1353.916;-51.82
1354.115;-52.03
1354.314;-52.33
1354.513;-52.59
1354.712;-52.98
1354.912;-53.36
1355.111;-53.62
1355.31;-53.87
1355.509;-53.96
1355.708;-54.31
1355.907;-54.69
1356.106;-54.97
1356.305;-55.19
1356.504;-55.42
1356.704;-55.46
1356.903;-55.73
1357.102;-56.19
1357.301;-56.55
1357.5;-56.85
1357.699;-57.15
1357.898;-57.29
1358.097;-57.42
1358.297;-57.7
1358.496;-57.98
1358.695;-58.18
1358.894;-58.37
1359.093;-58.6
1359.292;-58.6
1359.491;-58.98
1359.69;-59.25
1359.889;-59.4
1360.089;-59.43
1360.288;-59.4
1360.487;-59.3
1360.686;-59.4
1360.885;-59.66
1361.084;-59.9
1361.283;-59.96
1361.482;-60.02
1361.681;-60.17
1361.881;-60.19
1362.08;-60.32
1362.279;-60.67
1362.478;-60.83
1362.677;-60.87
1362.876;-60.66
1363.075;-60.53
1363.274;-60.21
1363.474;-60.22
1363.673;-60.25
1363.872;-60.34
1364.071;-60.49
1364.27;-60.62
1364.469;-60.88
1364.668;-61.33
1364.867;-61.5
1365.066;-61.42
1365.266;-61.57
1365.465;-61.45
1365.664;-61.49
1365.863;-61.5
1366.062;-61.44
1366.261;-61.42
1366.46;-61.45
1366.659;-61.61
1366.858;-61.81
1367.058;-61.88
1367.257;-61.98
1367.456;-62.24
1367.655;-62.42
1367.854;-62.67
1368.053;-62.78
1368.252;-62.76
1368.451;-63.08
1368.65;-63.2
1368.85;-63.31
1369.049;-63.28
1369.248;-63.3
1369.447;-63.24
1369.646;-63.37
1369.845;-63.75
1370.044;-64.01
1370.243;-64.2
1370.443;-64.32
1370.642;-64.44
1370.841;-64.82
1371.04;-65.16
1371.239;-65.5
1371.438;-65.7
1371.637;-65.85
1371.836;-65.95
1372.035;-66.37
1372.235;-66.87
1372.434;-67.12
1372.633;-67.54
1372.832;-67.85
1373.031;-68.16
1373.23;-68.59
1373.429;-69.17
1373.628;-69.73
1373.827;-70.21
1374.027;-70.89
1374.226;-71.55
1374.425;-71.92
1374.624;-72.81
1374.823;-73.44
1375.022;-74.4
1375.221;-75.52
1375.42;-76.44
1375.62;-76.63
1375.819;-77.28
1376.018;-78.81
1376.217;-78.34
1376.416;-78.34
1376.615;-78.82
1376.814;-80.38
1377.013;-80.86
1377.212;-79.38
1377.412;-78.24
1377.611;-78.05
1377.81;-77.37
1378.009;-77.27
1378.208;-76.0
1378.407;-76.75
1378.606;-76.33
1378.805;-75.75
1379.004;-76.14
1379.204;-75.44
1379.403;-74.52
1379.602;-75.12
1379.801;-74.95
1380.0;-74.53
1380.199;-74.71
1380.398;-74.89
1380.597;-75.36
1380.797;-76.11
1380.996;-75.93
1381.195;-75.55
1381.394;-75.99
1381.593;-75.18
1381.792;-75.06
1381.991;-75.27
1382.19;-76.12
1382.389;-75.99
1382.589;-77.16
1382.788;-78.05
1382.987;-78.19
1383.186;-79.06
1383.385;-79.12
1383.584;-77.95
1383.783;-79.62
1383.982;-79.12
1384.181;-80.14
1384.381;-79.69
1384.58;-79.7
1384.779;-80.23
1384.978;-81.32
1385.177;-82.5
1385.376;-83.75
1385.575;-81.27
1385.774;-82.05
1385.974;-84.43
1386.173;-82.5
1386.372;-82.3
1386.571;-82.5
1386.77;-81.53
1386.969;-80.65
1387.168;-83.75
1387.367;-81.64
1387.566;-81.42
1387.766;-80.03
1387.965;-80.74
1388.164;-81.42
1388.363;-83.57
1388.562;-82.3
1388.761;-82.71
1388.96;-79.77
1389.159;-79.7
1389.358;-82.11
1389.558;-80.52
1389.757;-83.24
1389.956;-82.85
1390.155;-82.36
1390.354;-83.66
1390.553;-83.93
1390.752;-81.53
1390.951;-80.39
1391.15;-82.5
1391.35;-83.24
1391.549;-210.0
1391.748;-85.13
1391.947;-87.15
1392.146;-84.55
1392.345;-84.55
1392.544;-89.78
1392.743;-86.59
1392.943;-83.09
1393.142;-85.01
1393.341;-83.94
1393.54;-82.37
1393.739;-83.76
1393.938;-85.25
1394.137;-83.33
1394.336;-81.76
1394.535;-86.77
1394.735;-84.77
1394.934;-82.51
1395.133;-83.17
1395.332;-83.76
1395.531;-82.0
1395.73;-83.09
1395.929;-81.65
1396.128;-84.13
1396.327;-82.24
1396.527;-85.52
1396.726;-83.67
1396.925;-82.24
1397.124;-82.51
1397.323;-85.95
1397.522;-82.24
1397.721;-81.65
1397.92;-80.57
1398.12;-82.51
1398.319;-84.13
1398.518;-83.02
1398.717;-80.05
1398.916;-80.89
1399.115;-82.8
1399.314;-81.83
1399.513;-82.52
1399.712;-81.83
1399.912;-82.38
1400.111;-81.04
1400.31;-82.52
1400.509;-81.44
1400.708;-83.59
1400.907;-81.23
1401.106;-83.34
1401.305;-83.18
1401.504;-81.44
1401.704;-83.77
1401.903;-84.35
1402.102;-83.26
1402.301;-84.05
1402.5;-84.14
1402.699;-84.05
1402.898;-83.1
1403.097;-84.56
1403.297;-81.95
1403.496;-86.43
1403.695;-82.25
1403.894;-82.25
1404.093;-80.58
1404.292;-84.56
1404.491;-88.54
1404.69;-84.78
1404.889;-82.38
1405.089;-82.95
1405.288;-83.86
1405.487;-86.43
1405.686;-85.26
1405.885;-84.35
1406.084;-82.25
1406.283;-86.11
1406.482;-81.29
1406.681;-81.78
1406.881;-81.14
1407.08;-83.43
1407.279;-82.53
1407.478;-83.6
1407.677;-82.46
1407.876;-82.26
1408.075;-84.25
1408.274;-81.78
1408.474;-82.81
1408.673;-81.45
1408.872;-83.87
1409.071;-81.72
1409.27;-83.43
1409.469;-82.33
1409.668;-84.36
1409.867;-84.57
1410.066;-82.96
1410.266;-83.6
1410.465;-84.25
1410.664;-82.46
1410.863;-82.53
1411.062;-82.74
1411.261;-83.96
1411.46;-83.43
1411.659;-81.72
1411.858;-82.26
1412.058;-84.36
1412.257;-82.26
1412.456;-82.14
1412.655;-86.28
1412.854;-82.14
1413.053;-82.53
1413.252;-82.96
1413.451;-81.14
1413.65;-85.04
1413.85;-81.46
1414.049;-82.54
1414.248;-87.18
1414.447;-83.28
1414.646;-82.82
1414.845;-81.01
1415.044;-82.4
1415.243;-84.07
1415.443;-83.97
1415.642;-81.57
1415.841;-81.06
1416.04;-81.15
1416.239;-80.6
1416.438;-81.36
1416.637;-82.27
1416.836;-82.97
1417.035;-80.11
1417.235;-80.11
1417.434;-80.82
1417.633;-87.59
1417.832;-82.54
1418.031;-82.89
1418.23;-82.21
1418.429;-81.36
1418.628;-80.03
1418.827;-83.44
1419.027;-83.28
1419.226;-81.97
1419.425;-79.67
1419.624;-82.54
1419.823;-82.34
1420.022;-81.31
1420.221;-83.12
1420.42;-85.16
1420.62;-82.03
1420.819;-81.41
1421.018;-83.36
1421.217;-82.21
1421.416;-81.46
1421.615;-80.74
1421.814;-82.98
1422.013;-81.12
1422.212;-82.35
1422.412;-80.7
1422.611;-80.61
1422.81;-83.98
1423.009;-81.58
1423.208;-81.02
1423.407;-79.21
1423.606;-81.8
1423.805;-82.28
1424.004;-81.74
1424.204;-84.08
1424.403;-82.16
1424.602;-82.04
1424.801;-81.26
1425.0;-80.52
