Wavelength (nm);Intensity (dBm)
1131.0;1131.0
1200.0;-61.46
1200.199;-61.41
1200.398;-61.33
1200.597;-61.29
1200.797;-61.29
1200.996;-61.2
1201.195;-61.19
1201.394;-61.18
1201.593;-61.14
1201.792;-61.08
1201.991;-61.03
1202.19;-61.05
1202.389;-61.04
1202.589;-61.01
1202.788;-60.96
1202.987;-60.94
1203.186;-60.98
1203.385;-60.94
1203.584;-60.88
1203.783;-60.89
1203.982;-60.92
1204.181;-60.89
1204.381;-60.87
1204.58;-60.84
1204.779;-60.86
1204.978;-60.84
1205.177;-60.83
1205.376;-60.8
1205.575;-60.8
1205.774;-60.79
1205.974;-60.79
1206.173;-60.7
1206.372;-60.66
1206.571;-60.65
1206.77;-60.62
1206.969;-60.52
1207.168;-60.45
1207.367;-60.41
1207.566;-60.37
1207.766;-60.27
1207.965;-60.16
1208.164;-60.08
1208.363;-60.06
1208.562;-59.97
1208.761;-59.88
1208.96;-59.84
1209.159;-59.79
1209.358;-59.74
1209.558;-59.64
1209.757;-59.6
1209.956;-59.58
1210.155;-59.53
1210.354;-59.46
1210.553;-59.42
1210.752;-59.41
1210.951;-59.38
1211.15;-59.33
1211.35;-59.3
1211.549;-59.28
1211.748;-59.28
1211.947;-59.23
1212.146;-59.18
1212.345;-59.19
1212.544;-59.21
1212.743;-59.19
1212.943;-59.12
1213.142;-59.13
1213.341;-59.15
1213.54;-59.14
1213.739;-59.11
1213.938;-59.08
1214.137;-59.09
1214.336;-59.09
1214.535;-59.03
1214.735;-59.02
1214.934;-59.01
1215.133;-58.99
1215.332;-58.94
1215.531;-58.91
1215.73;-58.91
1215.929;-58.88
1216.128;-58.83
1216.327;-58.79
1216.527;-58.76
1216.726;-58.77
1216.925;-58.7
1217.124;-58.61
1217.323;-58.61
1217.522;-58.6
1217.721;-58.56
1217.92;-58.48
1218.12;-58.46
1218.319;-58.48
1218.518;-58.44
1218.717;-58.39
1218.916;-58.35
1219.115;-58.36
1219.314;-58.32
1219.513;-58.27
1219.712;-58.26
1219.912;-58.23
1220.111;-58.19
1220.31;-58.11
1220.509;-58.06
1220.708;-58.04
1220.907;-57.99
1221.106;-57.88
1221.305;-57.81
1221.504;-57.75
1221.704;-57.69
1221.903;-57.59
1222.102;-57.49
1222.301;-57.42
1222.5;-57.33
1222.699;-57.24
1222.898;-57.12
1223.097;-57.04
1223.297;-56.99
1223.496;-56.86
1223.695;-56.77
1223.894;-56.71
1224.093;-56.64
1224.292;-56.56
1224.491;-56.45
1224.69;-56.4
1224.889;-56.32
1225.089;-56.23
1225.288;-56.14
1225.487;-56.07
1225.686;-56.02
1225.885;-55.92
1226.084;-55.8
1226.283;-55.74
1226.482;-55.67
1226.681;-55.6
1226.881;-55.52
1227.08;-55.47
1227.279;-55.42
1227.478;-55.36
1227.677;-55.33
1227.876;-55.32
1228.075;-55.33
1228.274;-55.3
1228.474;-55.29
1228.673;-55.33
1228.872;-55.35
1229.071;-55.35
1229.27;-55.36
1229.469;-55.39
1229.668;-55.43
1229.867;-55.41
1230.066;-55.42
1230.266;-55.42
1230.465;-55.41
1230.664;-55.4
1230.863;-55.38
1231.062;-55.35
1231.261;-55.31
1231.46;-55.23
1231.659;-55.15
1231.858;-55.04
1232.058;-54.92
1232.257;-54.74
1232.456;-54.57
1232.655;-54.4
1232.854;-54.18
1233.053;-53.99
1233.252;-53.78
1233.451;-53.58
1233.65;-53.41
1233.85;-53.21
1234.049;-53.08
1234.248;-52.94
1234.447;-52.82
1234.646;-52.73
1234.845;-52.66
1235.044;-52.63
1235.243;-52.58
1235.443;-52.55
1235.642;-52.56
1235.841;-52.57
1236.04;-52.59
1236.239;-52.58
1236.438;-52.61
1236.637;-52.63
1236.836;-52.62
1237.035;-52.63
1237.235;-52.61
1237.434;-52.59
1237.633;-52.54
1237.832;-52.49
1238.031;-52.44
1238.23;-52.36
1238.429;-52.25
1238.628;-52.16
1238.827;-52.04
1239.027;-51.94
1239.226;-51.8
1239.425;-51.68
1239.624;-51.57
1239.823;-51.44
1240.022;-51.33
1240.221;-51.22
1240.42;-51.13
1240.62;-51.04
1240.819;-50.95
1241.018;-50.89
1241.217;-50.82
1241.416;-50.75
1241.615;-50.67
1241.814;-50.6
1242.013;-50.54
1242.212;-50.44
1242.412;-50.36
1242.611;-50.25
1242.81;-50.13
1243.009;-49.99
1243.208;-49.86
1243.407;-49.72
1243.606;-49.55
1243.805;-49.39
1244.004;-49.26
1244.204;-49.11
1244.403;-48.98
1244.602;-48.85
1244.801;-48.74
1245.0;-48.65
1245.199;-48.55
1245.398;-48.5
1245.597;-48.42
1245.797;-48.34
1245.996;-48.28
1246.195;-48.21
1246.394;-48.12
1246.593;-47.99
1246.792;-47.86
1246.991;-47.7
1247.19;-47.49
1247.389;-47.25
1247.589;-46.97
1247.788;-46.67
1247.987;-46.33
1248.186;-45.96
1248.385;-45.55
1248.584;-45.23
1248.783;-44.86
1248.982;-44.49
1249.181;-44.14
1249.381;-43.8
1249.58;-43.46
1249.779;-43.18
1249.978;-42.87
1250.177;-42.61
1250.376;-42.39
1250.575;-42.16
1250.774;-41.97
1250.974;-41.79
1251.173;-41.63
1251.372;-41.49
1251.571;-41.35
1251.77;-41.24
1251.969;-41.11
1252.168;-40.99
1252.367;-40.89
1252.566;-40.79
1252.766;-40.68
1252.965;-40.57
1253.164;-40.46
1253.363;-40.35
1253.562;-40.23
1253.761;-40.11
1253.96;-39.99
1254.159;-39.86
1254.358;-39.73
1254.558;-39.61
1254.757;-39.49
1254.956;-39.35
1255.155;-39.23
1255.354;-39.1
1255.553;-38.98
1255.752;-38.85
1255.951;-38.71
1256.15;-38.59
1256.35;-38.44
1256.549;-38.3
1256.748;-38.17
1256.947;-38.0
1257.146;-37.84
1257.345;-37.66
1257.544;-37.49
1257.743;-37.31
1257.943;-37.1
1258.142;-36.91
1258.341;-36.69
1258.54;-36.48
1258.739;-36.26
1258.938;-36.03
1259.137;-35.78
1259.336;-35.58
1259.535;-35.38
1259.735;-35.15
1259.934;-34.93
1260.133;-34.73
1260.332;-34.51
1260.531;-34.33
1260.73;-34.12
1260.929;-33.93
1261.128;-33.74
1261.327;-33.56
1261.527;-33.42
1261.726;-33.24
1261.925;-33.09
1262.124;-32.94
1262.323;-32.8
1262.522;-32.67
1262.721;-32.53
1262.92;-32.41
1263.12;-32.28
1263.319;-32.15
1263.518;-32.06
1263.717;-31.93
1263.916;-31.82
1264.115;-31.71
1264.314;-31.6
1264.513;-31.52
1264.712;-31.4
1264.912;-31.31
1265.111;-31.2
1265.31;-31.1
1265.509;-31.03
1265.708;-30.92
1265.907;-30.84
1266.106;-30.75
1266.305;-30.67
1266.504;-30.62
1266.704;-30.54
1266.903;-30.49
1267.102;-30.43
1267.301;-30.38
1267.5;-30.36
1267.699;-30.32
1267.898;-30.31
1268.097;-30.3
1268.297;-30.3
1268.496;-30.34
1268.695;-30.36
1268.894;-30.42
1269.093;-30.48
1269.292;-30.57
1269.491;-30.7
1269.69;-30.84
1269.889;-31.02
1270.089;-31.21
1270.288;-31.45
1270.487;-31.76
1270.686;-32.09
1270.885;-32.49
1271.084;-32.94
1271.283;-33.48
1271.482;-34.1
1271.681;-34.8
1271.881;-35.63
1272.08;-36.54
1272.279;-37.58
1272.478;-38.91
1272.677;-39.78
1272.876;-40.6
1273.075;-40.83
1273.274;-40.32
1273.474;-39.2
1273.673;-37.83
1273.872;-36.42
1274.071;-34.88
1274.27;-33.86
1274.469;-32.77
1274.668;-31.79
1274.867;-30.88
1275.066;-30.09
1275.266;-29.36
1275.465;-28.71
1275.664;-28.14
1275.863;-27.61
1276.062;-27.15
1276.261;-26.73
1276.46;-26.36
1276.659;-25.98
1276.858;-25.75
1277.058;-25.53
1277.257;-25.32
1277.456;-25.16
1277.655;-25.02
1277.854;-24.91
1278.053;-24.84
1278.252;-24.77
1278.451;-24.74
1278.65;-24.71
1278.85;-24.7
1279.049;-24.71
1279.248;-24.71
1279.447;-24.72
1279.646;-24.72
1279.845;-24.72
1280.044;-24.72
1280.243;-24.7
1280.443;-24.69
1280.642;-24.64
1280.841;-24.59
1281.04;-24.54
1281.239;-24.47
1281.438;-24.41
1281.637;-24.33
1281.836;-24.27
1282.035;-24.2
1282.235;-24.14
1282.434;-24.1
1282.633;-24.07
1282.832;-24.06
1283.031;-24.06
1283.23;-24.08
1283.429;-24.13
1283.628;-24.2
1283.827;-24.3
1284.027;-24.41
1284.226;-24.56
1284.425;-24.74
1284.624;-24.93
1284.823;-25.16
1285.022;-25.4
1285.221;-25.67
1285.42;-25.98
1285.62;-26.28
1285.819;-26.61
1286.018;-26.93
1286.217;-27.27
1286.416;-27.59
1286.615;-27.87
1286.814;-28.12
1287.013;-28.31
1287.212;-28.39
1287.412;-28.37
1287.611;-28.26
1287.81;-28.04
1288.009;-27.72
1288.208;-27.34
1288.407;-26.88
1288.606;-26.4
1288.805;-25.8
1289.004;-25.37
1289.204;-24.85
1289.403;-24.33
1289.602;-23.85
1289.801;-23.36
1290.0;-22.91
1290.199;-22.47
1290.398;-22.06
1290.597;-21.7
1290.797;-21.32
1290.996;-20.99
1291.195;-20.67
1291.394;-20.38
1291.593;-20.12
1291.792;-19.88
1291.991;-19.69
1292.19;-19.5
1292.389;-19.35
1292.589;-19.21
1292.788;-19.1
1292.987;-19.04
1293.186;-18.97
1293.385;-18.95
1293.584;-18.93
1293.783;-18.95
1293.982;-19.01
1294.181;-19.08
1294.381;-19.18
1294.58;-19.29
1294.779;-19.44
1294.978;-19.63
1295.177;-19.83
1295.376;-20.07
1295.575;-20.32
1295.774;-20.61
1295.974;-20.93
1296.173;-21.29
1296.372;-21.69
1296.571;-22.11
1296.77;-22.58
1296.969;-23.08
1297.168;-23.62
1297.367;-24.21
1297.566;-24.81
1297.766;-25.46
1297.965;-26.14
1298.164;-26.84
1298.363;-27.54
1298.562;-28.29
1298.761;-28.74
1298.96;-29.13
1299.159;-29.34
1299.358;-29.31
1299.558;-29.05
1299.757;-28.62
1299.956;-28.05
1300.155;-27.42
1300.354;-26.75
1300.553;-26.07
1300.752;-25.32
1300.951;-24.81
1301.15;-24.23
1301.35;-23.69
1301.549;-23.21
1301.748;-22.72
1301.947;-22.29
1302.146;-21.9
1302.345;-21.52
1302.544;-21.21
1302.743;-20.88
1302.943;-20.61
1303.142;-20.36
1303.341;-20.12
1303.54;-19.93
1303.739;-19.73
1303.938;-19.58
1304.137;-19.44
1304.336;-19.32
1304.535;-19.23
1304.735;-19.15
1304.934;-19.1
1305.133;-19.06
1305.332;-19.04
1305.531;-19.05
1305.73;-19.07
1305.929;-19.12
1306.128;-19.18
1306.327;-19.25
1306.527;-19.36
1306.726;-19.48
1306.925;-19.63
1307.124;-19.79
1307.323;-19.99
1307.522;-20.2
1307.721;-20.43
1307.92;-20.7
1308.12;-21.0
1308.319;-21.32
1308.518;-21.67
1308.717;-22.05
1308.916;-22.48
1309.115;-22.93
1309.314;-23.43
1309.513;-23.96
1309.712;-24.52
1309.912;-25.13
1310.111;-25.77
1310.31;-26.45
1310.509;-27.14
1310.708;-27.85
1310.907;-28.69
1311.106;-29.21
1311.305;-29.74
1311.504;-30.11
1311.704;-30.27
1311.903;-30.2
1312.102;-29.93
1312.301;-29.49
1312.5;-28.96
1312.699;-28.37
1312.898;-27.76
1313.097;-27.17
1313.297;-26.6
1313.496;-26.0
1313.695;-25.59
1313.894;-25.14
1314.093;-24.74
1314.292;-24.37
1314.491;-24.05
1314.69;-23.74
1314.889;-23.49
1315.089;-23.25
1315.288;-23.04
1315.487;-22.89
1315.686;-22.74
1315.885;-22.63
1316.084;-22.53
1316.283;-22.46
1316.482;-22.43
1316.681;-22.4
1316.881;-22.4
1317.08;-22.42
1317.279;-22.45
1317.478;-22.51
1317.677;-22.57
1317.876;-22.65
1318.075;-22.74
1318.274;-22.85
1318.474;-22.96
1318.673;-23.09
1318.872;-23.24
1319.071;-23.38
1319.27;-23.54
1319.469;-23.69
1319.668;-23.86
1319.867;-24.02
1320.066;-24.18
1320.266;-24.36
1320.465;-24.51
1320.664;-24.68
1320.863;-24.83
1321.062;-24.98
1321.261;-25.13
1321.46;-25.26
1321.659;-25.4
1321.858;-25.51
1322.058;-25.61
1322.257;-25.72
1322.456;-25.81
1322.655;-25.9
1322.854;-25.96
1323.053;-26.03
1323.252;-26.09
1323.451;-26.14
1323.65;-26.2
1323.85;-26.24
1324.049;-26.3
1324.248;-26.33
1324.447;-26.37
1324.646;-26.42
1324.845;-26.45
1325.044;-26.51
1325.243;-26.54
1325.443;-26.59
1325.642;-26.65
1325.841;-26.71
1326.04;-26.78
1326.239;-26.83
1326.438;-26.91
1326.637;-26.97
1326.836;-27.05
1327.035;-27.14
1327.235;-27.23
1327.434;-27.33
1327.633;-27.42
1327.832;-27.53
1328.031;-27.65
1328.23;-27.78
1328.429;-27.91
1328.628;-28.04
1328.827;-28.19
1329.027;-28.34
1329.226;-28.54
1329.425;-28.69
1329.624;-28.86
1329.823;-29.06
1330.022;-29.26
1330.221;-29.49
1330.42;-29.71
1330.62;-29.96
1330.819;-30.23
1331.018;-30.51
1331.217;-30.83
1331.416;-31.14
1331.615;-31.49
1331.814;-31.86
1332.013;-32.25
1332.212;-32.68
1332.412;-33.12
1332.611;-33.62
1332.81;-34.13
1333.009;-34.68
1333.208;-35.27
1333.407;-35.88
1333.606;-36.54
1333.805;-37.23
1334.004;-37.95
1334.204;-38.85
1334.403;-39.45
1334.602;-40.17
1334.801;-40.84
1335.0;-41.41
1335.199;-41.83
1335.398;-42.07
1335.597;-42.11
1335.797;-41.99
1335.996;-41.74
1336.195;-41.37
1336.394;-40.96
1336.593;-40.52
1336.792;-40.1
1336.991;-39.71
1337.19;-39.35
1337.389;-39.05
1337.589;-38.76
1337.788;-38.54
1337.987;-38.35
1338.186;-38.21
1338.385;-38.12
1338.584;-38.06
1338.783;-38.06
1338.982;-38.08
1339.181;-38.15
1339.381;-38.26
1339.58;-38.41
1339.779;-38.6
1339.978;-38.82
1340.177;-39.08
1340.376;-39.38
1340.575;-39.71
1340.774;-40.08
1340.974;-40.46
1341.173;-40.89
1341.372;-41.33
1341.571;-41.81
1341.77;-42.32
1341.969;-42.84
1342.168;-43.39
1342.367;-43.94
1342.566;-44.5
1342.766;-45.05
1342.965;-45.59
1343.164;-46.12
1343.363;-46.59
1343.562;-47.03
1343.761;-47.4
1343.96;-47.72
1344.159;-47.98
1344.358;-48.17
1344.558;-48.32
1344.757;-48.38
1344.956;-48.43
1345.155;-48.41
1345.354;-48.38
1345.553;-48.34
1345.752;-48.29
1345.951;-48.25
1346.15;-48.2
1346.35;-48.16
1346.549;-48.13
1346.748;-48.1
1346.947;-48.08
1347.146;-48.06
1347.345;-48.05
1347.544;-48.09
1347.743;-48.16
1347.943;-48.21
1348.142;-48.24
1348.341;-48.3
1348.54;-48.3
1348.739;-48.35
1348.938;-48.39
1349.137;-48.44
1349.336;-48.49
1349.535;-48.55
1349.735;-48.62
1349.934;-48.69
1350.133;-48.8
1350.332;-48.96
1350.531;-49.08
1350.73;-49.17
1350.929;-49.23
1351.128;-49.27
1351.327;-49.34
1351.527;-49.44
1351.726;-49.6
1351.925;-49.7
1352.124;-49.81
1352.323;-49.91
1352.522;-50.04
1352.721;-50.13
1352.92;-50.22
1353.12;-50.44
1353.319;-50.49
1353.518;-50.63
1353.717;-50.78
1353.916;-50.86
1354.115;-51.0
1354.314;-51.22
1354.513;-51.42
1354.712;-51.74
1354.912;-52.06
1355.111;-52.27
1355.31;-52.45
1355.509;-52.51
1355.708;-52.83
1355.907;-53.17
1356.106;-53.41
1356.305;-53.59
1356.504;-53.8
1356.704;-53.8
1356.903;-54.05
1357.102;-54.5
1357.301;-54.83
1357.5;-55.1
1357.699;-55.37
1357.898;-55.49
1358.097;-55.61
1358.297;-55.86
1358.496;-56.12
1358.695;-56.29
1358.894;-56.45
1359.093;-56.6
1359.292;-56.64
1359.491;-56.98
1359.69;-57.25
1359.889;-57.38
1360.089;-57.41
1360.288;-57.36
1360.487;-57.28
1360.686;-57.38
1360.885;-57.64
1361.084;-57.87
1361.283;-57.94
1361.482;-58.03
1361.681;-58.2
1361.881;-58.25
1362.08;-58.44
1362.279;-58.81
1362.478;-58.99
1362.677;-59.07
1362.876;-58.94
1363.075;-58.86
1363.274;-58.58
1363.474;-58.67
1363.673;-58.74
1363.872;-58.91
1364.071;-59.13
1364.27;-59.36
1364.469;-59.69
1364.668;-60.23
1364.867;-60.51
1365.066;-60.53
1365.266;-60.78
1365.465;-60.74
1365.664;-60.89
1365.863;-60.99
1366.062;-61.04
1366.261;-61.14
1366.46;-61.28
1366.659;-61.49
1366.858;-61.79
1367.058;-62.0
1367.257;-62.19
1367.456;-62.5
1367.655;-62.78
1367.854;-63.12
1368.053;-63.32
1368.252;-63.32
1368.451;-63.72
1368.65;-63.85
1368.85;-63.98
1369.049;-64.1
1369.248;-64.05
1369.447;-63.99
1369.646;-64.16
1369.845;-64.55
1370.044;-64.8
1370.243;-64.94
1370.443;-65.09
1370.642;-65.21
1370.841;-65.51
1371.04;-65.91
1371.239;-66.22
1371.438;-66.33
1371.637;-66.32
1371.836;-66.47
1372.035;-66.84
1372.235;-67.16
1372.434;-67.44
1372.633;-67.7
1372.832;-68.0
1373.031;-68.2
1373.23;-68.6
1373.429;-68.99
1373.628;-69.45
1373.827;-69.78
1374.027;-70.2
1374.226;-70.6
1374.425;-71.08
1374.624;-71.78
1374.823;-72.46
1375.022;-72.82
1375.221;-73.64
1375.42;-74.18
1375.62;-74.1
1375.819;-74.61
1376.018;-75.12
1376.217;-76.46
1376.416;-76.05
1376.615;-76.97
1376.814;-77.37
1377.013;-77.2
1377.212;-76.77
1377.412;-76.54
1377.611;-76.6
1377.81;-75.93
1378.009;-75.78
1378.208;-76.37
1378.407;-75.58
1378.606;-75.68
1378.805;-75.12
1379.004;-75.12
1379.204;-75.22
1379.403;-74.71
1379.602;-74.4
1379.801;-73.84
1380.0;-74.22
1380.199;-73.81
1380.398;-74.08
1380.597;-74.51
1380.797;-74.96
1380.996;-75.06
1381.195;-75.18
1381.394;-74.57
1381.593;-74.57
1381.792;-74.51
1381.991;-74.53
1382.19;-74.42
1382.389;-75.31
1382.589;-76.2
1382.788;-76.59
1382.987;-76.88
1383.186;-76.89
1383.385;-78.0
1383.584;-77.23
1383.783;-77.72
1383.982;-78.17
1384.181;-79.03
1384.381;-78.3
1384.58;-79.99
1384.779;-80.07
1384.978;-79.73
1385.177;-81.87
1385.376;-81.16
1385.575;-80.31
1385.774;-80.92
1385.974;-83.0
1386.173;-82.93
1386.372;-86.09
1386.571;-86.76
1386.77;-83.4
1386.969;-85.24
1387.168;-80.56
1387.367;-84.03
1387.566;-86.58
1387.766;-82.78
1387.965;-87.34
1388.164;-83.16
1388.363;-81.81
1388.562;-82.11
1388.761;-82.17
1388.96;-82.43
1389.159;-81.64
1389.358;-81.27
1389.558;-82.23
1389.757;-81.37
1389.956;-85.94
1390.155;-80.92
1390.354;-84.54
1390.553;-80.74
1390.752;-80.31
1390.951;-81.93
1391.15;-81.87
1391.35;-81.81
1391.549;-82.0
1391.748;-82.65
1391.947;-82.0
1392.146;-83.25
1392.345;-80.66
1392.544;-83.76
1392.743;-83.58
1392.943;-86.59
1393.142;-88.26
1393.341;-82.37
1393.54;-82.31
1393.739;-81.38
1393.938;-81.54
1394.137;-79.64
1394.336;-81.28
1394.535;-82.18
1394.735;-81.88
1394.934;-82.37
1395.133;-84.44
1395.332;-83.25
1395.531;-81.28
1395.73;-81.82
1395.929;-79.92
1396.128;-81.82
1396.327;-82.65
1396.527;-82.24
1396.726;-84.55
1396.925;-81.7
1397.124;-81.08
1397.323;-82.37
1397.522;-81.43
1397.721;-82.51
1397.92;-80.32
1398.12;-81.43
1398.319;-85.25
1398.518;-80.17
1398.717;-81.71
1398.916;-82.95
1399.115;-81.34
1399.314;-82.19
1399.513;-83.42
1399.712;-85.02
1399.912;-80.76
1400.111;-80.89
1400.31;-82.07
1400.509;-81.09
1400.708;-81.89
1400.907;-82.52
1401.106;-85.14
1401.305;-89.12
1401.504;-83.68
1401.704;-83.26
1401.903;-81.13
1402.102;-88.54
1402.301;-85.02
1402.5;-85.39
1402.699;-84.9
1402.898;-82.25
1403.097;-81.55
1403.297;-81.83
1403.496;-80.76
1403.695;-83.5
1403.894;-81.39
1404.093;-82.38
1404.292;-82.01
1404.491;-84.05
1404.69;-88.03
1404.889;-82.95
1405.089;-84.35
1405.288;-82.32
1405.487;-83.02
1405.686;-83.68
1405.885;-81.71
1406.084;-82.52
1406.283;-81.39
1406.482;-81.13
1406.681;-81.05
1406.881;-82.08
1407.08;-83.78
1407.279;-81.96
1407.478;-82.96
1407.677;-81.56
1407.876;-83.43
1408.075;-83.03
1408.274;-82.02
1408.474;-83.35
1408.673;-81.35
1408.872;-82.33
1409.071;-81.19
1409.27;-83.78
1409.469;-82.33
1409.668;-84.06
1409.867;-84.25
1410.066;-81.45
1410.266;-86.79
1410.465;-83.78
1410.664;-82.26
1410.863;-82.33
1411.062;-82.53
1411.261;-83.35
1411.46;-84.79
1411.659;-82.67
1411.858;-84.06
1412.058;-81.1
1412.257;-82.02
1412.456;-80.26
1412.655;-81.14
1412.854;-82.96
1413.053;-80.68
1413.252;-82.26
1413.451;-83.11
1413.65;-81.68
1413.85;-82.03
1414.049;-81.46
1414.248;-82.97
1414.447;-82.15
1414.646;-80.69
1414.845;-83.12
1415.044;-81.2
1415.243;-81.36
1415.443;-81.73
1415.642;-81.01
1415.841;-80.73
1416.04;-81.15
1416.239;-86.13
1416.438;-81.15
1416.637;-82.97
1416.836;-80.6
1417.035;-84.16
1417.235;-80.78
1417.434;-83.7
1417.633;-81.11
1417.832;-83.36
1418.031;-81.41
1418.23;-83.28
1418.429;-82.47
1418.628;-81.79
1418.827;-81.51
1419.027;-79.99
1419.226;-81.41
1419.425;-82.75
1419.624;-82.4
1419.823;-81.57
1420.022;-79.08
1420.221;-79.74
1420.42;-81.25
1420.62;-82.89
1420.819;-79.26
1421.018;-81.79
1421.217;-80.78
1421.416;-82.34
1421.615;-83.37
1421.814;-87.19
1422.013;-80.44
1422.212;-82.48
1422.412;-81.12
1422.611;-89.82
1422.81;-81.92
1423.009;-81.69
1423.208;-80.32
1423.407;-82.1
1423.606;-80.4
1423.805;-83.13
1424.004;-82.55
1424.204;-82.55
1424.403;-83.21
1424.602;-80.36
1424.801;-79.54
1425.0;-81.63
