Wavelength (nm);Intensity (dBm)
1131.0;1131.0
1200.0;-61.44
1200.199;-61.39
1200.398;-61.33
1200.597;-61.3
1200.797;-61.23
1200.996;-61.17
1201.195;-61.12
1201.394;-61.14
1201.593;-61.07
1201.792;-61.02
1201.991;-60.98
1202.19;-60.96
1202.389;-60.98
1202.589;-60.95
1202.788;-60.9
1202.987;-60.88
1203.186;-60.85
1203.385;-60.86
1203.584;-60.84
1203.783;-60.81
1203.982;-60.82
1204.181;-60.8
1204.381;-60.78
1204.58;-60.78
1204.779;-60.78
1204.978;-60.82
1205.177;-60.82
1205.376;-60.79
1205.575;-60.78
1205.774;-60.8
1205.974;-60.8
1206.173;-60.72
1206.372;-60.69
1206.571;-60.7
1206.77;-60.65
1206.969;-60.59
1207.168;-60.49
1207.367;-60.46
1207.566;-60.4
1207.766;-60.29
1207.965;-60.22
1208.164;-60.14
1208.363;-60.09
1208.562;-60.01
1208.761;-59.9
1208.96;-59.88
1209.159;-59.83
1209.358;-59.74
1209.558;-59.65
1209.757;-59.59
1209.956;-59.6
1210.155;-59.55
1210.354;-59.48
1210.553;-59.44
1210.752;-59.41
1210.951;-59.4
1211.15;-59.32
1211.35;-59.27
1211.549;-59.28
1211.748;-59.26
1211.947;-59.23
1212.146;-59.17
1212.345;-59.17
1212.544;-59.19
1212.743;-59.17
1212.943;-59.13
1213.142;-59.12
1213.341;-59.16
1213.54;-59.15
1213.739;-59.11
1213.938;-59.12
1214.137;-59.12
1214.336;-59.11
1214.535;-59.08
1214.735;-59.03
1214.934;-59.06
1215.133;-59.02
1215.332;-58.98
1215.531;-58.95
1215.73;-58.95
1215.929;-58.94
1216.128;-58.88
1216.327;-58.84
1216.527;-58.82
1216.726;-58.8
1216.925;-58.75
1217.124;-58.69
1217.323;-58.69
1217.522;-58.67
1217.721;-58.62
1217.92;-58.57
1218.12;-58.54
1218.319;-58.55
1218.518;-58.52
1218.717;-58.46
1218.916;-58.45
1219.115;-58.43
1219.314;-58.41
1219.513;-58.35
1219.712;-58.32
1219.912;-58.33
1220.111;-58.29
1220.31;-58.24
1220.509;-58.16
1220.708;-58.14
1220.907;-58.11
1221.106;-58.0
1221.305;-57.93
1221.504;-57.88
1221.704;-57.81
1221.903;-57.72
1222.102;-57.61
1222.301;-57.55
1222.5;-57.47
1222.699;-57.37
1222.898;-57.26
1223.097;-57.18
1223.297;-57.13
1223.496;-57.0
1223.695;-56.91
1223.894;-56.87
1224.093;-56.77
1224.292;-56.69
1224.491;-56.58
1224.69;-56.51
1224.889;-56.45
1225.089;-56.34
1225.288;-56.24
1225.487;-56.15
1225.686;-56.06
1225.885;-55.97
1226.084;-55.84
1226.283;-55.74
1226.482;-55.65
1226.681;-55.54
1226.881;-55.46
1227.08;-55.39
1227.279;-55.34
1227.478;-55.24
1227.677;-55.18
1227.876;-55.17
1228.075;-55.13
1228.274;-55.12
1228.474;-55.09
1228.673;-55.11
1228.872;-55.13
1229.071;-55.12
1229.27;-55.15
1229.469;-55.17
1229.668;-55.19
1229.867;-55.21
1230.066;-55.22
1230.266;-55.25
1230.465;-55.26
1230.664;-55.26
1230.863;-55.28
1231.062;-55.27
1231.261;-55.25
1231.46;-55.2
1231.659;-55.13
1231.858;-55.07
1232.058;-54.95
1232.257;-54.79
1232.456;-54.63
1232.655;-54.45
1232.854;-54.25
1233.053;-54.03
1233.252;-53.82
1233.451;-53.61
1233.65;-53.41
1233.85;-53.22
1234.049;-53.05
1234.248;-52.91
1234.447;-52.76
1234.646;-52.65
1234.845;-52.59
1235.044;-52.52
1235.243;-52.48
1235.443;-52.43
1235.642;-52.43
1235.841;-52.44
1236.04;-52.44
1236.239;-52.45
1236.438;-52.46
1236.637;-52.49
1236.836;-52.5
1237.035;-52.5
1237.235;-52.51
1237.434;-52.48
1237.633;-52.45
1237.832;-52.43
1238.031;-52.37
1238.23;-52.32
1238.429;-52.22
1238.628;-52.13
1238.827;-52.04
1239.027;-51.92
1239.226;-51.8
1239.425;-51.66
1239.624;-51.55
1239.823;-51.42
1240.022;-51.29
1240.221;-51.2
1240.42;-51.09
1240.62;-50.99
1240.819;-50.9
1241.018;-50.82
1241.217;-50.76
1241.416;-50.68
1241.615;-50.61
1241.814;-50.55
1242.013;-50.48
1242.212;-50.41
1242.412;-50.32
1242.611;-50.23
1242.81;-50.13
1243.009;-49.99
1243.208;-49.89
1243.407;-49.76
1243.606;-49.61
1243.805;-49.48
1244.004;-49.35
1244.204;-49.24
1244.403;-49.1
1244.602;-49.0
1244.801;-48.91
1245.0;-48.82
1245.199;-48.76
1245.398;-48.7
1245.597;-48.64
1245.797;-48.58
1245.996;-48.5
1246.195;-48.46
1246.394;-48.37
1246.593;-48.25
1246.792;-48.12
1246.991;-47.94
1247.19;-47.73
1247.389;-47.47
1247.589;-47.18
1247.788;-46.86
1247.987;-46.49
1248.186;-46.13
1248.385;-45.67
1248.584;-45.35
1248.783;-44.94
1248.982;-44.57
1249.181;-44.2
1249.381;-43.84
1249.58;-43.51
1249.779;-43.2
1249.978;-42.9
1250.177;-42.63
1250.376;-42.39
1250.575;-42.18
1250.774;-41.96
1250.974;-41.79
1251.173;-41.63
1251.372;-41.47
1251.571;-41.35
1251.77;-41.21
1251.969;-41.1
1252.168;-40.98
1252.367;-40.86
1252.566;-40.77
1252.766;-40.65
1252.965;-40.54
1253.164;-40.42
1253.363;-40.3
1253.562;-40.19
1253.761;-40.04
1253.96;-39.93
1254.159;-39.78
1254.358;-39.63
1254.558;-39.51
1254.757;-39.36
1254.956;-39.22
1255.155;-39.07
1255.354;-38.92
1255.553;-38.79
1255.752;-38.63
1255.951;-38.49
1256.15;-38.34
1256.35;-38.17
1256.549;-38.02
1256.748;-37.86
1256.947;-37.69
1257.146;-37.5
1257.345;-37.32
1257.544;-37.15
1257.743;-36.94
1257.943;-36.75
1258.142;-36.55
1258.341;-36.33
1258.54;-36.13
1258.739;-35.87
1258.938;-35.69
1259.137;-35.48
1259.336;-35.27
1259.535;-35.05
1259.735;-34.84
1259.934;-34.63
1260.133;-34.44
1260.332;-34.25
1260.531;-34.05
1260.73;-33.87
1260.929;-33.69
1261.128;-33.51
1261.327;-33.35
1261.527;-33.19
1261.726;-33.04
1261.925;-32.88
1262.124;-32.73
1262.323;-32.61
1262.522;-32.47
1262.721;-32.34
1262.92;-32.21
1263.12;-32.08
1263.319;-31.97
1263.518;-31.85
1263.717;-31.74
1263.916;-31.61
1264.115;-31.5
1264.314;-31.4
1264.513;-31.28
1264.712;-31.18
1264.912;-31.07
1265.111;-30.96
1265.31;-30.87
1265.509;-30.77
1265.708;-30.68
1265.907;-30.58
1266.106;-30.49
1266.305;-30.41
1266.504;-30.33
1266.704;-30.26
1266.903;-30.19
1267.102;-30.12
1267.301;-30.07
1267.5;-30.03
1267.699;-30.0
1267.898;-29.96
1268.097;-29.95
1268.297;-29.94
1268.496;-29.95
1268.695;-29.97
1268.894;-29.99
1269.093;-30.04
1269.292;-30.11
1269.491;-30.21
1269.69;-30.33
1269.889;-30.46
1270.089;-30.63
1270.288;-30.84
1270.487;-31.09
1270.686;-31.39
1270.885;-31.73
1271.084;-32.12
1271.283;-32.59
1271.482;-33.12
1271.681;-33.75
1271.881;-34.46
1272.08;-35.28
1272.279;-36.22
1272.478;-37.25
1272.677;-38.59
1272.876;-39.47
1273.075;-40.32
1273.274;-40.59
1273.474;-40.13
1273.673;-39.06
1273.872;-37.71
1274.071;-36.33
1274.27;-34.79
1274.469;-33.8
1274.668;-32.72
1274.867;-31.74
1275.066;-30.86
1275.266;-30.07
1275.465;-29.37
1275.664;-28.73
1275.863;-28.18
1276.062;-27.67
1276.261;-27.22
1276.46;-26.83
1276.659;-26.47
1276.858;-26.19
1277.058;-25.88
1277.257;-25.73
1277.456;-25.54
1277.655;-25.41
1277.854;-25.3
1278.053;-25.21
1278.252;-25.17
1278.451;-25.12
1278.65;-25.12
1278.85;-25.12
1279.049;-25.12
1279.248;-25.15
1279.447;-25.17
1279.646;-25.19
1279.845;-25.2
1280.044;-25.2
1280.243;-25.21
1280.443;-25.18
1280.642;-25.16
1280.841;-25.1
1281.04;-25.03
1281.239;-24.97
1281.438;-24.88
1281.637;-24.81
1281.836;-24.71
1282.035;-24.63
1282.235;-24.56
1282.434;-24.49
1282.633;-24.46
1282.832;-24.41
1283.031;-24.4
1283.23;-24.4
1283.429;-24.42
1283.628;-24.48
1283.827;-24.55
1284.027;-24.66
1284.226;-24.79
1284.425;-24.94
1284.624;-25.13
1284.823;-25.33
1285.022;-25.57
1285.221;-25.82
1285.42;-26.08
1285.62;-26.37
1285.819;-26.65
1286.018;-26.94
1286.217;-27.2
1286.416;-27.45
1286.615;-27.67
1286.814;-27.81
1287.013;-27.89
1287.212;-27.87
1287.412;-27.76
1287.611;-27.57
1287.81;-27.29
1288.009;-26.95
1288.208;-26.54
1288.407;-26.09
1288.606;-25.63
1288.805;-25.14
1289.004;-24.67
1289.204;-24.17
1289.403;-23.71
1289.602;-23.25
1289.801;-22.82
1290.0;-22.42
1290.199;-22.02
1290.398;-21.66
1290.597;-21.32
1290.797;-21.0
1290.996;-20.7
1291.195;-20.41
1291.394;-20.18
1291.593;-19.94
1291.792;-19.73
1291.991;-19.56
1292.19;-19.41
1292.389;-19.29
1292.589;-19.17
1292.788;-19.1
1292.987;-19.04
1293.186;-19.01
1293.385;-19.02
1293.584;-19.02
1293.783;-19.08
1293.982;-19.15
1294.181;-19.24
1294.381;-19.37
1294.58;-19.5
1294.779;-19.69
1294.978;-19.89
1295.177;-20.12
1295.376;-20.39
1295.575;-20.67
1295.774;-21.0
1295.974;-21.34
1296.173;-21.75
1296.372;-22.18
1296.571;-22.65
1296.77;-23.18
1296.969;-23.73
1297.168;-24.35
1297.367;-25.0
1297.566;-25.7
1297.766;-26.47
1297.965;-27.26
1298.164;-28.1
1298.363;-29.07
1298.562;-29.69
1298.761;-30.31
1298.96;-30.73
1299.159;-30.84
1299.358;-30.63
1299.558;-30.15
1299.757;-29.47
1299.956;-28.7
1300.155;-27.89
1300.354;-27.09
1300.553;-26.33
1300.752;-25.48
1300.951;-24.94
1301.15;-24.33
1301.35;-23.78
1301.549;-23.25
1301.748;-22.77
1301.947;-22.33
1302.146;-21.92
1302.345;-21.56
1302.544;-21.22
1302.743;-20.92
1302.943;-20.64
1303.142;-20.39
1303.341;-20.17
1303.54;-19.96
1303.739;-19.79
1303.938;-19.63
1304.137;-19.5
1304.336;-19.4
1304.535;-19.31
1304.735;-19.24
1304.934;-19.19
1305.133;-19.17
1305.332;-19.17
1305.531;-19.18
1305.73;-19.22
1305.929;-19.26
1306.128;-19.34
1306.327;-19.44
1306.527;-19.55
1306.726;-19.7
1306.925;-19.85
1307.124;-20.04
1307.323;-20.24
1307.522;-20.48
1307.721;-20.75
1307.92;-21.02
1308.12;-21.35
1308.319;-21.7
1308.518;-22.08
1308.717;-22.51
1308.916;-22.95
1309.115;-23.46
1309.314;-23.99
1309.513;-24.57
1309.712;-25.2
1309.912;-25.85
1310.111;-26.58
1310.31;-27.32
1310.509;-28.09
1310.708;-29.04
1310.907;-29.64
1311.106;-30.3
1311.305;-30.79
1311.504;-31.06
1311.704;-31.04
1311.903;-30.76
1312.102;-30.28
1312.301;-29.68
1312.5;-29.03
1312.699;-28.34
1312.898;-27.68
1313.097;-27.05
1313.297;-26.46
1313.496;-25.85
1313.695;-25.44
1313.894;-25.01
1314.093;-24.6
1314.292;-24.26
1314.491;-23.93
1314.69;-23.65
1314.889;-23.4
1315.089;-23.17
1315.288;-23.0
1315.487;-22.84
1315.686;-22.72
1315.885;-22.61
1316.084;-22.53
1316.283;-22.49
1316.482;-22.45
1316.681;-22.45
1316.881;-22.45
1317.08;-22.49
1317.279;-22.54
1317.478;-22.6
1317.677;-22.69
1317.876;-22.77
1318.075;-22.88
1318.274;-23.0
1318.474;-23.12
1318.673;-23.28
1318.872;-23.41
1319.071;-23.58
1319.27;-23.73
1319.469;-23.89
1319.668;-24.08
1319.867;-24.24
1320.066;-24.42
1320.266;-24.58
1320.465;-24.75
1320.664;-24.92
1320.863;-25.07
1321.062;-25.23
1321.261;-25.36
1321.46;-25.5
1321.659;-25.62
1321.858;-25.73
1322.058;-25.84
1322.257;-25.92
1322.456;-26.02
1322.655;-26.08
1322.854;-26.14
1323.053;-26.21
1323.252;-26.26
1323.451;-26.31
1323.65;-26.34
1323.85;-26.38
1324.049;-26.42
1324.248;-26.45
1324.447;-26.49
1324.646;-26.52
1324.845;-26.56
1325.044;-26.59
1325.243;-26.62
1325.443;-26.68
1325.642;-26.73
1325.841;-26.79
1326.04;-26.84
1326.239;-26.9
1326.438;-26.97
1326.637;-27.04
1326.836;-27.13
1327.035;-27.2
1327.235;-27.3
1327.434;-27.4
1327.633;-27.5
1327.832;-27.62
1328.031;-27.73
1328.23;-27.87
1328.429;-28.0
1328.628;-28.14
1328.827;-28.29
1329.027;-28.49
1329.226;-28.64
1329.425;-28.81
1329.624;-29.01
1329.823;-29.2
1330.022;-29.42
1330.221;-29.65
1330.42;-29.89
1330.62;-30.16
1330.819;-30.43
1331.018;-30.73
1331.217;-31.05
1331.416;-31.38
1331.615;-31.75
1331.814;-32.13
1332.013;-32.55
1332.212;-32.99
1332.412;-33.46
1332.611;-33.97
1332.81;-34.5
1333.009;-35.08
1333.208;-35.67
1333.407;-36.32
1333.606;-37.0
1333.805;-37.71
1334.004;-38.6
1334.204;-39.21
1334.403;-39.96
1334.602;-40.66
1334.801;-41.3
1335.0;-41.8
1335.199;-42.13
1335.398;-42.28
1335.597;-42.22
1335.797;-42.03
1335.996;-41.69
1336.195;-41.29
1336.394;-40.85
1336.593;-40.41
1336.792;-39.99
1336.991;-39.6
1337.19;-39.27
1337.389;-38.96
1337.589;-38.71
1337.788;-38.5
1337.987;-38.33
1338.186;-38.22
1338.385;-38.13
1338.584;-38.1
1338.783;-38.1
1338.982;-38.14
1339.181;-38.24
1339.381;-38.36
1339.58;-38.54
1339.779;-38.73
1339.978;-38.98
1340.177;-39.26
1340.376;-39.57
1340.575;-39.94
1340.774;-40.31
1340.974;-40.72
1341.173;-41.16
1341.372;-41.63
1341.571;-42.15
1341.77;-42.66
1341.969;-43.22
1342.168;-43.78
1342.367;-44.34
1342.566;-44.92
1342.766;-45.49
1342.965;-46.05
1343.164;-46.56
1343.363;-47.03
1343.562;-47.43
1343.761;-47.79
1343.96;-48.08
1344.159;-48.28
1344.358;-48.46
1344.558;-48.52
1344.757;-48.56
1344.956;-48.53
1345.155;-48.49
1345.354;-48.43
1345.553;-48.36
1345.752;-48.29
1345.951;-48.22
1346.15;-48.15
1346.35;-48.11
1346.549;-48.07
1346.748;-48.04
1346.947;-47.99
1347.146;-47.98
1347.345;-47.95
1347.544;-47.99
1347.743;-48.06
1347.943;-48.1
1348.142;-48.13
1348.341;-48.17
1348.54;-48.18
1348.739;-48.22
1348.938;-48.26
1349.137;-48.31
1349.336;-48.34
1349.535;-48.4
1349.735;-48.46
1349.934;-48.54
1350.133;-48.66
1350.332;-48.8
1350.531;-48.92
1350.73;-49.0
1350.929;-49.06
1351.128;-49.11
1351.327;-49.18
1351.527;-49.29
1351.726;-49.44
1351.925;-49.56
1352.124;-49.66
1352.323;-49.78
1352.522;-49.93
1352.721;-50.01
1352.92;-50.13
1353.12;-50.35
1353.319;-50.42
1353.518;-50.56
1353.717;-50.73
1353.916;-50.83
1354.115;-50.97
1354.314;-51.21
1354.513;-51.42
1354.712;-51.75
1354.912;-52.09
1355.111;-52.31
1355.31;-52.53
1355.509;-52.58
1355.708;-52.92
1355.907;-53.27
1356.106;-53.52
1356.305;-53.72
1356.504;-53.94
1356.704;-53.96
1356.903;-54.21
1357.102;-54.67
1357.301;-55.0
1357.5;-55.28
1357.699;-55.57
1357.898;-55.69
1358.097;-55.82
1358.297;-56.05
1358.496;-56.31
1358.695;-56.47
1358.894;-56.63
1359.093;-56.8
1359.292;-56.8
1359.491;-57.14
1359.69;-57.39
1359.889;-57.51
1360.089;-57.52
1360.288;-57.46
1360.487;-57.38
1360.686;-57.45
1360.885;-57.71
1361.084;-57.92
1361.283;-57.99
1361.482;-58.07
1361.681;-58.21
1361.881;-58.27
1362.08;-58.44
1362.279;-58.8
1362.478;-58.98
1362.677;-59.06
1362.876;-58.91
1363.075;-58.82
1363.274;-58.55
1363.474;-58.62
1363.673;-58.69
1363.872;-58.85
1364.071;-59.07
1364.27;-59.28
1364.469;-59.61
1364.668;-60.16
1364.867;-60.43
1365.066;-60.43
1365.266;-60.68
1365.465;-60.65
1365.664;-60.78
1365.863;-60.91
1366.062;-60.98
1366.261;-61.04
1366.46;-61.15
1366.659;-61.39
1366.858;-61.71
1367.058;-61.92
1367.257;-62.11
1367.456;-62.41
1367.655;-62.69
1367.854;-63.04
1368.053;-63.24
1368.252;-63.27
1368.451;-63.65
1368.65;-63.78
1368.85;-63.97
1369.049;-64.02
1369.248;-64.04
1369.447;-64.04
1369.646;-64.2
1369.845;-64.53
1370.044;-64.8
1370.243;-65.01
1370.443;-65.16
1370.642;-65.31
1370.841;-65.63
1371.04;-66.07
1371.239;-66.33
1371.438;-66.47
1371.637;-66.54
1371.836;-66.63
1372.035;-67.05
1372.235;-67.31
1372.434;-67.62
1372.633;-67.94
1372.832;-68.16
1373.031;-68.4
1373.23;-68.89
1373.429;-69.38
1373.628;-69.78
1373.827;-70.1
1374.027;-70.6
1374.226;-70.92
1374.425;-71.54
1374.624;-72.11
1374.823;-72.77
1375.022;-73.06
1375.221;-73.45
1375.42;-74.13
1375.62;-74.8
1375.819;-75.3
1376.018;-75.83
1376.217;-76.31
1376.416;-75.95
1376.615;-76.57
1376.814;-76.43
1377.013;-76.95
1377.212;-76.25
1377.412;-76.57
1377.611;-75.84
1377.81;-76.05
1378.009;-75.39
1378.208;-74.93
1378.407;-75.18
1378.606;-75.29
1378.805;-74.99
1379.004;-74.89
1379.204;-74.59
1379.403;-74.27
1379.602;-74.21
1379.801;-74.08
1380.0;-73.74
1380.199;-74.22
1380.398;-74.04
1380.597;-74.64
1380.797;-75.31
1380.996;-75.12
1381.195;-75.1
1381.394;-74.84
1381.593;-74.59
1381.792;-74.46
1381.991;-74.55
1382.19;-74.49
1382.389;-75.1
1382.589;-76.45
1382.788;-76.55
1382.987;-77.2
1383.186;-77.31
1383.385;-77.33
1383.584;-77.72
1383.783;-77.33
1383.982;-78.22
1384.181;-78.17
1384.381;-78.82
1384.58;-78.68
1384.779;-80.39
1384.978;-80.83
1385.177;-80.65
1385.376;-80.39
1385.575;-80.19
1385.774;-82.5
1385.974;-82.64
1386.173;-82.23
1386.372;-82.11
1386.571;-83.75
1386.77;-80.87
1386.969;-83.0
1387.168;-82.11
1387.367;-82.71
1387.566;-86.09
1387.766;-81.99
1387.965;-83.48
1388.164;-82.78
1388.363;-84.43
1388.562;-84.88
1388.761;-83.32
1388.96;-83.84
1389.159;-81.75
1389.358;-83.08
1389.558;-81.11
1389.757;-83.08
1389.956;-82.78
1390.155;-80.56
1390.354;-80.92
1390.553;-81.93
1390.752;-81.21
1390.951;-83.48
1391.15;-83.24
1391.35;-82.5
1391.549;-82.79
1391.748;-82.24
1391.947;-81.33
1392.146;-80.93
1392.345;-83.09
1392.544;-84.55
1392.743;-81.65
1392.943;-87.35
1393.142;-83.25
1393.341;-81.94
1393.54;-82.51
1393.739;-81.33
1393.938;-82.24
1394.137;-82.31
1394.336;-82.0
1394.535;-82.18
1394.735;-84.13
1394.934;-82.37
1395.133;-81.65
1395.332;-82.72
1395.531;-82.51
1395.73;-81.48
1395.929;-80.57
1396.128;-81.12
1396.327;-85.38
1396.527;-82.18
1396.726;-80.75
1396.925;-81.76
1397.124;-81.7
1397.323;-81.54
1397.522;-80.66
1397.721;-81.94
1397.92;-80.93
1398.12;-80.75
1398.319;-82.24
1398.518;-83.18
1398.717;-82.8
1398.916;-82.38
1399.115;-82.52
1399.314;-82.8
1399.513;-82.95
1399.712;-82.01
1399.912;-81.95
1400.111;-83.68
1400.31;-82.07
1400.509;-81.55
1400.708;-81.09
1400.907;-82.25
1401.106;-82.25
1401.305;-83.26
1401.504;-83.42
1401.704;-210.0
1401.903;-88.54
1402.102;-88.54
1402.301;-82.25
1402.5;-82.52
1402.699;-81.77
1402.898;-84.45
1403.097;-83.95
1403.297;-84.35
1403.496;-85.02
1403.695;-81.55
1403.894;-82.52
1404.093;-82.73
1404.292;-82.25
1404.491;-82.13
1404.69;-81.34
1404.889;-81.89
1405.089;-83.95
1405.288;-91.04
1405.487;-84.05
1405.686;-82.52
1405.885;-82.19
1406.084;-81.83
1406.283;-80.76
1406.482;-82.95
1406.681;-84.36
1406.881;-82.81
1407.08;-82.26
1407.279;-82.2
1407.478;-84.36
1407.677;-84.46
1407.876;-85.15
1408.075;-81.45
1408.274;-85.27
1408.474;-83.78
1408.673;-84.06
1408.872;-82.81
1409.071;-85.54
1409.27;-82.96
1409.469;-84.36
1409.668;-86.44
1409.867;-84.57
1410.066;-86.79
1410.266;-84.68
1410.465;-83.43
1410.664;-83.19
1410.863;-82.2
1411.062;-80.59
1411.261;-83.19
1411.46;-85.03
1411.659;-83.03
1411.858;-82.02
1412.058;-82.88
1412.257;-83.96
1412.456;-83.43
1412.655;-81.24
1412.854;-81.35
1413.053;-82.81
1413.252;-81.9
1413.451;-81.4
1413.65;-82.68
1413.85;-82.47
1414.049;-82.97
1414.248;-80.35
1414.447;-82.15
1414.646;-82.54
1414.845;-83.12
1415.044;-83.44
1415.243;-82.27
1415.443;-85.04
1415.642;-84.47
1415.841;-82.54
1416.04;-82.97
1416.239;-81.79
1416.438;-81.51
1416.637;-82.89
1416.836;-84.37
1417.035;-83.04
1417.235;-83.79
1417.434;-83.79
1417.633;-83.79
1417.832;-83.28
1418.031;-81.06
1418.23;-82.97
1418.429;-82.15
1418.628;-84.37
1418.827;-82.4
1419.027;-83.12
1419.226;-84.58
1419.425;-82.03
1419.624;-83.36
1419.823;-80.87
1420.022;-81.57
1420.221;-82.54
1420.42;-80.23
1420.62;-80.69
1420.819;-81.79
1421.018;-84.58
1421.217;-81.2
1421.416;-82.68
1421.615;-83.29
1421.814;-82.83
1422.013;-80.65
1422.212;-83.13
1422.412;-82.55
1422.611;-80.52
1422.81;-81.63
1423.009;-81.37
1423.208;-80.0
1423.407;-84.17
1423.606;-82.55
1423.805;-81.92
1424.004;-82.55
1424.204;-82.04
1424.403;-80.7
1424.602;-82.76
1424.801;-80.88
1425.0;-81.32
