Wavelength;Intensity_Meas;Intensity_Ref;Difference_dB
1200.0000;-56.6600;-54.7600;-1.9000
1200.1990;-56.5900;-54.7300;-1.8600
1200.3980;-56.5600;-54.7000;-1.8600
1200.5970;-56.6100;-54.6700;-1.9400
1200.7970;-56.6100;-54.6400;-1.9700
1200.9960;-56.5800;-54.6100;-1.9700
1201.1950;-56.5400;-54.5600;-1.9800
1201.3940;-56.5400;-54.5300;-2.0100
1201.5930;-56.5400;-54.4900;-2.0500
1201.7920;-56.4900;-54.4200;-2.0700
1201.9910;-56.4700;-54.3800;-2.0900
1202.1900;-56.4200;-54.3300;-2.0900
1202.3890;-56.4000;-54.2800;-2.1200
1202.5890;-56.3900;-54.2200;-2.1700
1202.7880;-56.3300;-54.1600;-2.1700
1202.9870;-56.2600;-54.1200;-2.1400
1203.1860;-56.2100;-54.0600;-2.1500
1203.3850;-56.2100;-54.0100;-2.2000
1203.5840;-56.1600;-53.9700;-2.1900
1203.7830;-56.0600;-53.9100;-2.1500
1203.9820;-56.0500;-53.9000;-2.1500
1204.1810;-56.0300;-53.8400;-2.1900
1204.3810;-55.9700;-53.8000;-2.1700
1204.5800;-55.9000;-53.7700;-2.1300
1204.7790;-55.8600;-53.7300;-2.1300
1204.9780;-55.8800;-53.7100;-2.1700
1205.1770;-55.8300;-53.6600;-2.1700
1205.3760;-55.7600;-53.6500;-2.1100
1205.5750;-55.7500;-53.6300;-2.1200
1205.7740;-55.7500;-53.6000;-2.1500
1205.9740;-55.7700;-53.5900;-2.1800
1206.1730;-55.7000;-53.5600;-2.1400
1206.3720;-55.6700;-53.5400;-2.1300
1206.5710;-55.7000;-53.5200;-2.1800
1206.7700;-55.6900;-53.4900;-2.2000
1206.9690;-55.6600;-53.4600;-2.2000
1207.1680;-55.6300;-53.4200;-2.2100
1207.3670;-55.6200;-53.4000;-2.2200
1207.5660;-55.6300;-53.3700;-2.2600
1207.7660;-55.6100;-53.3200;-2.2900
1207.9650;-55.5800;-53.3000;-2.2800
1208.1640;-55.5400;-53.2500;-2.2900
1208.3630;-55.5300;-53.1900;-2.3400
1208.5620;-55.5300;-53.1500;-2.3800
1208.7610;-55.4400;-53.1100;-2.3300
1208.9600;-55.4000;-53.0500;-2.3500
1209.1590;-55.3900;-52.9800;-2.4100
1209.3580;-55.3400;-52.9300;-2.4100
1209.5580;-55.2600;-52.8900;-2.3700
1209.7570;-55.2100;-52.8200;-2.3900
1209.9560;-55.2000;-52.7700;-2.4300
1210.1550;-55.1300;-52.7100;-2.4200
1210.3540;-55.0300;-52.6500;-2.3800
1210.5530;-55.0100;-52.6200;-2.3900
1210.7520;-54.9600;-52.5600;-2.4000
1210.9510;-54.9000;-52.5200;-2.3800
1211.1500;-54.8400;-52.4600;-2.3800
1211.3500;-54.7800;-52.4100;-2.3700
1211.5490;-54.7400;-52.3900;-2.3500
1211.7480;-54.6900;-52.3300;-2.3600
1211.9470;-54.6400;-52.3000;-2.3400
1212.1460;-54.5700;-52.2600;-2.3100
1212.3450;-54.5200;-52.2200;-2.3000
1212.5440;-54.5300;-52.2100;-2.3200
1212.7430;-54.4600;-52.1700;-2.2900
1212.9430;-54.3900;-52.1400;-2.2500
1213.1420;-54.3600;-52.1000;-2.2600
1213.3410;-54.3400;-52.0700;-2.2700
1213.5400;-54.2800;-52.0500;-2.2300
1213.7390;-54.2100;-52.0000;-2.2100
1213.9380;-54.1900;-51.9800;-2.2100
1214.1370;-54.1500;-51.9300;-2.2200
1214.3360;-54.0700;-51.8800;-2.1900
1214.5350;-54.0300;-51.8600;-2.1700
1214.7350;-53.9800;-51.8100;-2.1700
1214.9340;-53.9300;-51.7600;-2.1700
1215.1330;-53.8500;-51.7000;-2.1500
1215.3320;-53.7900;-51.6400;-2.1500
1215.5310;-53.7400;-51.6100;-2.1300
1215.7300;-53.6700;-51.5400;-2.1300
1215.9290;-53.6200;-51.4900;-2.1300
1216.1280;-53.5100;-51.4200;-2.0900
1216.3270;-53.4300;-51.3600;-2.0700
1216.5270;-53.3900;-51.3100;-2.0800
1216.7260;-53.3100;-51.2400;-2.0700
1216.9250;-53.2100;-51.1800;-2.0300
1217.1240;-53.1400;-51.1100;-2.0300
1217.3230;-53.0800;-51.0500;-2.0300
1217.5220;-53.0100;-51.0100;-2.0000
1217.7210;-52.9100;-50.9400;-1.9700
1217.9200;-52.8500;-50.9000;-1.9500
1218.1200;-52.7900;-50.8300;-1.9600
1218.3190;-52.7100;-50.7900;-1.9200
1218.5180;-52.6500;-50.7500;-1.9000
1218.7170;-52.5800;-50.7000;-1.8800
1218.9160;-52.5200;-50.6700;-1.8500
1219.1150;-52.4600;-50.6100;-1.8500
1219.3140;-52.3900;-50.5700;-1.8200
1219.5130;-52.3500;-50.5400;-1.8100
1219.7120;-52.3000;-50.5100;-1.7900
1219.9120;-52.2700;-50.4700;-1.8000
1220.1110;-52.1900;-50.4200;-1.7700
1220.3100;-52.1400;-50.3800;-1.7600
1220.5090;-52.1100;-50.3400;-1.7700
1220.7080;-52.0600;-50.2900;-1.7700
1220.9070;-52.0100;-50.2600;-1.7500
1221.1060;-51.9500;-50.2000;-1.7500
1221.3050;-51.9000;-50.1400;-1.7600
1221.5040;-51.8500;-50.0900;-1.7600
1221.7040;-51.7800;-50.0200;-1.7600
1221.9030;-51.7400;-49.9700;-1.7700
1222.1020;-51.6700;-49.8900;-1.7800
1222.3010;-51.6100;-49.8300;-1.7800
1222.5000;-51.5400;-49.7600;-1.7800
1222.6990;-51.4600;-49.6900;-1.7700
1222.8980;-51.4100;-49.6300;-1.7800
1223.0970;-51.3300;-49.5400;-1.7900
1223.2970;-51.2300;-49.4700;-1.7600
1223.4960;-51.1600;-49.3900;-1.7700
1223.6950;-51.0800;-49.3100;-1.7700
1223.8940;-51.0100;-49.2500;-1.7600
1224.0930;-50.9100;-49.1700;-1.7400
1224.2920;-50.8300;-49.1000;-1.7300
1224.4910;-50.7500;-49.0300;-1.7200
1224.6900;-50.6700;-48.9600;-1.7100
1224.8890;-50.5900;-48.9100;-1.6800
1225.0890;-50.5000;-48.8400;-1.6600
1225.2880;-50.4200;-48.7700;-1.6500
1225.4870;-50.3500;-48.7200;-1.6300
1225.6860;-50.2800;-48.6600;-1.6200
1225.8850;-50.2200;-48.6200;-1.6000
1226.0840;-50.1500;-48.5500;-1.6000
1226.2830;-50.0900;-48.5000;-1.5900
1226.4820;-50.0300;-48.4400;-1.5900
1226.6810;-49.9600;-48.3800;-1.5800
1226.8810;-49.9200;-48.3400;-1.5800
1227.0800;-49.8500;-48.2700;-1.5800
1227.2790;-49.8000;-48.2200;-1.5800
1227.4780;-49.7500;-48.1600;-1.5900
1227.6770;-49.6900;-48.1000;-1.5900
1227.8760;-49.6400;-48.0400;-1.6000
1228.0750;-49.5700;-47.9600;-1.6100
1228.2740;-49.5100;-47.8900;-1.6200
1228.4740;-49.4500;-47.8300;-1.6200
1228.6730;-49.3800;-47.7500;-1.6300
1228.8720;-49.3200;-47.6800;-1.6400
1229.0710;-49.2300;-47.5900;-1.6400
1229.2700;-49.1600;-47.5100;-1.6500
1229.4690;-49.0800;-47.4300;-1.6500
1229.6680;-48.9900;-47.3500;-1.6400
1229.8670;-48.9000;-47.2700;-1.6300
1230.0660;-48.8100;-47.1800;-1.6300
1230.2660;-48.7000;-47.0900;-1.6100
1230.4650;-48.6100;-47.0100;-1.6000
1230.6640;-48.5100;-46.9200;-1.5900
1230.8630;-48.4300;-46.8600;-1.5700
1231.0620;-48.3300;-46.7700;-1.5600
1231.2610;-48.2500;-46.7100;-1.5400
1231.4600;-48.1800;-46.6500;-1.5300
1231.6590;-48.0800;-46.5700;-1.5100
1231.8580;-48.0000;-46.5100;-1.4900
1232.0580;-47.9100;-46.4400;-1.4700
1232.2570;-47.8300;-46.3800;-1.4500
1232.4560;-47.7700;-46.3300;-1.4400
1232.6550;-47.6800;-46.2600;-1.4200
1232.8540;-47.6100;-46.2000;-1.4100
1233.0530;-47.5400;-46.1400;-1.4000
1233.2520;-47.4600;-46.0700;-1.3900
1233.4510;-47.3800;-46.0100;-1.3700
1233.6500;-47.3100;-45.9400;-1.3700
1233.8500;-47.2400;-45.8900;-1.3500
1234.0490;-47.1600;-45.8000;-1.3600
1234.2480;-47.0700;-45.7500;-1.3200
1234.4470;-46.9900;-45.6600;-1.3300
1234.6460;-46.9100;-45.6000;-1.3100
1234.8450;-46.8400;-45.5200;-1.3200
1235.0440;-46.7300;-45.4400;-1.2900
1235.2430;-46.6600;-45.3800;-1.2800
1235.4430;-46.5600;-45.2700;-1.2900
1235.6420;-46.4700;-45.2000;-1.2700
1235.8410;-46.3800;-45.1000;-1.2800
1236.0400;-46.2900;-45.0100;-1.2800
1236.2390;-46.2100;-44.9200;-1.2900
1236.4380;-46.1100;-44.8100;-1.3000
1236.6370;-46.0300;-44.7300;-1.3000
1236.8360;-45.9600;-44.6400;-1.3200
1237.0350;-45.8600;-44.5500;-1.3100
1237.2350;-45.8000;-44.4700;-1.3300
1237.4340;-45.7200;-44.3600;-1.3600
1237.6330;-45.6800;-44.2900;-1.3900
1237.8320;-45.6100;-44.2100;-1.4000
1238.0310;-45.5400;-44.1100;-1.4300
1238.2300;-45.5000;-44.0500;-1.4500
1238.4290;-45.4300;-43.9500;-1.4800
1238.6280;-45.3900;-43.8800;-1.5100
1238.8270;-45.3300;-43.7900;-1.5400
1239.0270;-45.2800;-43.7200;-1.5600
1239.2260;-45.2300;-43.6500;-1.5800
1239.4250;-45.1600;-43.5500;-1.6100
1239.6240;-45.1200;-43.4800;-1.6400
1239.8230;-45.0600;-43.3900;-1.6700
1240.0220;-45.0000;-43.3100;-1.6900
1240.2210;-44.9400;-43.2300;-1.7100
1240.4200;-44.8700;-43.1300;-1.7400
1240.6200;-44.8200;-43.0500;-1.7700
1240.8190;-44.7400;-42.9400;-1.8000
1241.0180;-44.6500;-42.8300;-1.8200
1241.2170;-44.5800;-42.7300;-1.8500
1241.4160;-44.5000;-42.6200;-1.8800
1241.6150;-44.4200;-42.5000;-1.9200
1241.8140;-44.3400;-42.3900;-1.9500
1242.0130;-44.2700;-42.2700;-2.0000
1242.2120;-44.2000;-42.1700;-2.0300
1242.4120;-44.1200;-42.0400;-2.0800
1242.6110;-44.0500;-41.9300;-2.1200
1242.8100;-43.9700;-41.8000;-2.1700
1243.0090;-43.8900;-41.6800;-2.2100
1243.2080;-43.8300;-41.5700;-2.2600
1243.4070;-43.7700;-41.4500;-2.3200
1243.6060;-43.7100;-41.3300;-2.3800
1243.8050;-43.6500;-41.2100;-2.4400
1244.0040;-43.5900;-41.0900;-2.5000
1244.2040;-43.5400;-40.9900;-2.5500
1244.4030;-43.4900;-40.8700;-2.6200
1244.6020;-43.4500;-40.7600;-2.6900
1244.8010;-43.3900;-40.6400;-2.7500
1245.0000;-43.3500;-40.5300;-2.8200
1245.1990;-43.3100;-40.4300;-2.8800
1245.3980;-43.2600;-40.3100;-2.9500
1245.5970;-43.2100;-40.2000;-3.0100
1245.7970;-43.1500;-40.0800;-3.0700
1245.9960;-43.0900;-39.9600;-3.1300
1246.1950;-43.0400;-39.8600;-3.1800
1246.3940;-42.9800;-39.7300;-3.2500
1246.5930;-42.9100;-39.6000;-3.3100
1246.7920;-42.8300;-39.4800;-3.3500
1246.9910;-42.7500;-39.3400;-3.4100
1247.1900;-42.6700;-39.2300;-3.4400
1247.3890;-42.5900;-39.0900;-3.5000
1247.5890;-42.5000;-38.9600;-3.5400
1247.7880;-42.3900;-38.8200;-3.5700
1247.9870;-42.2900;-38.6800;-3.6100
1248.1860;-42.2000;-38.5600;-3.6400
1248.3850;-42.0900;-38.4100;-3.6800
1248.5840;-41.9900;-38.2800;-3.7100
1248.7830;-41.8800;-38.1400;-3.7400
1248.9820;-41.7700;-38.0100;-3.7600
1249.1810;-41.6600;-37.8800;-3.7800
1249.3810;-41.5500;-37.7400;-3.8100
1249.5800;-41.4400;-37.6100;-3.8300
1249.7790;-41.3300;-37.4700;-3.8600
1249.9780;-41.2100;-37.3300;-3.8800
1250.1770;-41.1100;-37.2200;-3.8900
1250.3760;-41.0000;-37.0800;-3.9200
1250.5750;-40.8900;-36.9500;-3.9400
1250.7740;-40.7800;-36.8200;-3.9600
1250.9740;-40.6800;-36.7000;-3.9800
1251.1730;-40.5800;-36.5800;-4.0000
1251.3720;-40.4700;-36.4400;-4.0300
1251.5710;-40.3900;-36.3400;-4.0500
1251.7700;-40.2700;-36.2000;-4.0700
1251.9690;-40.1600;-36.0700;-4.0900
1252.1680;-40.0400;-35.9400;-4.1000
1252.3670;-39.9200;-35.7800;-4.1400
1252.5660;-39.8300;-35.6800;-4.1500
1252.7660;-39.6900;-35.5400;-4.1500
1252.9650;-39.5800;-35.4300;-4.1500
1253.1640;-39.4400;-35.2800;-4.1600
1253.3630;-39.3100;-35.1400;-4.1700
1253.5620;-39.1900;-35.0200;-4.1700
1253.7610;-39.0500;-34.8800;-4.1700
1253.9600;-38.9200;-34.7600;-4.1600
1254.1590;-38.7700;-34.6100;-4.1600
1254.3580;-38.6300;-34.4800;-4.1500
1254.5580;-38.5100;-34.3500;-4.1600
1254.7570;-38.3600;-34.2100;-4.1500
1254.9560;-38.2200;-34.0800;-4.1400
1255.1550;-38.0900;-33.9500;-4.1400
1255.3540;-37.9500;-33.8200;-4.1300
1255.5530;-37.8300;-33.7000;-4.1300
1255.7520;-37.6800;-33.5700;-4.1100
1255.9510;-37.5600;-33.4500;-4.1100
1256.1500;-37.4300;-33.3100;-4.1200
1256.3500;-37.3000;-33.1900;-4.1100
1256.5490;-37.1900;-33.0700;-4.1200
1256.7480;-37.0600;-32.9400;-4.1200
1256.9470;-36.9500;-32.8200;-4.1300
1257.1460;-36.8200;-32.6900;-4.1300
1257.3450;-36.7000;-32.5600;-4.1400
1257.5440;-36.6000;-32.4400;-4.1600
1257.7430;-36.4800;-32.3100;-4.1700
1257.9430;-36.3700;-32.1900;-4.1800
1258.1420;-36.2500;-32.0600;-4.1900
1258.3410;-36.1400;-31.9400;-4.2000
1258.5400;-36.0400;-31.8100;-4.2300
1258.7390;-35.9000;-31.6800;-4.2200
1258.9380;-35.8100;-31.5500;-4.2600
1259.1370;-35.7000;-31.4200;-4.2800
1259.3360;-35.6100;-31.3000;-4.3100
1259.5350;-35.5000;-31.1700;-4.3300
1259.7350;-35.4000;-31.0400;-4.3600
1259.9340;-35.2900;-30.9100;-4.3800
1260.1330;-35.2000;-30.7800;-4.4200
1260.3320;-35.1100;-30.6600;-4.4500
1260.5310;-35.0100;-30.5300;-4.4800
1260.7300;-34.9200;-30.4100;-4.5100
1260.9290;-34.8300;-30.2900;-4.5400
1261.1280;-34.7400;-30.1500;-4.5900
1261.3270;-34.6600;-30.0400;-4.6200
1261.5270;-34.5800;-29.9200;-4.6600
1261.7260;-34.5100;-29.8000;-4.7100
1261.9250;-34.4300;-29.6800;-4.7500
1262.1240;-34.3500;-29.5500;-4.8000
1262.3230;-34.2900;-29.4400;-4.8500
1262.5220;-34.2300;-29.3200;-4.9100
1262.7210;-34.1700;-29.2000;-4.9700
1262.9200;-34.0900;-29.0800;-5.0100
1263.1200;-34.0200;-28.9600;-5.0600
1263.3190;-33.9700;-28.8400;-5.1300
1263.5180;-33.9100;-28.7200;-5.1900
1263.7170;-33.8600;-28.6000;-5.2600
1263.9160;-33.7900;-28.4800;-5.3100
1264.1150;-33.7200;-28.3500;-5.3700
1264.3140;-33.6700;-28.2400;-5.4300
1264.5130;-33.6200;-28.1100;-5.5100
1264.7120;-33.5700;-27.9900;-5.5800
1264.9120;-33.5100;-27.8600;-5.6500
1265.1110;-33.4600;-27.7400;-5.7200
1265.3100;-33.4200;-27.6200;-5.8000
1265.5090;-33.3800;-27.4900;-5.8900
1265.7080;-33.3500;-27.3800;-5.9700
1265.9070;-33.3000;-27.2600;-6.0400
1266.1060;-33.2600;-27.1300;-6.1300
1266.3050;-33.2400;-27.0300;-6.2100
1266.5040;-33.2100;-26.9100;-6.3000
1266.7040;-33.2000;-26.8000;-6.4000
1266.9030;-33.1700;-26.6800;-6.4900
1267.1020;-33.1500;-26.5700;-6.5800
1267.3010;-33.1400;-26.4700;-6.6700
1267.5000;-33.1400;-26.3500;-6.7900
1267.6990;-33.1500;-26.2500;-6.9000
1267.8980;-33.1300;-26.1300;-7.0000
1268.0970;-33.1300;-26.0200;-7.1100
1268.2970;-33.1400;-25.9100;-7.2300
1268.4960;-33.1400;-25.8200;-7.3200
1268.6950;-33.1500;-25.7100;-7.4400
1268.8940;-33.1400;-25.5900;-7.5500
1269.0930;-33.1300;-25.4900;-7.6400
1269.2920;-33.1300;-25.3700;-7.7600
1269.4910;-33.1300;-25.2600;-7.8700
1269.6900;-33.1300;-25.1500;-7.9800
1269.8890;-33.1200;-25.0300;-8.0900
1270.0890;-33.1000;-24.9300;-8.1700
1270.2880;-33.0900;-24.8000;-8.2900
1270.4870;-33.0800;-24.7000;-8.3800
1270.6860;-33.0700;-24.5900;-8.4800
1270.8850;-33.0400;-24.4700;-8.5700
1271.0840;-33.0300;-24.3700;-8.6600
1271.2830;-33.0100;-24.2600;-8.7500
1271.4820;-32.9800;-24.1500;-8.8300
1271.6810;-32.9700;-24.0500;-8.9200
1271.8810;-32.9400;-23.9400;-9.0000
1272.0800;-32.9200;-23.8500;-9.0700
1272.2790;-32.9000;-23.7300;-9.1700
1272.4780;-32.8700;-23.6400;-9.2300
1272.6770;-32.8600;-23.5400;-9.3200
1272.8760;-32.8300;-23.4300;-9.4000
1273.0750;-32.8100;-23.3400;-9.4700
1273.2740;-32.7800;-23.2300;-9.5500
1273.4740;-32.7400;-23.1300;-9.6100
1273.6730;-32.7200;-23.0300;-9.6900
1273.8720;-32.6800;-22.9300;-9.7500
1274.0710;-32.6400;-22.8400;-9.8000
1274.2700;-32.5900;-22.7300;-9.8600
1274.4690;-32.5300;-22.6300;-9.9000
1274.6680;-32.4800;-22.5200;-9.9600
1274.8670;-32.4000;-22.4100;-9.9900
1275.0660;-32.3400;-22.3200;-10.0200
1275.2660;-32.2500;-22.2000;-10.0500
1275.4650;-32.1700;-22.1100;-10.0600
1275.6640;-32.0700;-22.0100;-10.0600
1275.8630;-31.9700;-21.9100;-10.0600
1276.0620;-31.8800;-21.8100;-10.0700
1276.2610;-31.7600;-21.7100;-10.0500
1276.4600;-31.6400;-21.6200;-10.0200
1276.6590;-31.5100;-21.5100;-10.0000
1276.8580;-31.3800;-21.4200;-9.9600
1277.0580;-31.2700;-21.3400;-9.9300
1277.2570;-31.1300;-21.2300;-9.9000
1277.4560;-31.0100;-21.1600;-9.8500
1277.6550;-30.8700;-21.0600;-9.8100
1277.8540;-30.7300;-20.9700;-9.7600
1278.0530;-30.6000;-20.8800;-9.7200
1278.2520;-30.4600;-20.7900;-9.6700
1278.4510;-30.3300;-20.7200;-9.6100
1278.6500;-30.1800;-20.6200;-9.5600
1278.8500;-30.0400;-20.5300;-9.5100
1279.0490;-29.9000;-20.4400;-9.4600
1279.2480;-29.7600;-20.3500;-9.4100
1279.4470;-29.6300;-20.2800;-9.3500
1279.6460;-29.4800;-20.1800;-9.3000
1279.8450;-29.3300;-20.1000;-9.2300
1280.0440;-29.1900;-20.0100;-9.1800
1280.2430;-29.0400;-19.9100;-9.1300
1280.4430;-28.9000;-19.8400;-9.0600
1280.6420;-28.7400;-19.7500;-8.9900
1280.8410;-28.6000;-19.6700;-8.9300
1281.0400;-28.4500;-19.5800;-8.8700
1281.2390;-28.3000;-19.4900;-8.8100
1281.4380;-28.1600;-19.4200;-8.7400
1281.6370;-28.0000;-19.3300;-8.6700
1281.8360;-27.8600;-19.2600;-8.6000
1282.0350;-27.7100;-19.1700;-8.5400
1282.2350;-27.5600;-19.0900;-8.4700
1282.4340;-27.4300;-19.0100;-8.4200
1282.6330;-27.2900;-18.9400;-8.3500
1282.8320;-27.1600;-18.8700;-8.2900
1283.0310;-27.0200;-18.7800;-8.2400
1283.2300;-26.8800;-18.7100;-8.1700
1283.4290;-26.7600;-18.6400;-8.1200
1283.6280;-26.6200;-18.5600;-8.0600
1283.8270;-26.5000;-18.4900;-8.0100
1284.0270;-26.3700;-18.4100;-7.9600
1284.2260;-26.2500;-18.3400;-7.9100
1284.4250;-26.1100;-18.2700;-7.8400
1284.6240;-26.0200;-18.1900;-7.8300
1284.8230;-25.9000;-18.1300;-7.7700
1285.0220;-25.7900;-18.0400;-7.7500
1285.2210;-25.6900;-17.9700;-7.7200
1285.4200;-25.5700;-17.9000;-7.6700
1285.6200;-25.4700;-17.8300;-7.6400
1285.8190;-25.3700;-17.7700;-7.6000
1286.0180;-25.2600;-17.6900;-7.5700
1286.2170;-25.1800;-17.6200;-7.5600
1286.4160;-25.0700;-17.5400;-7.5300
1286.6150;-24.9900;-17.4800;-7.5100
1286.8140;-24.9000;-17.4300;-7.4700
1287.0130;-24.8100;-17.3500;-7.4600
1287.2120;-24.7400;-17.2900;-7.4500
1287.4120;-24.6600;-17.2200;-7.4400
1287.6110;-24.5900;-17.1500;-7.4400
1287.8100;-24.5100;-17.1000;-7.4100
1288.0090;-24.4400;-17.0200;-7.4200
1288.2080;-24.3800;-16.9700;-7.4100
1288.4070;-24.3100;-16.9000;-7.4100
1288.6060;-24.2600;-16.8400;-7.4200
1288.8050;-24.2000;-16.7900;-7.4100
1289.0040;-24.1500;-16.7200;-7.4300
1289.2040;-24.1100;-16.6700;-7.4400
1289.4030;-24.0500;-16.6000;-7.4500
1289.6020;-24.0300;-16.5400;-7.4900
1289.8010;-23.9800;-16.4900;-7.4900
1290.0000;-23.9400;-16.4200;-7.5200
1290.1990;-23.9200;-16.3800;-7.5400
1290.3980;-23.8800;-16.3100;-7.5700
1290.5970;-23.8800;-16.2700;-7.6100
1290.7970;-23.8400;-16.2100;-7.6300
1290.9960;-23.8200;-16.1400;-7.6800
1291.1950;-23.8000;-16.0900;-7.7100
1291.3940;-23.7800;-16.0400;-7.7400
1291.5930;-23.7700;-15.9800;-7.7900
1291.7920;-23.7600;-15.9200;-7.8400
1291.9910;-23.7600;-15.8700;-7.8900
1292.1900;-23.7500;-15.8100;-7.9400
1292.3890;-23.7500;-15.7600;-7.9900
1292.5890;-23.7500;-15.7100;-8.0400
1292.7880;-23.7500;-15.6500;-8.1000
1292.9870;-23.7700;-15.6200;-8.1500
1293.1860;-23.7800;-15.5600;-8.2200
1293.3850;-23.8000;-15.5100;-8.2900
1293.5840;-23.8200;-15.4500;-8.3700
1293.7830;-23.8400;-15.4000;-8.4400
1293.9820;-23.8800;-15.3700;-8.5100
1294.1810;-23.9000;-15.3100;-8.5900
1294.3810;-23.9400;-15.2700;-8.6700
1294.5800;-23.9600;-15.2200;-8.7400
1294.7790;-23.9900;-15.1700;-8.8200
1294.9780;-24.0500;-15.1300;-8.9200
1295.1770;-24.0800;-15.0800;-9.0000
1295.3760;-24.1300;-15.0400;-9.0900
1295.5750;-24.1600;-14.9800;-9.1800
1295.7740;-24.2100;-14.9300;-9.2800
1295.9740;-24.2600;-14.8900;-9.3700
1296.1730;-24.3000;-14.8400;-9.4600
1296.3720;-24.3600;-14.8100;-9.5500
1296.5710;-24.3900;-14.7500;-9.6400
1296.7700;-24.4400;-14.7100;-9.7300
1296.9690;-24.5000;-14.6700;-9.8300
1297.1680;-24.5600;-14.6300;-9.9300
1297.3670;-24.6200;-14.6000;-10.0200
1297.5660;-24.6500;-14.5400;-10.1100
1297.7660;-24.7100;-14.5000;-10.2100
1297.9650;-24.7600;-14.4700;-10.2900
1298.1640;-24.8100;-14.4300;-10.3800
1298.3630;-24.8800;-14.4100;-10.4700
1298.5620;-24.9100;-14.3500;-10.5600
1298.7610;-24.9600;-14.3300;-10.6300
1298.9600;-25.0100;-14.2900;-10.7200
1299.1590;-25.0500;-14.2500;-10.8000
1299.3580;-25.1100;-14.2300;-10.8800
1299.5580;-25.1400;-14.1800;-10.9600
1299.7570;-25.1800;-14.1500;-11.0300
1299.9560;-25.2100;-14.1200;-11.0900
1300.1550;-25.2400;-14.0900;-11.1500
1300.3540;-25.2800;-14.0600;-11.2200
1300.5530;-25.2900;-14.0100;-11.2800
1300.7520;-25.3200;-14.0000;-11.3200
1300.9510;-25.3200;-13.9600;-11.3600
1301.1500;-25.3400;-13.9400;-11.4000
1301.3500;-25.3400;-13.9100;-11.4300
1301.5490;-25.3500;-13.8900;-11.4600
1301.7480;-25.3500;-13.8800;-11.4700
1301.9470;-25.3300;-13.8400;-11.4900
1302.1460;-25.3200;-13.8300;-11.4900
1302.3450;-25.2900;-13.8100;-11.4800
1302.5440;-25.2600;-13.7900;-11.4700
1302.7430;-25.2300;-13.7800;-11.4500
1302.9430;-25.1800;-13.7500;-11.4300
1303.1420;-25.1500;-13.7500;-11.4000
1303.3410;-25.0800;-13.7200;-11.3600
1303.5400;-25.0300;-13.7100;-11.3200
1303.7390;-24.9700;-13.7100;-11.2600
1303.9380;-24.8900;-13.6800;-11.2100
1304.1370;-24.8300;-13.6800;-11.1500
1304.3360;-24.7400;-13.6600;-11.0800
1304.5350;-24.6800;-13.6500;-11.0300
1304.7350;-24.5900;-13.6400;-10.9500
1304.9340;-24.5000;-13.6300;-10.8700
1305.1330;-24.4300;-13.6300;-10.8000
1305.3320;-24.3300;-13.6000;-10.7300
1305.5310;-24.2500;-13.6100;-10.6400
1305.7300;-24.1500;-13.6000;-10.5500
1305.9290;-24.0500;-13.5800;-10.4700
1306.1280;-23.9800;-13.6000;-10.3800
1306.3270;-23.8800;-13.5800;-10.3000
1306.5270;-23.8000;-13.5900;-10.2100
1306.7260;-23.7000;-13.5900;-10.1100
1306.9250;-23.6000;-13.5800;-10.0200
1307.1240;-23.5300;-13.6000;-9.9300
1307.3230;-23.4200;-13.5900;-9.8300
1307.5220;-23.3500;-13.6100;-9.7400
1307.7210;-23.2400;-13.6100;-9.6300
1307.9200;-23.1500;-13.6100;-9.5400
1308.1200;-23.0800;-13.6300;-9.4500
1308.3190;-22.9800;-13.6300;-9.3500
1308.5180;-22.9200;-13.6500;-9.2700
1308.7170;-22.8300;-13.6500;-9.1800
1308.9160;-22.7500;-13.6500;-9.1000
1309.1150;-22.6700;-13.6800;-8.9900
1309.3140;-22.5900;-13.6900;-8.9000
1309.5130;-22.5400;-13.7200;-8.8200
1309.7120;-22.4600;-13.7200;-8.7400
1309.9120;-22.4000;-13.7400;-8.6600
1310.1110;-22.3400;-13.7600;-8.5800
1310.3100;-22.2700;-13.7700;-8.5000
1310.5090;-22.2300;-13.8100;-8.4200
1310.7080;-22.1700;-13.8100;-8.3600
1310.9070;-22.1200;-13.8400;-8.2800
1311.1060;-22.0800;-13.8600;-8.2200
1311.3050;-22.0300;-13.8800;-8.1500
1311.5040;-22.0000;-13.9200;-8.0800
1311.7040;-21.9500;-13.9300;-8.0200
1311.9030;-21.9300;-13.9700;-7.9600
1312.1020;-21.8800;-13.9800;-7.9000
1312.3010;-21.8700;-14.0100;-7.8600
1312.5000;-21.8400;-14.0600;-7.7800
1312.6990;-21.8200;-14.0800;-7.7400
1312.8980;-21.8000;-14.1300;-7.6700
1313.0970;-21.7800;-14.1500;-7.6300
1313.2970;-21.7800;-14.1900;-7.5900
1313.4960;-21.7700;-14.2300;-7.5400
1313.6950;-21.7700;-14.2600;-7.5100
1313.8940;-21.7700;-14.3100;-7.4600
1314.0930;-21.7700;-14.3500;-7.4200
1314.2920;-21.7900;-14.3900;-7.4000
1314.4910;-21.7900;-14.4300;-7.3600
1314.6900;-21.8100;-14.4700;-7.3400
1314.8890;-21.8200;-14.5200;-7.3000
1315.0890;-21.8300;-14.5500;-7.2800
1315.2880;-21.8600;-14.6100;-7.2500
1315.4870;-21.8800;-14.6500;-7.2300
1315.6860;-21.9200;-14.7100;-7.2100
1315.8850;-21.9400;-14.7500;-7.1900
1316.0840;-21.9800;-14.8000;-7.1800
1316.2830;-22.0100;-14.8500;-7.1600
1316.4820;-22.0600;-14.9100;-7.1500
1316.6810;-22.1100;-14.9700;-7.1400
1316.8810;-22.1400;-15.0200;-7.1200
1317.0800;-22.2100;-15.0800;-7.1300
1317.2790;-22.2500;-15.1500;-7.1000
1317.4780;-22.3100;-15.2000;-7.1100
1317.6770;-22.3700;-15.2700;-7.1000
1317.8760;-22.4200;-15.3200;-7.1000
1318.0750;-22.4900;-15.3800;-7.1100
1318.2740;-22.5400;-15.4400;-7.1000
1318.4740;-22.6100;-15.5000;-7.1100
1318.6730;-22.6800;-15.5900;-7.0900
1318.8720;-22.7400;-15.6500;-7.0900
1319.0710;-22.8300;-15.7400;-7.0900
1319.2700;-22.8900;-15.7900;-7.1000
1319.4690;-22.9700;-15.8600;-7.1100
1319.6680;-23.0400;-15.9500;-7.0900
1319.8670;-23.1200;-16.0100;-7.1100
1320.0660;-23.2000;-16.1000;-7.1000
1320.2660;-23.2700;-16.1700;-7.1000
1320.4650;-23.3500;-16.2500;-7.1000
1320.6640;-23.4300;-16.3300;-7.1000
1320.8630;-23.5200;-16.4000;-7.1200
1321.0620;-23.5900;-16.4900;-7.1000
1321.2610;-23.6600;-16.5600;-7.1000
1321.4600;-23.7500;-16.6600;-7.0900
1321.6590;-23.8200;-16.7300;-7.0900
1321.8580;-23.9100;-16.8200;-7.0900
1322.0580;-23.9800;-16.9100;-7.0700
1322.2570;-24.0600;-16.9900;-7.0700
1322.4560;-24.1300;-17.0900;-7.0400
1322.6550;-24.2100;-17.1700;-7.0400
1322.8540;-24.3000;-17.2700;-7.0300
1323.0530;-24.3600;-17.3600;-7.0000
1323.2520;-24.4500;-17.4500;-7.0000
1323.4510;-24.5200;-17.5600;-6.9600
1323.6500;-24.6000;-17.6400;-6.9600
1323.8500;-24.6700;-17.7500;-6.9200
1324.0490;-24.7400;-17.8400;-6.9000
1324.2480;-24.8300;-17.9500;-6.8800
1324.4470;-24.8900;-18.0500;-6.8400
1324.6460;-24.9700;-18.1400;-6.8300
1324.8450;-25.0400;-18.2600;-6.7800
1325.0440;-25.1000;-18.3600;-6.7400
1325.2430;-25.1800;-18.5000;-6.6800
1325.4430;-25.2400;-18.5800;-6.6600
1325.6420;-25.3400;-18.7000;-6.6400
1325.8410;-25.3900;-18.8200;-6.5700
1326.0400;-25.4600;-18.9200;-6.5400
1326.2390;-25.5300;-19.0500;-6.4800
1326.4380;-25.5900;-19.1500;-6.4400
1326.6370;-25.6700;-19.2700;-6.4000
1326.8360;-25.7300;-19.3900;-6.3400
1327.0350;-25.8100;-19.5100;-6.3000
1327.2350;-25.8600;-19.6400;-6.2200
1327.4340;-25.9300;-19.7500;-6.1800
1327.6330;-26.0000;-19.8700;-6.1300
1327.8320;-26.0700;-19.9900;-6.0800
1328.0310;-26.1400;-20.1100;-6.0300
1328.2300;-26.2100;-20.2500;-5.9600
1328.4290;-26.2800;-20.3700;-5.9100
1328.6280;-26.3500;-20.5100;-5.8400
1328.8270;-26.4200;-20.6300;-5.7900
1329.0270;-26.5000;-20.7600;-5.7400
1329.2260;-26.5700;-20.9000;-5.6700
1329.4250;-26.6500;-21.0200;-5.6300
1329.6240;-26.7100;-21.1700;-5.5400
1329.8230;-26.7900;-21.2900;-5.5000
1330.0220;-26.8700;-21.4300;-5.4400
1330.2210;-26.9500;-21.5600;-5.3900
1330.4200;-27.0300;-21.6900;-5.3400
1330.6200;-27.1100;-21.8400;-5.2700
1330.8190;-27.2000;-21.9700;-5.2300
1331.0180;-27.2800;-22.1100;-5.1700
1331.2170;-27.3700;-22.2600;-5.1100
1331.4160;-27.4700;-22.3900;-5.0800
1331.6150;-27.5700;-22.5500;-5.0200
1331.8140;-27.6800;-22.6800;-5.0000
1332.0130;-27.7600;-22.8400;-4.9200
1332.2120;-27.8800;-22.9700;-4.9100
1332.4120;-27.9700;-23.1200;-4.8500
1332.6110;-28.0900;-23.2800;-4.8100
1332.8100;-28.2000;-23.4200;-4.7800
1333.0090;-28.3000;-23.5800;-4.7200
1333.2080;-28.4400;-23.7200;-4.7200
1333.4070;-28.5700;-23.8800;-4.6900
1333.6060;-28.6800;-24.0200;-4.6600
1333.8050;-28.7900;-24.1800;-4.6100
1334.0040;-28.9300;-24.3300;-4.6000
1334.2040;-29.0500;-24.4800;-4.5700
1334.4030;-29.1900;-24.6500;-4.5400
1334.6020;-29.3200;-24.7900;-4.5300
1334.8010;-29.4600;-24.9500;-4.5100
1335.0000;-29.6200;-25.1100;-4.5100
1335.1990;-29.7500;-25.2600;-4.4900
1335.3980;-29.9000;-25.4300;-4.4700
1335.5970;-30.0500;-25.5700;-4.4800
1335.7970;-30.2100;-25.7400;-4.4700
1335.9960;-30.3900;-25.9000;-4.4900
1336.1950;-30.5400;-26.0600;-4.4800
1336.3940;-30.7100;-26.2200;-4.4900
1336.5930;-30.8800;-26.3700;-4.5100
1336.7920;-31.0400;-26.5400;-4.5000
1336.9910;-31.2300;-26.6900;-4.5400
1337.1900;-31.4000;-26.8600;-4.5400
1337.3890;-31.6000;-27.0200;-4.5800
1337.5890;-31.7800;-27.1800;-4.6000
1337.7880;-31.9700;-27.3500;-4.6200
1337.9870;-32.1700;-27.5100;-4.6600
1338.1860;-32.3600;-27.6800;-4.6800
1338.3850;-32.5800;-27.8300;-4.7500
1338.5840;-32.7700;-28.0000;-4.7700
1338.7830;-32.9900;-28.1600;-4.8300
1338.9820;-33.1900;-28.3200;-4.8700
1339.1810;-33.4200;-28.5300;-4.8900
1339.3810;-33.6400;-28.6700;-4.9700
1339.5800;-33.8600;-28.8400;-5.0200
1339.7790;-34.1100;-29.0000;-5.1100
1339.9780;-34.3300;-29.1800;-5.1500
1340.1770;-34.5800;-29.3500;-5.2300
1340.3760;-34.8200;-29.5200;-5.3000
1340.5750;-35.0800;-29.7100;-5.3700
1340.7740;-35.3400;-29.8700;-5.4700
1340.9740;-35.5800;-30.0400;-5.5400
1341.1730;-35.8500;-30.2000;-5.6500
1341.3720;-36.1000;-30.3700;-5.7300
1341.5710;-36.3600;-30.5400;-5.8200
1341.7700;-36.6400;-30.7100;-5.9300
1341.9690;-36.9100;-30.8900;-6.0200
1342.1680;-37.1900;-31.0500;-6.1400
1342.3670;-37.4600;-31.2300;-6.2300
1342.5660;-37.7400;-31.3900;-6.3500
1342.7660;-38.0400;-31.5600;-6.4800
1342.9650;-38.3300;-31.7400;-6.5900
1343.1640;-38.7000;-31.9100;-6.7900
1343.3630;-38.9400;-32.0900;-6.8500
1343.5620;-39.2400;-32.2500;-6.9900
1343.7610;-39.5500;-32.4200;-7.1300
1343.9600;-39.8800;-32.6000;-7.2800
1344.1590;-40.1800;-32.7800;-7.4000
1344.3580;-40.5100;-32.9600;-7.5500
1344.5580;-40.8400;-33.1300;-7.7100
1344.7570;-41.1600;-33.3000;-7.8600
1344.9560;-41.4900;-33.4700;-8.0200
1345.1550;-41.8000;-33.6300;-8.1700
1345.3540;-42.1300;-33.8000;-8.3300
1345.5530;-42.4400;-33.9600;-8.4800
1345.7520;-42.7700;-34.1400;-8.6300
1345.9510;-43.1100;-34.3000;-8.8100
1346.1500;-43.4300;-34.4600;-8.9700
1346.3500;-43.7600;-34.6500;-9.1100
1346.5490;-44.0900;-34.8200;-9.2700
1346.7480;-44.4100;-35.0000;-9.4100
1346.9470;-44.7200;-35.1500;-9.5700
1347.1460;-45.0300;-35.3100;-9.7200
1347.3450;-45.3200;-35.4700;-9.8500
1347.5440;-45.6400;-35.6700;-9.9700
1347.7430;-45.9900;-35.9000;-10.0900
1347.9430;-46.2900;-36.0800;-10.2100
1348.1420;-46.5500;-36.2400;-10.3100
1348.3410;-46.8400;-36.4200;-10.4200
1348.5400;-47.0300;-36.5500;-10.4800
1348.7390;-47.2600;-36.7100;-10.5500
1348.9380;-47.4400;-36.8400;-10.6000
1349.1370;-47.6400;-37.0000;-10.6400
1349.3360;-47.8100;-37.1300;-10.6800
1349.5350;-47.9500;-37.2700;-10.6800
1349.7350;-48.0900;-37.4200;-10.6700
1349.9340;-48.2300;-37.5800;-10.6500
1350.1330;-48.3600;-37.7700;-10.5900
1350.3320;-48.5800;-37.9900;-10.5900
1350.5310;-48.6600;-38.1800;-10.4800
1350.7300;-48.7400;-38.3400;-10.4000
1350.9290;-48.7600;-38.4800;-10.2800
1351.1280;-48.7600;-38.5800;-10.1800
1351.3270;-48.7700;-38.7100;-10.0600
1351.5270;-48.8000;-38.8800;-9.9200
1351.7260;-48.8700;-39.0900;-9.7800
1351.9250;-48.8800;-39.2700;-9.6100
1352.1240;-48.8900;-39.4100;-9.4800
1352.3230;-48.8800;-39.5700;-9.3100
1352.5220;-48.9000;-39.7600;-9.1400
1352.7210;-48.8500;-39.8800;-8.9700
1352.9200;-48.8100;-40.0400;-8.7700
1353.1200;-48.8900;-40.2600;-8.6300
1353.3190;-48.7900;-40.3500;-8.4400
1353.5180;-48.7700;-40.5000;-8.2700
1353.7170;-48.7400;-40.6500;-8.0900
1353.9160;-48.6500;-40.7400;-7.9100
1354.1150;-48.5900;-40.8700;-7.7200
1354.3140;-48.6300;-41.0800;-7.5500
1354.5130;-48.6300;-41.2400;-7.3900
1354.7120;-48.7500;-41.5400;-7.2100
1354.9120;-48.8500;-41.8000;-7.0500
1355.1110;-48.8300;-41.9500;-6.8800
1355.3100;-48.7700;-42.0600;-6.7100
1355.5090;-48.5800;-42.0300;-6.5500
1355.7080;-48.6800;-42.2800;-6.4000
1355.9070;-48.7900;-42.5200;-6.2700
1356.1060;-48.7600;-42.6600;-6.1000
1356.3050;-48.6700;-42.7200;-5.9500
1356.5040;-48.6000;-42.7900;-5.8100
1356.7040;-48.3600;-42.7000;-5.6600
1356.9030;-48.3700;-42.8200;-5.5500
1357.1020;-48.5800;-43.1700;-5.4100
1357.3010;-48.6600;-43.3700;-5.2900
1357.5000;-48.6800;-43.5200;-5.1600
1357.6990;-48.7100;-43.6800;-5.0300
1357.8980;-48.6300;-43.7000;-4.9300
1358.0970;-48.5400;-43.7400;-4.8000
1358.2970;-48.6000;-43.8900;-4.7100
1358.4960;-48.7000;-44.0900;-4.6100
1358.6950;-48.7100;-44.2100;-4.5000
1358.8940;-48.7300;-44.3300;-4.4000
1359.0930;-48.7600;-44.4600;-4.3000
1359.2920;-48.6900;-44.4700;-4.2200
1359.4910;-48.9600;-44.8200;-4.1400
1359.6900;-49.1700;-45.0900;-4.0800
1359.8890;-49.2400;-45.2600;-3.9800
1360.0890;-49.2000;-45.2900;-3.9100
1360.2880;-49.1300;-45.2800;-3.8500
1360.4870;-49.0200;-45.2600;-3.7600
1360.6860;-49.1000;-45.3900;-3.7100
1360.8850;-49.3600;-45.7100;-3.6500
1361.0840;-49.5900;-45.9800;-3.6100
1361.2830;-49.6600;-46.1200;-3.5400
1361.4820;-49.7500;-46.2600;-3.4900
1361.6810;-49.9100;-46.4400;-3.4700
1361.8810;-49.9700;-46.5600;-3.4100
1362.0800;-50.1300;-46.7500;-3.3800
1362.2790;-50.5100;-47.1500;-3.3600
1362.4780;-50.6900;-47.3600;-3.3300
1362.6770;-50.7700;-47.4700;-3.3000
1362.8760;-50.6000;-47.3400;-3.2600
1363.0750;-50.5100;-47.2400;-3.2700
1363.2740;-50.2300;-46.9900;-3.2400
1363.4740;-50.2900;-47.0400;-3.2500
1363.6730;-50.3400;-47.1100;-3.2300
1363.8720;-50.4700;-47.2400;-3.2300
1364.0710;-50.6500;-47.4300;-3.2200
1364.2700;-50.8300;-47.6100;-3.2200
1364.4690;-51.1300;-47.9000;-3.2300
1364.6680;-51.6200;-48.3900;-3.2300
1364.8670;-51.8600;-48.6100;-3.2500
1365.0660;-51.8200;-48.5600;-3.2600
1365.2660;-52.0100;-48.6900;-3.3200
1365.4650;-51.9400;-48.6100;-3.3300
1365.6640;-52.0100;-48.6700;-3.3400
1365.8630;-52.0800;-48.6900;-3.3900
1366.0620;-52.0800;-48.6700;-3.4100
1366.2610;-52.1000;-48.6400;-3.4600
1366.4600;-52.1800;-48.6900;-3.4900
1366.6590;-52.3700;-48.8400;-3.5300
1366.8580;-52.6300;-49.0600;-3.5700
1367.0580;-52.8000;-49.1800;-3.6200
1367.2570;-52.9400;-49.2700;-3.6700
1367.4560;-53.2400;-49.5200;-3.7200
1367.6550;-53.4700;-49.6800;-3.7900
1367.8540;-53.7700;-49.9300;-3.8400
1368.0530;-53.9400;-50.0400;-3.9000
1368.2520;-53.9600;-49.9900;-3.9700
1368.4510;-54.3400;-50.3200;-4.0200
1368.6500;-54.4900;-50.3800;-4.1100
1368.8500;-54.6300;-50.4700;-4.1600
1369.0490;-54.6900;-50.4200;-4.2700
1369.2480;-54.7000;-50.3600;-4.3400
1369.4470;-54.6700;-50.2800;-4.3900
1369.6460;-54.8400;-50.3600;-4.4800
1369.8450;-55.2100;-50.6900;-4.5200
1370.0440;-55.4800;-50.8500;-4.6300
1370.2430;-55.6500;-50.9600;-4.6900
1370.4430;-55.7800;-50.9800;-4.8000
1370.6420;-55.8400;-50.9700;-4.8700
1370.8410;-56.2100;-51.2900;-4.9200
1371.0400;-56.5600;-51.5300;-5.0300
1371.2390;-56.8000;-51.7000;-5.1000
1371.4380;-56.8900;-51.6700;-5.2200
1371.6370;-56.9000;-51.6200;-5.2800
1371.8360;-56.9400;-51.5700;-5.3700
1372.0350;-57.1700;-51.7400;-5.4300
1372.2350;-57.4300;-51.9400;-5.4900
1372.4340;-57.5900;-52.0000;-5.5900
1372.6330;-57.7200;-52.0600;-5.6600
1372.8320;-57.8100;-52.0600;-5.7500
1373.0310;-57.8900;-52.0700;-5.8200
1373.2300;-58.0600;-52.1800;-5.8800
1373.4290;-58.2500;-52.3100;-5.9400
1373.6280;-58.3900;-52.3900;-6.0000
1373.8270;-58.5500;-52.4500;-6.1000
1374.0270;-58.6700;-52.5400;-6.1300
1374.2260;-58.7900;-52.6100;-6.1800
1374.4250;-58.9500;-52.7300;-6.2200
1374.6240;-59.1300;-52.8400;-6.2900
1374.8230;-59.3000;-53.0000;-6.3000
1375.0220;-59.4800;-53.1600;-6.3200
1375.2210;-59.5700;-53.2100;-6.3600
1375.4200;-59.6400;-53.2500;-6.3900
1375.6200;-59.7100;-53.3000;-6.4100
1375.8190;-59.8000;-53.3900;-6.4100
1376.0180;-59.9400;-53.5200;-6.4200
1376.2170;-60.0400;-53.6200;-6.4200
1376.4160;-60.1100;-53.7100;-6.4000
1376.6150;-60.1600;-53.7700;-6.3900
1376.8140;-60.2700;-53.9100;-6.3600
1377.0130;-60.4900;-54.1300;-6.3600
1377.2120;-60.5900;-54.2700;-6.3200
1377.4120;-60.5900;-54.3300;-6.2600
1377.6110;-60.6100;-54.3600;-6.2500
1377.8100;-60.5100;-54.3000;-6.2100
1378.0090;-60.5000;-54.3400;-6.1600
1378.2080;-60.5000;-54.4200;-6.0800
1378.4070;-60.6100;-54.5700;-6.0400
1378.6060;-60.7800;-54.8000;-5.9800
1378.8050;-60.9800;-55.0800;-5.9000
1379.0040;-61.0300;-55.1800;-5.8500
1379.2040;-60.9700;-55.2200;-5.7500
1379.4030;-60.8600;-55.1600;-5.7000
1379.6020;-60.7100;-55.1100;-5.6000
1379.8010;-60.6700;-55.1400;-5.5300
1380.0000;-60.7100;-55.2600;-5.4500
1380.1990;-60.7700;-55.4100;-5.3600
1380.3980;-60.8800;-55.5900;-5.2900
1380.5970;-61.3400;-56.1300;-5.2100
1380.7970;-61.6800;-56.5600;-5.1200
1380.9960;-61.7500;-56.7000;-5.0500
1381.1950;-61.6500;-56.6700;-4.9800
1381.3940;-61.2600;-56.3700;-4.8900
1381.5930;-60.9000;-56.1000;-4.8000
1381.7920;-60.8600;-56.1200;-4.7400
1381.9910;-60.8000;-56.1400;-4.6600
1382.1900;-60.8100;-56.2400;-4.5700
1382.3890;-61.0500;-56.5300;-4.5200
1382.5890;-61.4900;-57.0600;-4.4300
1382.7880;-61.8800;-57.5100;-4.3700
1382.9870;-61.9900;-57.7200;-4.2700
1383.1860;-61.7000;-57.4500;-4.2500
1383.3850;-61.3300;-57.1600;-4.1700
1383.5840;-61.0700;-56.9600;-4.1100
1383.7830;-61.1000;-57.0600;-4.0400
1383.9820;-61.1400;-57.1800;-3.9600
1384.1810;-61.1200;-57.2000;-3.9200
1384.3810;-61.0600;-57.1900;-3.8700
1384.5800;-60.9400;-57.1400;-3.8000
1384.7790;-60.9700;-57.2100;-3.7600
1384.9780;-61.2100;-57.5000;-3.7100
1385.1770;-61.3600;-57.6900;-3.6700
1385.3760;-61.4100;-57.7900;-3.6200
1385.5750;-61.3100;-57.7100;-3.6000
1385.7740;-61.2800;-57.7400;-3.5400
1385.9740;-61.2500;-57.7100;-3.5400
1386.1730;-61.2400;-57.7300;-3.5100
1386.3720;-61.3300;-57.8700;-3.4600
1386.5710;-61.3500;-57.8800;-3.4700
1386.7700;-61.3200;-57.8900;-3.4300
1386.9690;-61.3600;-57.9200;-3.4400
1387.1680;-61.3200;-57.9300;-3.3900
1387.3670;-61.3900;-57.9700;-3.4200
1387.5660;-61.4000;-58.0300;-3.3700
1387.7660;-61.6900;-58.3200;-3.3700
1387.9650;-61.9000;-58.6100;-3.2900
1388.1640;-62.1200;-58.8200;-3.3000
1388.3630;-62.2800;-58.9300;-3.3500
1388.5620;-62.2100;-58.8600;-3.3500
1388.7610;-62.1000;-58.7100;-3.3900
1388.9600;-62.0600;-58.6600;-3.4000
1389.1590;-62.0200;-58.6000;-3.4200
1389.3580;-62.0500;-58.6300;-3.4200
1389.5580;-62.1100;-58.6900;-3.4200
1389.7570;-62.1900;-58.7700;-3.4200
1389.9560;-62.3500;-58.9200;-3.4300
1390.1550;-62.4600;-58.9700;-3.4900
1390.3540;-62.5500;-59.0100;-3.5400
1390.5530;-62.6300;-59.0400;-3.5900
1390.7520;-62.6200;-59.0500;-3.5700
1390.9510;-62.7200;-59.1100;-3.6100
1391.1500;-62.8600;-59.1700;-3.6900
1391.3500;-62.9300;-59.2200;-3.7100
1391.5490;-63.0500;-59.3000;-3.7500
1391.7480;-63.1600;-59.3600;-3.8000
1391.9470;-63.2600;-59.4400;-3.8200
1392.1460;-63.4900;-59.6100;-3.8800
1392.3450;-63.7800;-59.8200;-3.9600
1392.5440;-64.2600;-60.2300;-4.0300
1392.7430;-64.4500;-60.3800;-4.0700
1392.9430;-64.4500;-60.3000;-4.1500
1393.1420;-64.4000;-60.1400;-4.2600
1393.3410;-64.2000;-59.9200;-4.2800
1393.5400;-64.2200;-59.8900;-4.3300
1393.7390;-64.3700;-59.9500;-4.4200
1393.9380;-64.5900;-59.9800;-4.6100
1394.1370;-64.6700;-60.0800;-4.5900
1394.3360;-64.8600;-60.1300;-4.7300
1394.5350;-64.9900;-60.2100;-4.7800
1394.7350;-65.1400;-60.3200;-4.8200
1394.9340;-65.5700;-60.5900;-4.9800
1395.1330;-65.8300;-60.8200;-5.0100
1395.3320;-66.0300;-60.9100;-5.1200
1395.5310;-66.2800;-61.0300;-5.2500
1395.7300;-66.3900;-61.0200;-5.3700
1395.9290;-66.4000;-60.9400;-5.4600
1396.1280;-66.5400;-60.9300;-5.6100
1396.3270;-66.7500;-61.0800;-5.6700
1396.5270;-66.9700;-61.3300;-5.6400
1396.7260;-67.3200;-61.4800;-5.8400
1396.9250;-67.4800;-61.4200;-6.0600
1397.1240;-67.4000;-61.2700;-6.1300
1397.3230;-67.4100;-61.1900;-6.2200
1397.5220;-67.5400;-61.1500;-6.3900
1397.7210;-67.5700;-61.1700;-6.4000
1397.9200;-67.8100;-61.2200;-6.5900
1398.1200;-68.0800;-61.2600;-6.8200
1398.3190;-68.2200;-61.3300;-6.8900
1398.5180;-68.3600;-61.4100;-6.9500
1398.7170;-68.4800;-61.4700;-7.0100
1398.9160;-68.7300;-61.5200;-7.2100
1399.1150;-68.8900;-61.5800;-7.3100
1399.3140;-69.0800;-61.6800;-7.4000
1399.5130;-69.5500;-61.9700;-7.5800
1399.7120;-69.7800;-62.0800;-7.7000
1399.9120;-70.0000;-62.1600;-7.8400
1400.1110;-70.2100;-62.3100;-7.9000
1400.3100;-70.1600;-62.2800;-7.8800
1400.5090;-70.4700;-62.3300;-8.1400
1400.7080;-71.0100;-62.7300;-8.2800
1400.9070;-71.1100;-62.8000;-8.3100
1401.1060;-71.0800;-62.7600;-8.3200
1401.3050;-71.2900;-62.7600;-8.5300
1401.5040;-71.3200;-62.6400;-8.6800
1401.7040;-71.5900;-62.6600;-8.9300
1401.9030;-71.4100;-62.7100;-8.7000
1402.1020;-71.5900;-62.6800;-8.9100
1402.3010;-71.6300;-62.6500;-8.9800
1402.5000;-71.6200;-62.6600;-8.9600
1402.6990;-71.7700;-62.6900;-9.0800
1402.8980;-71.8900;-62.8200;-9.0700
1403.0970;-72.2300;-62.9200;-9.3100
1403.2970;-72.1300;-62.9800;-9.1500
1403.4960;-72.3700;-63.0300;-9.3400
1403.6950;-72.3300;-63.0800;-9.2500
1403.8940;-72.5900;-63.1800;-9.4100
1404.0930;-72.6800;-63.3000;-9.3800
1404.2920;-72.7300;-63.4300;-9.3000
1404.4910;-73.0700;-63.5100;-9.5600
1404.6900;-73.0100;-63.6100;-9.4000
1404.8890;-73.4600;-64.0700;-9.3900
1405.0890;-73.7700;-64.2300;-9.5400
1405.2880;-73.5400;-64.2500;-9.2900
1405.4870;-73.4400;-64.2300;-9.2100
1405.6860;-73.1000;-63.9400;-9.1600
1405.8850;-72.9200;-63.8800;-9.0400
1406.0840;-72.8900;-63.9400;-8.9500
1406.2830;-72.8900;-63.9700;-8.9200
1406.4820;-73.2800;-64.0200;-9.2600
1406.6810;-73.1900;-64.1900;-9.0000
1406.8810;-73.1700;-64.3500;-8.8200
1407.0800;-73.0900;-64.4900;-8.6000
1407.2790;-73.4100;-64.7300;-8.6800
1407.4780;-73.7500;-64.7900;-8.9600
1407.6770;-73.8900;-64.7800;-9.1100
1407.8760;-73.6500;-64.8000;-8.8500
1408.0750;-73.4400;-64.7600;-8.6800
1408.2740;-73.3800;-64.6700;-8.7100
1408.4740;-73.3800;-64.7400;-8.6400
1408.6730;-73.4500;-64.7900;-8.6600
1408.8720;-73.3600;-64.9000;-8.4600
1409.0710;-73.4600;-65.0400;-8.4200
1409.2700;-73.9800;-65.2600;-8.7200
1409.4690;-74.0200;-65.5900;-8.4300
1409.6680;-73.8000;-65.6500;-8.1500
1409.8670;-73.8900;-65.7100;-8.1800
1410.0660;-73.9800;-65.6000;-8.3800
1410.2660;-73.7500;-65.4500;-8.3000
1410.4650;-73.6900;-65.5300;-8.1600
1410.6640;-73.9000;-65.5700;-8.3300
1410.8630;-74.0800;-65.6500;-8.4300
1411.0620;-73.7100;-65.6400;-8.0700
1411.2610;-74.1500;-65.7700;-8.3800
1411.4600;-74.0200;-65.9300;-8.0900
1411.6590;-74.7200;-65.9500;-8.7700
1411.8580;-74.7000;-66.0700;-8.6300
1412.0580;-74.8700;-66.1100;-8.7600
1412.2570;-74.4300;-66.2200;-8.2100
1412.4560;-75.1200;-66.3500;-8.7700
1412.6550;-74.7000;-66.3800;-8.3200
1412.8540;-74.8100;-66.4500;-8.3600
1413.0530;-74.8000;-66.4900;-8.3100
1413.2520;-75.2700;-66.5200;-8.7500
1413.4510;-74.6800;-66.6400;-8.0400
1413.6500;-75.5900;-66.7600;-8.8300
1413.8500;-74.9400;-66.8200;-8.1200
1414.0490;-75.3900;-67.0900;-8.3000
1414.2480;-75.1700;-67.2000;-7.9700
1414.4470;-75.8300;-67.2300;-8.6000
1414.6460;-76.3300;-67.3600;-8.9700
1414.8450;-76.0500;-67.5100;-8.5400
1415.0440;-76.4300;-67.4100;-9.0200
1415.2430;-75.4400;-67.4900;-7.9500
1415.4430;-76.2500;-67.5300;-8.7200
1415.6420;-76.8000;-67.5200;-9.2800
1415.8410;-76.6400;-67.6500;-8.9900
1416.0400;-76.9800;-67.6900;-9.2900
1416.2390;-77.2800;-67.7300;-9.5500
1416.4380;-76.3800;-67.8100;-8.5700
1416.6370;-76.8500;-67.8200;-9.0300
1416.8360;-77.4200;-68.0000;-9.4200
1417.0350;-77.6800;-68.0200;-9.6600
1417.2350;-77.8300;-68.1700;-9.6600
1417.4340;-77.4600;-68.2800;-9.1800
1417.6330;-78.3500;-68.4700;-9.8800
1417.8320;-77.4400;-68.5400;-8.9000
1418.0310;-77.4800;-68.6700;-8.8100
1418.2300;-78.7500;-68.6700;-10.0800
1418.4290;-77.9300;-68.6000;-9.3300
1418.6280;-77.7400;-68.7000;-9.0400
1418.8270;-77.9700;-68.7800;-9.1900
1419.0270;-78.7800;-69.0600;-9.7200
1419.2260;-78.7800;-69.1200;-9.6600
1419.4250;-79.7700;-69.2900;-10.4800
1419.6240;-80.4300;-69.2900;-11.1400
1419.8230;-78.7200;-69.4200;-9.3000
1420.0220;-79.2000;-69.4600;-9.7400
1420.2210;-78.2200;-69.4500;-8.7700
1420.4200;-79.3300;-69.4600;-9.8700
1420.6200;-79.9500;-69.4900;-10.4600
1420.8190;-79.3900;-69.8400;-9.5500
1421.0180;-81.3100;-69.7700;-11.5400
1421.2170;-78.7800;-69.9900;-8.7900
1421.4160;-79.3000;-69.9100;-9.3900
1421.6150;-80.8300;-70.1300;-10.7000
1421.8140;-80.6100;-70.1100;-10.5000
1422.0130;-80.3600;-70.0200;-10.3400
1422.2120;-80.4400;-70.2400;-10.2000
1422.4120;-79.5400;-70.1800;-9.3600
1422.6110;-78.4300;-70.4900;-7.9400
1422.8100;-79.4700;-70.6000;-8.8700
1423.0090;-78.6800;-70.5900;-8.0900
1423.2080;-80.2400;-70.4200;-9.8200
1423.4070;-79.7800;-70.6400;-9.1400
1423.6060;-78.7600;-70.7900;-7.9700
1423.8050;-79.8200;-70.8600;-8.9600
1424.0040;-79.4700;-70.7900;-8.6800
1424.2040;-80.0400;-71.0800;-8.9600
1424.4030;-82.1000;-71.1400;-10.9600
1424.6020;-80.7400;-71.1100;-9.6300
1424.8010;-81.1600;-71.0700;-10.0900
1425.0000;-79.5400;-71.2100;-8.3300
