Wavelength;Intensity_Meas;Intensity_Ref;Difference_dB
1200.0000;-58.0000;-54.7600;-3.2400
1200.1990;-57.9300;-54.7300;-3.2000
1200.3980;-57.9100;-54.7000;-3.2100
1200.5970;-57.9200;-54.6700;-3.2500
1200.7970;-57.9100;-54.6400;-3.2700
1200.9960;-57.8500;-54.6100;-3.2400
1201.1950;-57.7900;-54.5600;-3.2300
1201.3940;-57.7800;-54.5300;-3.2500
1201.5930;-57.7500;-54.4900;-3.2600
1201.7920;-57.7000;-54.4200;-3.2800
1201.9910;-57.6400;-54.3800;-3.2600
1202.1900;-57.5800;-54.3300;-3.2500
1202.3890;-57.5400;-54.2800;-3.2600
1202.5890;-57.5000;-54.2200;-3.2800
1202.7880;-57.4300;-54.1600;-3.2700
1202.9870;-57.3500;-54.1200;-3.2300
1203.1860;-57.2700;-54.0600;-3.2100
1203.3850;-57.2700;-54.0100;-3.2600
1203.5840;-57.1900;-53.9700;-3.2200
1203.7830;-57.0900;-53.9100;-3.1800
1203.9820;-57.0500;-53.9000;-3.1500
1204.1810;-57.0300;-53.8400;-3.1900
1204.3810;-56.9800;-53.8000;-3.1800
1204.5800;-56.9000;-53.7700;-3.1300
1204.7790;-56.8500;-53.7300;-3.1200
1204.9780;-56.8500;-53.7100;-3.1400
1205.1770;-56.8200;-53.6600;-3.1600
1205.3760;-56.7500;-53.6500;-3.1000
1205.5750;-56.7200;-53.6300;-3.0900
1205.7740;-56.7200;-53.6000;-3.1200
1205.9740;-56.7100;-53.5900;-3.1200
1206.1730;-56.6500;-53.5600;-3.0900
1206.3720;-56.6400;-53.5400;-3.1000
1206.5710;-56.6400;-53.5200;-3.1200
1206.7700;-56.6200;-53.4900;-3.1300
1206.9690;-56.6000;-53.4600;-3.1400
1207.1680;-56.5600;-53.4200;-3.1400
1207.3670;-56.5500;-53.4000;-3.1500
1207.5660;-56.5300;-53.3700;-3.1600
1207.7660;-56.5000;-53.3200;-3.1800
1207.9650;-56.4700;-53.3000;-3.1700
1208.1640;-56.4200;-53.2500;-3.1700
1208.3630;-56.4200;-53.1900;-3.2300
1208.5620;-56.4000;-53.1500;-3.2500
1208.7610;-56.3100;-53.1100;-3.2000
1208.9600;-56.2700;-53.0500;-3.2200
1209.1590;-56.2500;-52.9800;-3.2700
1209.3580;-56.2000;-52.9300;-3.2700
1209.5580;-56.1100;-52.8900;-3.2200
1209.7570;-56.0700;-52.8200;-3.2500
1209.9560;-56.0600;-52.7700;-3.2900
1210.1550;-55.9900;-52.7100;-3.2800
1210.3540;-55.9200;-52.6500;-3.2700
1210.5530;-55.8800;-52.6200;-3.2600
1210.7520;-55.8400;-52.5600;-3.2800
1210.9510;-55.8000;-52.5200;-3.2800
1211.1500;-55.7500;-52.4600;-3.2900
1211.3500;-55.7200;-52.4100;-3.3100
1211.5490;-55.6900;-52.3900;-3.3000
1211.7480;-55.6700;-52.3300;-3.3400
1211.9470;-55.6300;-52.3000;-3.3300
1212.1460;-55.5700;-52.2600;-3.3100
1212.3450;-55.5700;-52.2200;-3.3500
1212.5440;-55.5700;-52.2100;-3.3600
1212.7430;-55.5400;-52.1700;-3.3700
1212.9430;-55.4700;-52.1400;-3.3300
1213.1420;-55.4700;-52.1000;-3.3700
1213.3410;-55.4600;-52.0700;-3.3900
1213.5400;-55.4200;-52.0500;-3.3700
1213.7390;-55.3600;-52.0000;-3.3600
1213.9380;-55.3500;-51.9800;-3.3700
1214.1370;-55.3200;-51.9300;-3.3900
1214.3360;-55.2700;-51.8800;-3.3900
1214.5350;-55.2300;-51.8600;-3.3700
1214.7350;-55.1900;-51.8100;-3.3800
1214.9340;-55.1400;-51.7600;-3.3800
1215.1330;-55.0800;-51.7000;-3.3800
1215.3320;-55.0300;-51.6400;-3.3900
1215.5310;-54.9600;-51.6100;-3.3500
1215.7300;-54.9100;-51.5400;-3.3700
1215.9290;-54.8500;-51.4900;-3.3600
1216.1280;-54.7600;-51.4200;-3.3400
1216.3270;-54.7000;-51.3600;-3.3400
1216.5270;-54.6500;-51.3100;-3.3400
1216.7260;-54.5900;-51.2400;-3.3500
1216.9250;-54.4900;-51.1800;-3.3100
1217.1240;-54.4200;-51.1100;-3.3100
1217.3230;-54.3800;-51.0500;-3.3300
1217.5220;-54.3100;-51.0100;-3.3000
1217.7210;-54.2400;-50.9400;-3.3000
1217.9200;-54.1700;-50.9000;-3.2700
1218.1200;-54.1100;-50.8300;-3.2800
1218.3190;-54.0600;-50.7900;-3.2700
1218.5180;-53.9900;-50.7500;-3.2400
1218.7170;-53.9400;-50.7000;-3.2400
1218.9160;-53.8700;-50.6700;-3.2000
1219.1150;-53.8200;-50.6100;-3.2100
1219.3140;-53.7800;-50.5700;-3.2100
1219.5130;-53.7200;-50.5400;-3.1800
1219.7120;-53.6900;-50.5100;-3.1800
1219.9120;-53.6400;-50.4700;-3.1700
1220.1110;-53.5700;-50.4200;-3.1500
1220.3100;-53.5300;-50.3800;-3.1500
1220.5090;-53.4800;-50.3400;-3.1400
1220.7080;-53.4300;-50.2900;-3.1400
1220.9070;-53.3600;-50.2600;-3.1000
1221.1060;-53.3000;-50.2000;-3.1000
1221.3050;-53.2500;-50.1400;-3.1100
1221.5040;-53.1800;-50.0900;-3.0900
1221.7040;-53.1100;-50.0200;-3.0900
1221.9030;-53.0400;-49.9700;-3.0700
1222.1020;-52.9600;-49.8900;-3.0700
1222.3010;-52.9100;-49.8300;-3.0800
1222.5000;-52.8100;-49.7600;-3.0500
1222.6990;-52.7400;-49.6900;-3.0500
1222.8980;-52.6700;-49.6300;-3.0400
1223.0970;-52.5800;-49.5400;-3.0400
1223.2970;-52.5000;-49.4700;-3.0300
1223.4960;-52.4000;-49.3900;-3.0100
1223.6950;-52.3300;-49.3100;-3.0200
1223.8940;-52.2500;-49.2500;-3.0000
1224.0930;-52.1600;-49.1700;-2.9900
1224.2920;-52.1000;-49.1000;-3.0000
1224.4910;-52.0100;-49.0300;-2.9800
1224.6900;-51.9400;-48.9600;-2.9800
1224.8890;-51.8700;-48.9100;-2.9600
1225.0890;-51.8000;-48.8400;-2.9600
1225.2880;-51.7400;-48.7700;-2.9700
1225.4870;-51.6700;-48.7200;-2.9500
1225.6860;-51.6100;-48.6600;-2.9500
1225.8850;-51.5600;-48.6200;-2.9400
1226.0840;-51.5000;-48.5500;-2.9500
1226.2830;-51.4700;-48.5000;-2.9700
1226.4820;-51.4100;-48.4400;-2.9700
1226.6810;-51.3700;-48.3800;-2.9900
1226.8810;-51.3400;-48.3400;-3.0000
1227.0800;-51.2900;-48.2700;-3.0200
1227.2790;-51.2600;-48.2200;-3.0400
1227.4780;-51.2000;-48.1600;-3.0400
1227.6770;-51.1700;-48.1000;-3.0700
1227.8760;-51.1400;-48.0400;-3.1000
1228.0750;-51.0800;-47.9600;-3.1200
1228.2740;-51.0500;-47.8900;-3.1600
1228.4740;-50.9900;-47.8300;-3.1600
1228.6730;-50.9400;-47.7500;-3.1900
1228.8720;-50.9000;-47.6800;-3.2200
1229.0710;-50.8300;-47.5900;-3.2400
1229.2700;-50.7900;-47.5100;-3.2800
1229.4690;-50.7100;-47.4300;-3.2800
1229.6680;-50.6500;-47.3500;-3.3000
1229.8670;-50.5900;-47.2700;-3.3200
1230.0660;-50.5200;-47.1800;-3.3400
1230.2660;-50.4500;-47.0900;-3.3600
1230.4650;-50.3600;-47.0100;-3.3500
1230.6640;-50.2900;-46.9200;-3.3700
1230.8630;-50.2500;-46.8600;-3.3900
1231.0620;-50.1700;-46.7700;-3.4000
1231.2610;-50.1200;-46.7100;-3.4100
1231.4600;-50.0700;-46.6500;-3.4200
1231.6590;-50.0000;-46.5700;-3.4300
1231.8580;-49.9500;-46.5100;-3.4400
1232.0580;-49.8900;-46.4400;-3.4500
1232.2570;-49.8500;-46.3800;-3.4700
1232.4560;-49.7900;-46.3300;-3.4600
1232.6550;-49.7400;-46.2600;-3.4800
1232.8540;-49.6800;-46.2000;-3.4800
1233.0530;-49.6300;-46.1400;-3.4900
1233.2520;-49.5800;-46.0700;-3.5100
1233.4510;-49.5000;-46.0100;-3.4900
1233.6500;-49.4500;-45.9400;-3.5100
1233.8500;-49.3800;-45.8900;-3.4900
1234.0490;-49.3100;-45.8000;-3.5100
1234.2480;-49.2400;-45.7500;-3.4900
1234.4470;-49.1400;-45.6600;-3.4800
1234.6460;-49.0600;-45.6000;-3.4600
1234.8450;-48.9700;-45.5200;-3.4500
1235.0440;-48.8600;-45.4400;-3.4200
1235.2430;-48.7800;-45.3800;-3.4000
1235.4430;-48.6500;-45.2700;-3.3800
1235.6420;-48.5500;-45.2000;-3.3500
1235.8410;-48.4300;-45.1000;-3.3300
1236.0400;-48.3200;-45.0100;-3.3100
1236.2390;-48.2100;-44.9200;-3.2900
1236.4380;-48.0800;-44.8100;-3.2700
1236.6370;-47.9700;-44.7300;-3.2400
1236.8360;-47.8500;-44.6400;-3.2100
1237.0350;-47.7400;-44.5500;-3.1900
1237.2350;-47.6300;-44.4700;-3.1600
1237.4340;-47.5100;-44.3600;-3.1500
1237.6330;-47.4200;-44.2900;-3.1300
1237.8320;-47.3100;-44.2100;-3.1000
1238.0310;-47.2000;-44.1100;-3.0900
1238.2300;-47.1200;-44.0500;-3.0700
1238.4290;-47.0100;-43.9500;-3.0600
1238.6280;-46.9200;-43.8800;-3.0400
1238.8270;-46.8100;-43.7900;-3.0200
1239.0270;-46.7100;-43.7200;-2.9900
1239.2260;-46.6200;-43.6500;-2.9700
1239.4250;-46.5000;-43.5500;-2.9500
1239.6240;-46.4100;-43.4800;-2.9300
1239.8230;-46.2900;-43.3900;-2.9000
1240.0220;-46.1900;-43.3100;-2.8800
1240.2210;-46.0800;-43.2300;-2.8500
1240.4200;-45.9400;-43.1300;-2.8100
1240.6200;-45.8500;-43.0500;-2.8000
1240.8190;-45.7200;-42.9400;-2.7800
1241.0180;-45.6000;-42.8300;-2.7700
1241.2170;-45.4600;-42.7300;-2.7300
1241.4160;-45.3400;-42.6200;-2.7200
1241.6150;-45.2100;-42.5000;-2.7100
1241.8140;-45.0900;-42.3900;-2.7000
1242.0130;-44.9800;-42.2700;-2.7100
1242.2120;-44.8500;-42.1700;-2.6800
1242.4120;-44.7300;-42.0400;-2.6900
1242.6110;-44.6200;-41.9300;-2.6900
1242.8100;-44.5100;-41.8000;-2.7100
1243.0090;-44.4100;-41.6800;-2.7300
1243.2080;-44.3000;-41.5700;-2.7300
1243.4070;-44.2100;-41.4500;-2.7600
1243.6060;-44.1200;-41.3300;-2.7900
1243.8050;-44.0300;-41.2100;-2.8200
1244.0040;-43.9600;-41.0900;-2.8700
1244.2040;-43.8800;-40.9900;-2.8900
1244.4030;-43.8100;-40.8700;-2.9400
1244.6020;-43.7400;-40.7600;-2.9800
1244.8010;-43.6700;-40.6400;-3.0300
1245.0000;-43.6300;-40.5300;-3.1000
1245.1990;-43.5600;-40.4300;-3.1300
1245.3980;-43.5100;-40.3100;-3.2000
1245.5970;-43.4500;-40.2000;-3.2500
1245.7970;-43.3900;-40.0800;-3.3100
1245.9960;-43.3400;-39.9600;-3.3800
1246.1950;-43.2800;-39.8600;-3.4200
1246.3940;-43.2300;-39.7300;-3.5000
1246.5930;-43.1800;-39.6000;-3.5800
1246.7920;-43.1200;-39.4800;-3.6400
1246.9910;-43.0800;-39.3400;-3.7400
1247.1900;-43.0200;-39.2300;-3.7900
1247.3890;-42.9800;-39.0900;-3.8900
1247.5890;-42.9300;-38.9600;-3.9700
1247.7880;-42.8800;-38.8200;-4.0600
1247.9870;-42.8500;-38.6800;-4.1700
1248.1860;-42.8000;-38.5600;-4.2400
1248.3850;-42.7800;-38.4100;-4.3700
1248.5840;-42.7400;-38.2800;-4.4600
1248.7830;-42.7200;-38.1400;-4.5800
1248.9820;-42.7200;-38.0100;-4.7100
1249.1810;-42.7000;-37.8800;-4.8200
1249.3810;-42.7000;-37.7400;-4.9600
1249.5800;-42.7000;-37.6100;-5.0900
1249.7790;-42.7000;-37.4700;-5.2300
1249.9780;-42.7200;-37.3300;-5.3900
1250.1770;-42.7300;-37.2200;-5.5100
1250.3760;-42.7500;-37.0800;-5.6700
1250.5750;-42.7700;-36.9500;-5.8200
1250.7740;-42.8000;-36.8200;-5.9800
1250.9740;-42.8600;-36.7000;-6.1600
1251.1730;-42.8800;-36.5800;-6.3000
1251.3720;-42.9200;-36.4400;-6.4800
1251.5710;-42.9700;-36.3400;-6.6300
1251.7700;-43.0100;-36.2000;-6.8100
1251.9690;-43.0500;-36.0700;-6.9800
1252.1680;-43.0800;-35.9400;-7.1400
1252.3670;-43.1100;-35.7800;-7.3300
1252.5660;-43.1500;-35.6800;-7.4700
1252.7660;-43.1700;-35.5400;-7.6300
1252.9650;-43.2100;-35.4300;-7.7800
1253.1640;-43.2200;-35.2800;-7.9400
1253.3630;-43.2300;-35.1400;-8.0900
1253.5620;-43.2400;-35.0200;-8.2200
1253.7610;-43.2300;-34.8800;-8.3500
1253.9600;-43.2400;-34.7600;-8.4800
1254.1590;-43.2200;-34.6100;-8.6100
1254.3580;-43.2000;-34.4800;-8.7200
1254.5580;-43.1700;-34.3500;-8.8200
1254.7570;-43.1200;-34.2100;-8.9100
1254.9560;-43.0800;-34.0800;-9.0000
1255.1550;-43.0200;-33.9500;-9.0700
1255.3540;-42.9500;-33.8200;-9.1300
1255.5530;-42.8700;-33.7000;-9.1700
1255.7520;-42.7700;-33.5700;-9.2000
1255.9510;-42.6700;-33.4500;-9.2200
1256.1500;-42.5500;-33.3100;-9.2400
1256.3500;-42.4200;-33.1900;-9.2300
1256.5490;-42.2800;-33.0700;-9.2100
1256.7480;-42.1200;-32.9400;-9.1800
1256.9470;-41.9500;-32.8200;-9.1300
1257.1460;-41.7600;-32.6900;-9.0700
1257.3450;-41.5800;-32.5600;-9.0200
1257.5440;-41.3700;-32.4400;-8.9300
1257.7430;-41.1500;-32.3100;-8.8400
1257.9430;-40.9200;-32.1900;-8.7300
1258.1420;-40.6900;-32.0600;-8.6300
1258.3410;-40.4500;-31.9400;-8.5100
1258.5400;-40.2000;-31.8100;-8.3900
1258.7390;-39.9400;-31.6800;-8.2600
1258.9380;-39.6700;-31.5500;-8.1200
1259.1370;-39.4000;-31.4200;-7.9800
1259.3360;-39.1400;-31.3000;-7.8400
1259.5350;-38.8700;-31.1700;-7.7000
1259.7350;-38.6000;-31.0400;-7.5600
1259.9340;-38.3300;-30.9100;-7.4200
1260.1330;-38.0600;-30.7800;-7.2800
1260.3320;-37.8000;-30.6600;-7.1400
1260.5310;-37.5400;-30.5300;-7.0100
1260.7300;-37.2800;-30.4100;-6.8700
1260.9290;-37.0200;-30.2900;-6.7300
1261.1280;-36.7600;-30.1500;-6.6100
1261.3270;-36.5200;-30.0400;-6.4800
1261.5270;-36.2800;-29.9200;-6.3600
1261.7260;-36.0500;-29.8000;-6.2500
1261.9250;-35.7600;-29.6800;-6.0800
1262.1240;-35.5800;-29.5500;-6.0300
1262.3230;-35.3500;-29.4400;-5.9100
1262.5220;-35.1300;-29.3200;-5.8100
1262.7210;-34.9200;-29.2000;-5.7200
1262.9200;-34.6900;-29.0800;-5.6100
1263.1200;-34.4800;-28.9600;-5.5200
1263.3190;-34.2700;-28.8400;-5.4300
1263.5180;-34.0600;-28.7200;-5.3400
1263.7170;-33.8600;-28.6000;-5.2600
1263.9160;-33.6500;-28.4800;-5.1700
1264.1150;-33.4600;-28.3500;-5.1100
1264.3140;-33.2500;-28.2400;-5.0100
1264.5130;-33.0700;-28.1100;-4.9600
1264.7120;-32.8800;-27.9900;-4.8900
1264.9120;-32.6800;-27.8600;-4.8200
1265.1110;-32.5100;-27.7400;-4.7700
1265.3100;-32.3200;-27.6200;-4.7000
1265.5090;-32.1600;-27.4900;-4.6700
1265.7080;-32.0000;-27.3800;-4.6200
1265.9070;-31.8300;-27.2600;-4.5700
1266.1060;-31.6900;-27.1300;-4.5600
1266.3050;-31.5300;-27.0300;-4.5000
1266.5040;-31.3900;-26.9100;-4.4800
1266.7040;-31.2600;-26.8000;-4.4600
1266.9030;-31.1200;-26.6800;-4.4400
1267.1020;-31.0000;-26.5700;-4.4300
1267.3010;-30.8700;-26.4700;-4.4000
1267.5000;-30.7700;-26.3500;-4.4200
1267.6990;-30.6600;-26.2500;-4.4100
1267.8980;-30.5500;-26.1300;-4.4200
1268.0970;-30.4700;-26.0200;-4.4500
1268.2970;-30.3600;-25.9100;-4.4500
1268.4960;-30.2800;-25.8200;-4.4600
1268.6950;-30.1800;-25.7100;-4.4700
1268.8940;-30.0900;-25.5900;-4.5000
1269.0930;-30.0200;-25.4900;-4.5300
1269.2920;-29.9400;-25.3700;-4.5700
1269.4910;-29.8800;-25.2600;-4.6200
1269.6900;-29.8000;-25.1500;-4.6500
1269.8890;-29.7300;-25.0300;-4.7000
1270.0890;-29.6800;-24.9300;-4.7500
1270.2880;-29.6100;-24.8000;-4.8100
1270.4870;-29.5700;-24.7000;-4.8700
1270.6860;-29.5200;-24.5900;-4.9300
1270.8850;-29.4700;-24.4700;-5.0000
1271.0840;-29.4400;-24.3700;-5.0700
1271.2830;-29.4000;-24.2600;-5.1400
1271.4820;-29.3800;-24.1500;-5.2300
1271.6810;-29.3500;-24.0500;-5.3000
1271.8810;-29.3300;-23.9400;-5.3900
1272.0800;-29.3300;-23.8500;-5.4800
1272.2790;-29.3200;-23.7300;-5.5900
1272.4780;-29.3300;-23.6400;-5.6900
1272.6770;-29.3400;-23.5400;-5.8000
1272.8760;-29.3500;-23.4300;-5.9200
1273.0750;-29.3700;-23.3400;-6.0300
1273.2740;-29.4000;-23.2300;-6.1700
1273.4740;-29.4400;-23.1300;-6.3100
1273.6730;-29.4700;-23.0300;-6.4400
1273.8720;-29.5100;-22.9300;-6.5800
1274.0710;-29.5600;-22.8400;-6.7200
1274.2700;-29.6100;-22.7300;-6.8800
1274.4690;-29.6800;-22.6300;-7.0500
1274.6680;-29.7400;-22.5200;-7.2200
1274.8670;-29.8100;-22.4100;-7.4000
1275.0660;-29.8800;-22.3200;-7.5600
1275.2660;-29.9600;-22.2000;-7.7600
1275.4650;-30.0500;-22.1100;-7.9400
1275.6640;-30.1400;-22.0100;-8.1300
1275.8630;-30.2400;-21.9100;-8.3300
1276.0620;-30.3400;-21.8100;-8.5300
1276.2610;-30.4500;-21.7100;-8.7400
1276.4600;-30.5800;-21.6200;-8.9600
1276.6590;-30.6900;-21.5100;-9.1800
1276.8580;-30.8300;-21.4200;-9.4100
1277.0580;-30.9600;-21.3400;-9.6200
1277.2570;-31.1100;-21.2300;-9.8800
1277.4560;-31.2700;-21.1600;-10.1100
1277.6550;-31.4200;-21.0600;-10.3600
1277.8540;-31.5900;-20.9700;-10.6200
1278.0530;-31.7600;-20.8800;-10.8800
1278.2520;-31.9400;-20.7900;-11.1500
1278.4510;-32.1300;-20.7200;-11.4100
1278.6500;-32.3100;-20.6200;-11.6900
1278.8500;-32.5200;-20.5300;-11.9900
1279.0490;-32.7000;-20.4400;-12.2600
1279.2480;-32.9000;-20.3500;-12.5500
1279.4470;-33.0900;-20.2800;-12.8100
1279.6460;-33.2800;-20.1800;-13.1000
1279.8450;-33.4800;-20.1000;-13.3800
1280.0440;-33.6500;-20.0100;-13.6400
1280.2430;-33.8300;-19.9100;-13.9200
1280.4430;-33.9800;-19.8400;-14.1400
1280.6420;-34.1100;-19.7500;-14.3600
1280.8410;-34.2400;-19.6700;-14.5700
1281.0400;-34.3200;-19.5800;-14.7400
1281.2390;-34.3800;-19.4900;-14.8900
1281.4380;-34.3900;-19.4200;-14.9700
1281.6370;-34.3700;-19.3300;-15.0400
1281.8360;-34.3200;-19.2600;-15.0600
1282.0350;-34.2100;-19.1700;-15.0400
1282.2350;-34.0800;-19.0900;-14.9900
1282.4340;-33.8900;-19.0100;-14.8800
1282.6330;-33.6900;-18.9400;-14.7500
1282.8320;-33.4500;-18.8700;-14.5800
1283.0310;-33.1700;-18.7800;-14.3900
1283.2300;-32.8900;-18.7100;-14.1800
1283.4290;-32.5600;-18.6400;-13.9200
1283.6280;-32.2400;-18.5600;-13.6800
1283.8270;-31.9000;-18.4900;-13.4100
1284.0270;-31.5400;-18.4100;-13.1300
1284.2260;-31.2000;-18.3400;-12.8600
1284.4250;-30.8300;-18.2700;-12.5600
1284.6240;-30.4800;-18.1900;-12.2900
1284.8230;-30.1100;-18.1300;-11.9800
1285.0220;-29.7600;-18.0400;-11.7200
1285.2210;-29.4200;-17.9700;-11.4500
1285.4200;-29.0600;-17.9000;-11.1600
1285.6200;-28.7300;-17.8300;-10.9000
1285.8190;-28.3800;-17.7700;-10.6100
1286.0180;-28.0500;-17.6900;-10.3600
1286.2170;-27.7300;-17.6200;-10.1100
1286.4160;-27.4100;-17.5400;-9.8700
1286.6150;-27.1200;-17.4800;-9.6400
1286.8140;-26.8000;-17.4300;-9.3700
1287.0130;-26.5100;-17.3500;-9.1600
1287.2120;-26.2300;-17.2900;-8.9400
1287.4120;-25.9000;-17.2200;-8.6800
1287.6110;-25.6800;-17.1500;-8.5300
1287.8100;-25.4100;-17.1000;-8.3100
1288.0090;-25.1700;-17.0200;-8.1500
1288.2080;-24.9100;-16.9700;-7.9400
1288.4070;-24.6800;-16.9000;-7.7800
1288.6060;-24.4500;-16.8400;-7.6100
1288.8050;-24.2200;-16.7900;-7.4300
1289.0040;-24.0100;-16.7200;-7.2900
1289.2040;-23.7900;-16.6700;-7.1200
1289.4030;-23.5900;-16.6000;-6.9900
1289.6020;-23.3900;-16.5400;-6.8500
1289.8010;-23.2000;-16.4900;-6.7100
1290.0000;-23.0300;-16.4200;-6.6100
1290.1990;-22.8400;-16.3800;-6.4600
1290.3980;-22.6800;-16.3100;-6.3700
1290.5970;-22.5200;-16.2700;-6.2500
1290.7970;-22.3500;-16.2100;-6.1400
1290.9960;-22.2000;-16.1400;-6.0600
1291.1950;-22.0300;-16.0900;-5.9400
1291.3940;-21.9000;-16.0400;-5.8600
1291.5930;-21.7400;-15.9800;-5.7600
1291.7920;-21.6000;-15.9200;-5.6800
1291.9910;-21.4800;-15.8700;-5.6100
1292.1900;-21.3500;-15.8100;-5.5400
1292.3890;-21.2400;-15.7600;-5.4800
1292.5890;-21.1100;-15.7100;-5.4000
1292.7880;-21.0100;-15.6500;-5.3600
1292.9870;-20.9100;-15.6200;-5.2900
1293.1860;-20.8100;-15.5600;-5.2500
1293.3850;-20.7300;-15.5100;-5.2200
1293.5840;-20.6300;-15.4500;-5.1800
1293.7830;-20.5600;-15.4000;-5.1600
1293.9820;-20.4800;-15.3700;-5.1100
1294.1810;-20.4100;-15.3100;-5.1000
1294.3810;-20.3600;-15.2700;-5.0900
1294.5800;-20.2800;-15.2200;-5.0600
1294.7790;-20.2400;-15.1700;-5.0700
1294.9780;-20.1900;-15.1300;-5.0600
1295.1770;-20.1400;-15.0800;-5.0600
1295.3760;-20.1100;-15.0400;-5.0700
1295.5750;-20.0600;-14.9800;-5.0800
1295.7740;-20.0400;-14.9300;-5.1100
1295.9740;-20.0000;-14.8900;-5.1100
1296.1730;-19.9800;-14.8400;-5.1400
1296.3720;-19.9700;-14.8100;-5.1600
1296.5710;-19.9500;-14.7500;-5.2000
1296.7700;-19.9600;-14.7100;-5.2500
1296.9690;-19.9500;-14.6700;-5.2800
1297.1680;-19.9600;-14.6300;-5.3300
1297.3670;-19.9800;-14.6000;-5.3800
1297.5660;-19.9800;-14.5400;-5.4400
1297.7660;-20.0200;-14.5000;-5.5200
1297.9650;-20.0300;-14.4700;-5.5600
1298.1640;-20.0700;-14.4300;-5.6400
1298.3630;-20.1100;-14.4100;-5.7000
1298.5620;-20.1400;-14.3500;-5.7900
1298.7610;-20.2100;-14.3300;-5.8800
1298.9600;-20.2600;-14.2900;-5.9700
1299.1590;-20.3300;-14.2500;-6.0800
1299.3580;-20.3900;-14.2300;-6.1600
1299.5580;-20.4600;-14.1800;-6.2800
1299.7570;-20.5600;-14.1500;-6.4100
1299.9560;-20.6400;-14.1200;-6.5200
1300.1550;-20.7500;-14.0900;-6.6600
1300.3540;-20.8500;-14.0600;-6.7900
1300.5530;-20.9500;-14.0100;-6.9400
1300.7520;-21.0700;-14.0000;-7.0700
1300.9510;-21.2000;-13.9600;-7.2400
1301.1500;-21.3500;-13.9400;-7.4100
1301.3500;-21.4800;-13.9100;-7.5700
1301.5490;-21.6400;-13.8900;-7.7500
1301.7480;-21.8000;-13.8800;-7.9200
1301.9470;-21.9700;-13.8400;-8.1300
1302.1460;-22.1700;-13.8300;-8.3400
1302.3450;-22.3500;-13.8100;-8.5400
1302.5440;-22.5600;-13.7900;-8.7700
1302.7430;-22.7600;-13.7800;-8.9800
1302.9430;-22.9800;-13.7500;-9.2300
1303.1420;-23.2300;-13.7500;-9.4800
1303.3410;-23.4700;-13.7200;-9.7500
1303.5400;-23.7400;-13.7100;-10.0300
1303.7390;-24.0000;-13.7100;-10.2900
1303.9380;-24.2900;-13.6800;-10.6100
1304.1370;-24.6100;-13.6800;-10.9300
1304.3360;-24.9200;-13.6600;-11.2600
1304.5350;-25.2800;-13.6500;-11.6300
1304.7350;-25.6300;-13.6400;-11.9900
1304.9340;-26.0100;-13.6300;-12.3800
1305.1330;-26.4200;-13.6300;-12.7900
1305.3320;-26.8400;-13.6000;-13.2400
1305.5310;-27.3100;-13.6100;-13.7000
1305.7300;-27.7700;-13.6000;-14.1700
1305.9290;-28.3800;-13.5800;-14.8000
1306.1280;-28.8200;-13.6000;-15.2200
1306.3270;-29.3800;-13.5800;-15.8000
1306.5270;-29.9700;-13.5900;-16.3800
1306.7260;-30.5800;-13.5900;-16.9900
1306.9250;-31.2300;-13.5800;-17.6500
1307.1240;-31.8900;-13.6000;-18.2900
1307.3230;-32.5700;-13.5900;-18.9800
1307.5220;-33.2300;-13.6100;-19.6200
1307.7210;-33.8500;-13.6100;-20.2400
1307.9200;-34.4100;-13.6100;-20.8000
1308.1200;-34.8600;-13.6300;-21.2300
1308.3190;-35.1300;-13.6300;-21.5000
1308.5180;-35.2000;-13.6500;-21.5500
1308.7170;-35.0500;-13.6500;-21.4000
1308.9160;-34.7100;-13.6500;-21.0600
1309.1150;-34.2200;-13.6800;-20.5400
1309.3140;-33.6400;-13.6900;-19.9500
1309.5130;-32.9800;-13.7200;-19.2600
1309.7120;-32.3100;-13.7200;-18.5900
1309.9120;-31.6200;-13.7400;-17.8800
1310.1110;-30.9600;-13.7600;-17.2000
1310.3100;-30.3400;-13.7700;-16.5700
1310.5090;-29.7200;-13.8100;-15.9100
1310.7080;-29.1400;-13.8100;-15.3300
1310.9070;-28.5700;-13.8400;-14.7300
1311.1060;-28.0500;-13.8600;-14.1900
1311.3050;-27.5600;-13.8800;-13.6800
1311.5040;-27.0900;-13.9200;-13.1700
1311.7040;-26.6600;-13.9300;-12.7300
1311.9030;-26.1600;-13.9700;-12.1900
1312.1020;-25.8500;-13.9800;-11.8700
1312.3010;-25.4700;-14.0100;-11.4600
1312.5000;-25.1300;-14.0600;-11.0700
1312.6990;-24.8000;-14.0800;-10.7200
1312.8980;-24.4800;-14.1300;-10.3500
1313.0970;-24.1900;-14.1500;-10.0400
1313.2970;-23.9000;-14.1900;-9.7100
1313.4960;-23.6400;-14.2300;-9.4100
1313.6950;-23.3900;-14.2600;-9.1300
1313.8940;-23.1400;-14.3100;-8.8300
1314.0930;-22.9300;-14.3500;-8.5800
1314.2920;-22.7100;-14.3900;-8.3200
1314.4910;-22.5200;-14.4300;-8.0900
1314.6900;-22.3200;-14.4700;-7.8500
1314.8890;-22.1400;-14.5200;-7.6200
1315.0890;-21.9700;-14.5500;-7.4200
1315.2880;-21.8100;-14.6100;-7.2000
1315.4870;-21.6800;-14.6500;-7.0300
1315.6860;-21.5300;-14.7100;-6.8200
1315.8850;-21.3900;-14.7500;-6.6400
1316.0840;-21.2700;-14.8000;-6.4700
1316.2830;-21.1600;-14.8500;-6.3100
1316.4820;-21.0700;-14.9100;-6.1600
1316.6810;-20.9700;-14.9700;-6.0000
1316.8810;-20.8800;-15.0200;-5.8600
1317.0800;-20.8100;-15.0800;-5.7300
1317.2790;-20.7400;-15.1500;-5.5900
1317.4780;-20.6900;-15.2000;-5.4900
1317.6770;-20.6200;-15.2700;-5.3500
1317.8760;-20.5800;-15.3200;-5.2600
1318.0750;-20.5300;-15.3800;-5.1500
1318.2740;-20.4900;-15.4400;-5.0500
1318.4740;-20.4700;-15.5000;-4.9700
1318.6730;-20.4500;-15.5900;-4.8600
1318.8720;-20.4400;-15.6500;-4.7900
1319.0710;-20.4300;-15.7400;-4.6900
1319.2700;-20.4300;-15.7900;-4.6400
1319.4690;-20.4300;-15.8600;-4.5700
1319.6680;-20.4400;-15.9500;-4.4900
1319.8670;-20.4700;-16.0100;-4.4600
1320.0660;-20.4800;-16.1000;-4.3800
1320.2660;-20.5100;-16.1700;-4.3400
1320.4650;-20.5400;-16.2500;-4.2900
1320.6640;-20.5800;-16.3300;-4.2500
1320.8630;-20.6300;-16.4000;-4.2300
1321.0620;-20.6600;-16.4900;-4.1700
1321.2610;-20.7300;-16.5600;-4.1700
1321.4600;-20.7800;-16.6600;-4.1200
1321.6590;-20.8500;-16.7300;-4.1200
1321.8580;-20.9200;-16.8200;-4.1000
1322.0580;-20.9900;-16.9100;-4.0800
1322.2570;-21.0800;-16.9900;-4.0900
1322.4560;-21.1600;-17.0900;-4.0700
1322.6550;-21.2500;-17.1700;-4.0800
1322.8540;-21.3500;-17.2700;-4.0800
1323.0530;-21.4500;-17.3600;-4.0900
1323.2520;-21.5700;-17.4500;-4.1200
1323.4510;-21.6700;-17.5600;-4.1100
1323.6500;-21.7900;-17.6400;-4.1500
1323.8500;-21.9100;-17.7500;-4.1600
1324.0490;-22.0300;-17.8400;-4.1900
1324.2480;-22.1700;-17.9500;-4.2200
1324.4470;-22.2900;-18.0500;-4.2400
1324.6460;-22.4400;-18.1400;-4.3000
1324.8450;-22.5700;-18.2600;-4.3100
1325.0440;-22.7200;-18.3600;-4.3600
1325.2430;-22.8800;-18.5000;-4.3800
1325.4430;-23.0300;-18.5800;-4.4500
1325.6420;-23.2200;-18.7000;-4.5200
1325.8410;-23.3600;-18.8200;-4.5400
1326.0400;-23.5400;-18.9200;-4.6200
1326.2390;-23.7100;-19.0500;-4.6600
1326.4380;-23.8800;-19.1500;-4.7300
1326.6370;-24.0700;-19.2700;-4.8000
1326.8360;-24.2500;-19.3900;-4.8600
1327.0350;-24.4400;-19.5100;-4.9300
1327.2350;-24.6200;-19.6400;-4.9800
1327.4340;-24.8100;-19.7500;-5.0600
1327.6330;-25.0100;-19.8700;-5.1400
1327.8320;-25.2000;-19.9900;-5.2100
1328.0310;-25.4100;-20.1100;-5.3000
1328.2300;-25.6100;-20.2500;-5.3600
1328.4290;-25.8100;-20.3700;-5.4400
1328.6280;-26.0200;-20.5100;-5.5100
1328.8270;-26.2200;-20.6300;-5.5900
1329.0270;-26.4400;-20.7600;-5.6800
1329.2260;-26.6400;-20.9000;-5.7400
1329.4250;-26.8500;-21.0200;-5.8300
1329.6240;-27.0500;-21.1700;-5.8800
1329.8230;-27.2500;-21.2900;-5.9600
1330.0220;-27.4700;-21.4300;-6.0400
1330.2210;-27.6700;-21.5600;-6.1100
1330.4200;-27.8900;-21.6900;-6.2000
1330.6200;-28.0800;-21.8400;-6.2400
1330.8190;-28.2800;-21.9700;-6.3100
1331.0180;-28.5300;-22.1100;-6.4200
1331.2170;-28.7000;-22.2600;-6.4400
1331.4160;-28.9100;-22.3900;-6.5200
1331.6150;-29.0900;-22.5500;-6.5400
1331.8140;-29.3000;-22.6800;-6.6200
1332.0130;-29.4700;-22.8400;-6.6300
1332.2120;-29.6600;-22.9700;-6.6900
1332.4120;-29.8400;-23.1200;-6.7200
1332.6110;-30.0200;-23.2800;-6.7400
1332.8100;-30.2000;-23.4200;-6.7800
1333.0090;-30.3600;-23.5800;-6.7800
1333.2080;-30.5200;-23.7200;-6.8000
1333.4070;-30.6600;-23.8800;-6.7800
1333.6060;-30.8100;-24.0200;-6.7900
1333.8050;-30.9600;-24.1800;-6.7800
1334.0040;-31.0900;-24.3300;-6.7600
1334.2040;-31.2300;-24.4800;-6.7500
1334.4030;-31.3400;-24.6500;-6.6900
1334.6020;-31.4700;-24.7900;-6.6800
1334.8010;-31.5800;-24.9500;-6.6300
1335.0000;-31.6800;-25.1100;-6.5700
1335.1990;-31.8000;-25.2600;-6.5400
1335.3980;-31.8800;-25.4300;-6.4500
1335.5970;-31.9900;-25.5700;-6.4200
1335.7970;-32.0800;-25.7400;-6.3400
1335.9960;-32.1700;-25.9000;-6.2700
1336.1950;-32.2600;-26.0600;-6.2000
1336.3940;-32.3400;-26.2200;-6.1200
1336.5930;-32.4300;-26.3700;-6.0600
1336.7920;-32.4900;-26.5400;-5.9500
1336.9910;-32.5700;-26.6900;-5.8800
1337.1900;-32.6400;-26.8600;-5.7800
1337.3890;-32.7200;-27.0200;-5.7000
1337.5890;-32.8000;-27.1800;-5.6200
1337.7880;-32.8700;-27.3500;-5.5200
1337.9870;-32.9500;-27.5100;-5.4400
1338.1860;-33.0100;-27.6800;-5.3300
1338.3850;-33.0900;-27.8300;-5.2600
1338.5840;-33.1700;-28.0000;-5.1700
1338.7830;-33.2400;-28.1600;-5.0800
1338.9820;-33.3200;-28.3200;-5.0000
1339.1810;-33.4000;-28.5300;-4.8700
1339.3810;-33.4800;-28.6700;-4.8100
1339.5800;-33.5600;-28.8400;-4.7200
1339.7790;-33.6400;-29.0000;-4.6400
1339.9780;-33.7500;-29.1800;-4.5700
1340.1770;-33.8300;-29.3500;-4.4800
1340.3760;-33.9400;-29.5200;-4.4200
1340.5750;-34.0300;-29.7100;-4.3200
1340.7740;-34.1300;-29.8700;-4.2600
1340.9740;-34.2300;-30.0400;-4.1900
1341.1730;-34.3200;-30.2000;-4.1200
1341.3720;-34.4300;-30.3700;-4.0600
1341.5710;-34.5400;-30.5400;-4.0000
1341.7700;-34.6600;-30.7100;-3.9500
1341.9690;-34.7700;-30.8900;-3.8800
1342.1680;-34.8800;-31.0500;-3.8300
1342.3670;-35.0100;-31.2300;-3.7800
1342.5660;-35.1300;-31.3900;-3.7400
1342.7660;-35.2600;-31.5600;-3.7000
1342.9650;-35.3800;-31.7400;-3.6400
1343.1640;-35.5200;-31.9100;-3.6100
1343.3630;-35.6600;-32.0900;-3.5700
1343.5620;-35.7900;-32.2500;-3.5400
1343.7610;-35.9400;-32.4200;-3.5200
1343.9600;-36.0900;-32.6000;-3.4900
1344.1590;-36.2400;-32.7800;-3.4600
1344.3580;-36.4000;-32.9600;-3.4400
1344.5580;-36.5500;-33.1300;-3.4200
1344.7570;-36.7200;-33.3000;-3.4200
1344.9560;-36.8700;-33.4700;-3.4000
1345.1550;-37.0300;-33.6300;-3.4000
1345.3540;-37.1800;-33.8000;-3.3800
1345.5530;-37.3500;-33.9600;-3.3900
1345.7520;-37.5300;-34.1400;-3.3900
1345.9510;-37.7000;-34.3000;-3.4000
1346.1500;-37.8900;-34.4600;-3.4300
1346.3500;-38.0600;-34.6500;-3.4100
1346.5490;-38.2600;-34.8200;-3.4400
1346.7480;-38.4900;-35.0000;-3.4900
1346.9470;-38.6400;-35.1500;-3.4900
1347.1460;-38.8300;-35.3100;-3.5200
1347.3450;-39.0000;-35.4700;-3.5300
1347.5440;-39.2600;-35.6700;-3.5900
1347.7430;-39.5000;-35.9000;-3.6000
1347.9430;-39.7400;-36.0800;-3.6600
1348.1420;-39.9400;-36.2400;-3.7000
1348.3410;-40.1600;-36.4200;-3.7400
1348.5400;-40.3500;-36.5500;-3.8000
1348.7390;-40.5400;-36.7100;-3.8300
1348.9380;-40.7500;-36.8400;-3.9100
1349.1370;-40.9500;-37.0000;-3.9500
1349.3360;-41.1500;-37.1300;-4.0200
1349.5350;-41.3700;-37.2700;-4.1000
1349.7350;-41.5800;-37.4200;-4.1600
1349.9340;-41.8200;-37.5800;-4.2400
1350.1330;-42.0700;-37.7700;-4.3000
1350.3320;-42.3700;-37.9900;-4.3800
1350.5310;-42.6400;-38.1800;-4.4600
1350.7300;-42.8900;-38.3400;-4.5500
1350.9290;-43.1200;-38.4800;-4.6400
1351.1280;-43.3100;-38.5800;-4.7300
1351.3270;-43.5500;-38.7100;-4.8400
1351.5270;-43.8000;-38.8800;-4.9200
1351.7260;-44.1100;-39.0900;-5.0200
1351.9250;-44.3900;-39.2700;-5.1200
1352.1240;-44.6500;-39.4100;-5.2400
1352.3230;-44.9200;-39.5700;-5.3500
1352.5220;-45.2100;-39.7600;-5.4500
1352.7210;-45.4600;-39.8800;-5.5800
1352.9200;-45.7200;-40.0400;-5.6800
1353.1200;-46.0700;-40.2600;-5.8100
1353.3190;-46.2900;-40.3500;-5.9400
1353.5180;-46.5500;-40.5000;-6.0500
1353.7170;-46.8500;-40.6500;-6.2000
1353.9160;-47.0400;-40.7400;-6.3000
1354.1150;-47.3000;-40.8700;-6.4300
1354.3140;-47.6300;-41.0800;-6.5500
1354.5130;-47.9100;-41.2400;-6.6700
1354.7120;-48.3400;-41.5400;-6.8000
1354.9120;-48.8300;-41.8000;-7.0300
1355.1110;-49.0100;-41.9500;-7.0600
1355.3100;-49.2400;-42.0600;-7.1800
1355.5090;-49.3300;-42.0300;-7.3000
1355.7080;-49.6700;-42.2800;-7.3900
1355.9070;-50.0200;-42.5200;-7.5000
1356.1060;-50.2800;-42.6600;-7.6200
1356.3050;-50.4400;-42.7200;-7.7200
1356.5040;-50.6300;-42.7900;-7.8400
1356.7040;-50.5900;-42.7000;-7.8900
1356.9030;-50.7900;-42.8200;-7.9700
1357.1020;-51.2000;-43.1700;-8.0300
1357.3010;-51.4600;-43.3700;-8.0900
1357.5000;-51.6800;-43.5200;-8.1600
1357.6990;-51.8700;-43.6800;-8.1900
1357.8980;-51.9300;-43.7000;-8.2300
1358.0970;-51.9700;-43.7400;-8.2300
1358.2970;-52.1200;-43.8900;-8.2300
1358.4960;-52.3400;-44.0900;-8.2500
1358.6950;-52.4200;-44.2100;-8.2100
1358.8940;-52.5200;-44.3300;-8.1900
1359.0930;-52.6000;-44.4600;-8.1400
1359.2920;-52.5600;-44.4700;-8.0900
1359.4910;-52.8500;-44.8200;-8.0300
1359.6900;-53.0500;-45.0900;-7.9600
1359.8890;-53.1300;-45.2600;-7.8700
1360.0890;-53.0700;-45.2900;-7.7800
1360.2880;-52.9800;-45.2800;-7.7000
1360.4870;-52.8300;-45.2600;-7.5700
1360.6860;-52.8500;-45.3900;-7.4600
1360.8850;-53.0700;-45.7100;-7.3600
1361.0840;-53.2000;-45.9800;-7.2200
1361.2830;-53.2200;-46.1200;-7.1000
1361.4820;-53.2100;-46.2600;-6.9500
1361.6810;-53.2900;-46.4400;-6.8500
1361.8810;-53.2500;-46.5600;-6.6900
1362.0800;-53.3000;-46.7500;-6.5500
1362.2790;-53.5900;-47.1500;-6.4400
1362.4780;-53.6600;-47.3600;-6.3000
1362.6770;-53.6200;-47.4700;-6.1500
1362.8760;-53.3200;-47.3400;-5.9800
1363.0750;-53.1000;-47.2400;-5.8600
1363.2740;-52.7200;-46.9900;-5.7300
1363.4740;-52.6500;-47.0400;-5.6100
1363.6730;-52.6000;-47.1100;-5.4900
1363.8720;-52.5900;-47.2400;-5.3500
1364.0710;-52.6700;-47.4300;-5.2400
1364.2700;-52.7200;-47.6100;-5.1100
1364.4690;-52.8900;-47.9000;-4.9900
1364.6680;-53.2800;-48.3900;-4.8900
1364.8670;-53.3600;-48.6100;-4.7500
1365.0660;-53.2000;-48.5600;-4.6400
1365.2660;-53.2400;-48.6900;-4.5500
1365.4650;-53.0800;-48.6100;-4.4700
1365.6640;-53.0200;-48.6700;-4.3500
1365.8630;-52.9500;-48.6900;-4.2600
1366.0620;-52.8500;-48.6700;-4.1800
1366.2610;-52.7400;-48.6400;-4.1000
1366.4600;-52.7200;-48.6900;-4.0300
1366.6590;-52.7700;-48.8400;-3.9300
1366.8580;-52.9300;-49.0600;-3.8700
1367.0580;-52.9700;-49.1800;-3.7900
1367.2570;-53.0000;-49.2700;-3.7300
1367.4560;-53.2000;-49.5200;-3.6800
1367.6550;-53.3000;-49.6800;-3.6200
1367.8540;-53.5200;-49.9300;-3.5900
1368.0530;-53.5600;-50.0400;-3.5200
1368.2520;-53.4700;-49.9900;-3.4800
1368.4510;-53.7600;-50.3200;-3.4400
1368.6500;-53.7900;-50.3800;-3.4100
1368.8500;-53.8500;-50.4700;-3.3800
1369.0490;-53.7700;-50.4200;-3.3500
1369.2480;-53.7000;-50.3600;-3.3400
1369.4470;-53.5800;-50.2800;-3.3000
1369.6460;-53.6500;-50.3600;-3.2900
1369.8450;-53.9500;-50.6900;-3.2600
1370.0440;-54.1100;-50.8500;-3.2600
1370.2430;-54.2300;-50.9600;-3.2700
1370.4430;-54.2600;-50.9800;-3.2800
1370.6420;-54.2600;-50.9700;-3.2900
1370.8410;-54.5600;-51.2900;-3.2700
1371.0400;-54.8100;-51.5300;-3.2800
1371.2390;-54.9900;-51.7000;-3.2900
1371.4380;-55.0100;-51.6700;-3.3400
1371.6370;-54.9800;-51.6200;-3.3600
1371.8360;-54.9400;-51.5700;-3.3700
1372.0350;-55.1400;-51.7400;-3.4000
1372.2350;-55.3600;-51.9400;-3.4200
1372.4340;-55.4600;-52.0000;-3.4600
1372.6330;-55.5900;-52.0600;-3.5300
1372.8320;-55.6200;-52.0600;-3.5600
1373.0310;-55.7100;-52.0700;-3.6400
1373.2300;-55.8500;-52.1800;-3.6700
1373.4290;-56.0500;-52.3100;-3.7400
1373.6280;-56.2000;-52.3900;-3.8100
1373.8270;-56.3100;-52.4500;-3.8600
1374.0270;-56.5000;-52.5400;-3.9600
1374.2260;-56.6300;-52.6100;-4.0200
1374.4250;-56.8500;-52.7300;-4.1200
1374.6240;-57.0200;-52.8400;-4.1800
1374.8230;-57.2800;-53.0000;-4.2800
1375.0220;-57.5300;-53.1600;-4.3700
1375.2210;-57.6800;-53.2100;-4.4700
1375.4200;-57.8500;-53.2500;-4.6000
1375.6200;-58.0000;-53.3000;-4.7000
1375.8190;-58.2100;-53.3900;-4.8200
1376.0180;-58.5200;-53.5200;-5.0000
1376.2170;-58.7100;-53.6200;-5.0900
1376.4160;-58.9100;-53.7100;-5.2000
1376.6150;-59.1300;-53.7700;-5.3600
1376.8140;-59.4100;-53.9100;-5.5000
1377.0130;-59.7600;-54.1300;-5.6300
1377.2120;-60.0800;-54.2700;-5.8100
1377.4120;-60.3000;-54.3300;-5.9700
1377.6110;-60.5200;-54.3600;-6.1600
1377.8100;-60.6000;-54.3000;-6.3000
1378.0090;-60.8100;-54.3400;-6.4700
1378.2080;-61.0900;-54.4200;-6.6700
1378.4070;-61.4200;-54.5700;-6.8500
1378.6060;-61.8500;-54.8000;-7.0500
1378.8050;-62.2900;-55.0800;-7.2100
1379.0040;-62.6500;-55.1800;-7.4700
1379.2040;-62.8900;-55.2200;-7.6700
1379.4030;-63.0300;-55.1600;-7.8700
1379.6020;-63.1900;-55.1100;-8.0800
1379.8010;-63.4100;-55.1400;-8.2700
1380.0000;-63.7800;-55.2600;-8.5200
1380.1990;-64.1200;-55.4100;-8.7100
1380.3980;-64.5600;-55.5900;-8.9700
1380.5970;-65.3000;-56.1300;-9.1700
1380.7970;-65.9100;-56.5600;-9.3500
1380.9960;-66.3100;-56.7000;-9.6100
1381.1950;-66.5900;-56.6700;-9.9200
1381.3940;-66.4700;-56.3700;-10.1000
1381.5930;-66.3600;-56.1000;-10.2600
1381.7920;-66.5300;-56.1200;-10.4100
1381.9910;-66.7500;-56.1400;-10.6100
1382.1900;-66.9800;-56.2400;-10.7400
1382.3890;-67.4900;-56.5300;-10.9600
1382.5890;-68.0600;-57.0600;-11.0000
1382.7880;-68.6900;-57.5100;-11.1800
1382.9870;-68.8500;-57.7200;-11.1300
1383.1860;-68.5700;-57.4500;-11.1200
1383.3850;-68.2600;-57.1600;-11.1000
1383.5840;-68.0100;-56.9600;-11.0500
1383.7830;-68.0000;-57.0600;-10.9400
1383.9820;-68.1700;-57.1800;-10.9900
1384.1810;-68.0200;-57.2000;-10.8200
1384.3810;-67.8800;-57.1900;-10.6900
1384.5800;-67.6800;-57.1400;-10.5400
1384.7790;-67.6000;-57.2100;-10.3900
1384.9780;-67.7000;-57.5000;-10.2000
1385.1770;-67.6500;-57.6900;-9.9600
1385.3760;-67.5200;-57.7900;-9.7300
1385.5750;-67.2200;-57.7100;-9.5100
1385.7740;-67.0300;-57.7400;-9.2900
1385.9740;-66.8200;-57.7100;-9.1100
1386.1730;-66.6400;-57.7300;-8.9100
1386.3720;-66.5000;-57.8700;-8.6300
1386.5710;-66.3700;-57.8800;-8.4900
1386.7700;-66.1100;-57.8900;-8.2200
1386.9690;-65.9500;-57.9200;-8.0300
1387.1680;-65.6700;-57.9300;-7.7400
1387.3670;-65.5300;-57.9700;-7.5600
1387.5660;-65.4000;-58.0300;-7.3700
1387.7660;-65.4700;-58.3200;-7.1500
1387.9650;-65.5600;-58.6100;-6.9500
1388.1640;-65.5900;-58.8200;-6.7700
1388.3630;-65.5100;-58.9300;-6.5800
1388.5620;-65.2000;-58.8600;-6.3400
1388.7610;-64.8600;-58.7100;-6.1500
1388.9600;-64.6500;-58.6600;-5.9900
1389.1590;-64.4300;-58.6000;-5.8300
1389.3580;-64.2700;-58.6300;-5.6400
1389.5580;-64.1500;-58.6900;-5.4600
1389.7570;-64.0900;-58.7700;-5.3200
1389.9560;-64.1200;-58.9200;-5.2000
1390.1550;-64.0200;-58.9700;-5.0500
1390.3540;-63.9400;-59.0100;-4.9300
1390.5530;-63.8200;-59.0400;-4.7800
1390.7520;-63.6900;-59.0500;-4.6400
1390.9510;-63.6600;-59.1100;-4.5500
1391.1500;-63.5800;-59.1700;-4.4100
1391.3500;-63.5300;-59.2200;-4.3100
1391.5490;-63.5000;-59.3000;-4.2000
1391.7480;-63.4600;-59.3600;-4.1000
1391.9470;-63.3900;-59.4400;-3.9500
1392.1460;-63.4900;-59.6100;-3.8800
1392.3450;-63.6200;-59.8200;-3.8000
1392.5440;-63.9300;-60.2300;-3.7000
1392.7430;-64.0100;-60.3800;-3.6300
1392.9430;-63.8300;-60.3000;-3.5300
1393.1420;-63.6400;-60.1400;-3.5000
1393.3410;-63.3300;-59.9200;-3.4100
1393.5400;-63.2200;-59.8900;-3.3300
1393.7390;-63.2100;-59.9500;-3.2600
1393.9380;-63.2400;-59.9800;-3.2600
1394.1370;-63.2400;-60.0800;-3.1600
1394.3360;-63.2300;-60.1300;-3.1000
1394.5350;-63.2900;-60.2100;-3.0800
1394.7350;-63.3300;-60.3200;-3.0100
1394.9340;-63.6300;-60.5900;-3.0400
1395.1330;-63.8300;-60.8200;-3.0100
1395.3320;-63.8600;-60.9100;-2.9500
1395.5310;-63.9600;-61.0300;-2.9300
1395.7300;-63.9000;-61.0200;-2.8800
1395.9290;-63.8100;-60.9400;-2.8700
1396.1280;-63.8100;-60.9300;-2.8800
1396.3270;-63.9600;-61.0800;-2.8800
1396.5270;-64.2100;-61.3300;-2.8800
1396.7260;-64.3000;-61.4800;-2.8200
1396.9250;-64.3200;-61.4200;-2.9000
1397.1240;-64.1500;-61.2700;-2.8800
1397.3230;-64.0400;-61.1900;-2.8500
1397.5220;-64.0500;-61.1500;-2.9000
1397.7210;-64.0800;-61.1700;-2.9100
1397.9200;-64.1600;-61.2200;-2.9400
1398.1200;-64.2300;-61.2600;-2.9700
1398.3190;-64.3200;-61.3300;-2.9900
1398.5180;-64.4200;-61.4100;-3.0100
1398.7170;-64.5600;-61.4700;-3.0900
1398.9160;-64.6300;-61.5200;-3.1100
1399.1150;-64.7500;-61.5800;-3.1700
1399.3140;-64.8700;-61.6800;-3.1900
1399.5130;-65.2500;-61.9700;-3.2800
1399.7120;-65.4400;-62.0800;-3.3600
1399.9120;-65.5500;-62.1600;-3.3900
1400.1110;-65.7700;-62.3100;-3.4600
1400.3100;-65.7800;-62.2800;-3.5000
1400.5090;-65.9800;-62.3300;-3.6500
1400.7080;-66.4600;-62.7300;-3.7300
1400.9070;-66.5800;-62.8000;-3.7800
1401.1060;-66.6600;-62.7600;-3.9000
1401.3050;-66.7300;-62.7600;-3.9700
1401.5040;-66.7600;-62.6400;-4.1200
1401.7040;-66.8900;-62.6600;-4.2300
1401.9030;-67.0400;-62.7100;-4.3300
1402.1020;-67.1100;-62.6800;-4.4300
1402.3010;-67.2300;-62.6500;-4.5800
1402.5000;-67.3500;-62.6600;-4.6900
1402.6990;-67.5800;-62.6900;-4.8900
1402.8980;-67.7000;-62.8200;-4.8800
1403.0970;-67.8800;-62.9200;-4.9600
1403.2970;-68.1000;-62.9800;-5.1200
1403.4960;-68.3800;-63.0300;-5.3500
1403.6950;-68.6400;-63.0800;-5.5600
1403.8940;-68.8700;-63.1800;-5.6900
1404.0930;-68.9700;-63.3000;-5.6700
1404.2920;-69.2400;-63.4300;-5.8100
1404.4910;-69.5700;-63.5100;-6.0600
1404.6900;-69.9100;-63.6100;-6.3000
1404.8890;-70.3600;-64.0700;-6.2900
1405.0890;-70.6100;-64.2300;-6.3800
1405.2880;-70.8900;-64.2500;-6.6400
1405.4870;-71.1200;-64.2300;-6.8900
1405.6860;-71.1900;-63.9400;-7.2500
1405.8850;-71.1700;-63.8800;-7.2900
1406.0840;-71.1600;-63.9400;-7.2200
1406.2830;-71.2300;-63.9700;-7.2600
1406.4820;-71.5700;-64.0200;-7.5500
1406.6810;-72.1400;-64.1900;-7.9500
1406.8810;-72.3500;-64.3500;-8.0000
1407.0800;-72.9100;-64.4900;-8.4200
1407.2790;-72.9000;-64.7300;-8.1700
1407.4780;-73.2700;-64.7900;-8.4800
1407.6770;-73.3500;-64.7800;-8.5700
1407.8760;-73.4700;-64.8000;-8.6700
1408.0750;-73.3200;-64.7600;-8.5600
1408.2740;-73.5000;-64.6700;-8.8300
1408.4740;-73.8000;-64.7400;-9.0600
1408.6730;-73.6000;-64.7900;-8.8100
1408.8720;-73.6300;-64.9000;-8.7300
1409.0710;-74.1500;-65.0400;-9.1100
1409.2700;-74.6300;-65.2600;-9.3700
1409.4690;-74.6700;-65.5900;-9.0800
1409.6680;-74.7000;-65.6500;-9.0500
1409.8670;-74.5700;-65.7100;-8.8600
1410.0660;-74.6600;-65.6000;-9.0600
1410.2660;-74.6800;-65.4500;-9.2300
1410.4650;-74.4200;-65.5300;-8.8900
1410.6640;-74.6100;-65.5700;-9.0400
1410.8630;-74.8000;-65.6500;-9.1500
1411.0620;-74.4500;-65.6400;-8.8100
1411.2610;-74.2500;-65.7700;-8.4800
1411.4600;-74.5900;-65.9300;-8.6600
1411.6590;-74.1500;-65.9500;-8.2000
1411.8580;-74.1400;-66.0700;-8.0700
1412.0580;-74.5500;-66.1100;-8.4400
1412.2570;-74.4600;-66.2200;-8.2400
1412.4560;-73.9700;-66.3500;-7.6200
1412.6550;-73.9100;-66.3800;-7.5300
1412.8540;-74.3900;-66.4500;-7.9400
1413.0530;-74.1900;-66.4900;-7.7000
1413.2520;-74.0000;-66.5200;-7.4800
1413.4510;-73.9700;-66.6400;-7.3300
1413.6500;-74.3500;-66.7600;-7.5900
1413.8500;-74.0900;-66.8200;-7.2700
1414.0490;-73.8800;-67.0900;-6.7900
1414.2480;-74.2000;-67.2000;-7.0000
1414.4470;-74.3800;-67.2300;-7.1500
1414.6460;-74.0900;-67.3600;-6.7300
1414.8450;-74.2400;-67.5100;-6.7300
1415.0440;-73.7900;-67.4100;-6.3800
1415.2430;-73.7800;-67.4900;-6.2900
1415.4430;-73.3400;-67.5300;-5.8100
1415.6420;-73.8600;-67.5200;-6.3400
1415.8410;-73.8500;-67.6500;-6.2000
1416.0400;-73.4900;-67.6900;-5.8000
1416.2390;-73.5700;-67.7300;-5.8400
1416.4380;-73.3300;-67.8100;-5.5200
1416.6370;-73.2000;-67.8200;-5.3800
1416.8360;-73.5400;-68.0000;-5.5400
1417.0350;-73.6100;-68.0200;-5.5900
1417.2350;-73.3400;-68.1700;-5.1700
1417.4340;-73.7200;-68.2800;-5.4400
1417.6330;-73.5500;-68.4700;-5.0800
1417.8320;-73.6300;-68.5400;-5.0900
1418.0310;-73.5900;-68.6700;-4.9200
1418.2300;-73.5100;-68.6700;-4.8400
1418.4290;-73.7400;-68.6000;-5.1400
1418.6280;-73.5700;-68.7000;-4.8700
1418.8270;-73.6700;-68.7800;-4.8900
1419.0270;-73.6400;-69.0600;-4.5800
1419.2260;-74.3100;-69.1200;-5.1900
1419.4250;-74.3800;-69.2900;-5.0900
1419.6240;-73.7900;-69.2900;-4.5000
1419.8230;-74.2900;-69.4200;-4.8700
1420.0220;-73.9800;-69.4600;-4.5200
1420.2210;-73.7700;-69.4500;-4.3200
1420.4200;-74.1600;-69.4600;-4.7000
1420.6200;-74.7600;-69.4900;-5.2700
1420.8190;-74.4400;-69.8400;-4.6000
1421.0180;-74.5500;-69.7700;-4.7800
1421.2170;-74.6400;-69.9900;-4.6500
1421.4160;-74.7900;-69.9100;-4.8800
1421.6150;-74.6700;-70.1300;-4.5400
1421.8140;-74.5900;-70.1100;-4.4800
1422.0130;-75.0900;-70.0200;-5.0700
1422.2120;-74.6200;-70.2400;-4.3800
1422.4120;-75.2700;-70.1800;-5.0900
1422.6110;-75.2200;-70.4900;-4.7300
1422.8100;-75.6100;-70.6000;-5.0100
1423.0090;-75.1300;-70.5900;-4.5400
1423.2080;-75.2900;-70.4200;-4.8700
1423.4070;-76.1100;-70.6400;-5.4700
1423.6060;-76.4100;-70.7900;-5.6200
1423.8050;-76.3100;-70.8600;-5.4500
1424.0040;-76.5100;-70.7900;-5.7200
1424.2040;-76.7400;-71.0800;-5.6600
1424.4030;-76.5300;-71.1400;-5.3900
1424.6020;-76.8300;-71.1100;-5.7200
1424.8010;-76.3100;-71.0700;-5.2400
1425.0000;-76.5300;-71.2100;-5.3200
