Wavelength;Intensity_Meas;Intensity_Ref;Difference_dB
1200.0000;-59.5700;-54.7600;-4.8100
1200.1990;-59.4900;-54.7300;-4.7600
1200.3980;-59.4600;-54.7000;-4.7600
1200.5970;-59.4900;-54.6700;-4.8200
1200.7970;-59.5100;-54.6400;-4.8700
1200.9960;-59.4300;-54.6100;-4.8200
1201.1950;-59.3900;-54.5600;-4.8300
1201.3940;-59.3800;-54.5300;-4.8500
1201.5930;-59.3600;-54.4900;-4.8700
1201.7920;-59.3400;-54.4200;-4.9200
1201.9910;-59.2600;-54.3800;-4.8800
1202.1900;-59.2100;-54.3300;-4.8800
1202.3890;-59.1600;-54.2800;-4.8800
1202.5890;-59.1300;-54.2200;-4.9100
1202.7880;-59.0900;-54.1600;-4.9300
1202.9870;-58.9900;-54.1200;-4.8700
1203.1860;-58.9300;-54.0600;-4.8700
1203.3850;-58.9200;-54.0100;-4.9100
1203.5840;-58.8700;-53.9700;-4.9000
1203.7830;-58.7900;-53.9100;-4.8800
1203.9820;-58.7400;-53.9000;-4.8400
1204.1810;-58.7300;-53.8400;-4.8900
1204.3810;-58.6700;-53.8000;-4.8700
1204.5800;-58.6100;-53.7700;-4.8400
1204.7790;-58.5800;-53.7300;-4.8500
1204.9780;-58.5600;-53.7100;-4.8500
1205.1770;-58.5400;-53.6600;-4.8800
1205.3760;-58.4700;-53.6500;-4.8200
1205.5750;-58.4500;-53.6300;-4.8200
1205.7740;-58.4600;-53.6000;-4.8600
1205.9740;-58.4500;-53.5900;-4.8600
1206.1730;-58.4000;-53.5600;-4.8400
1206.3720;-58.3800;-53.5400;-4.8400
1206.5710;-58.4000;-53.5200;-4.8800
1206.7700;-58.3900;-53.4900;-4.9000
1206.9690;-58.3600;-53.4600;-4.9000
1207.1680;-58.3300;-53.4200;-4.9100
1207.3670;-58.3300;-53.4000;-4.9300
1207.5660;-58.3300;-53.3700;-4.9600
1207.7660;-58.2900;-53.3200;-4.9700
1207.9650;-58.2700;-53.3000;-4.9700
1208.1640;-58.2300;-53.2500;-4.9800
1208.3630;-58.2400;-53.1900;-5.0500
1208.5620;-58.2000;-53.1500;-5.0500
1208.7610;-58.1300;-53.1100;-5.0200
1208.9600;-58.0900;-53.0500;-5.0400
1209.1590;-58.0900;-52.9800;-5.1100
1209.3580;-58.0500;-52.9300;-5.1200
1209.5580;-57.9700;-52.8900;-5.0800
1209.7570;-57.9100;-52.8200;-5.0900
1209.9560;-57.9000;-52.7700;-5.1300
1210.1550;-57.8500;-52.7100;-5.1400
1210.3540;-57.7800;-52.6500;-5.1300
1210.5530;-57.7500;-52.6200;-5.1300
1210.7520;-57.7100;-52.5600;-5.1500
1210.9510;-57.6700;-52.5200;-5.1500
1211.1500;-57.6100;-52.4600;-5.1500
1211.3500;-57.5800;-52.4100;-5.1700
1211.5490;-57.5400;-52.3900;-5.1500
1211.7480;-57.5200;-52.3300;-5.1900
1211.9470;-57.4900;-52.3000;-5.1900
1212.1460;-57.4300;-52.2600;-5.1700
1212.3450;-57.4200;-52.2200;-5.2000
1212.5440;-57.4200;-52.2100;-5.2100
1212.7430;-57.3800;-52.1700;-5.2100
1212.9430;-57.3300;-52.1400;-5.1900
1213.1420;-57.3000;-52.1000;-5.2000
1213.3410;-57.3000;-52.0700;-5.2300
1213.5400;-57.2500;-52.0500;-5.2000
1213.7390;-57.2100;-52.0000;-5.2100
1213.9380;-57.2100;-51.9800;-5.2300
1214.1370;-57.1500;-51.9300;-5.2200
1214.3360;-57.1100;-51.8800;-5.2300
1214.5350;-57.0700;-51.8600;-5.2100
1214.7350;-57.0300;-51.8100;-5.2200
1214.9340;-56.9900;-51.7600;-5.2300
1215.1330;-56.9200;-51.7000;-5.2200
1215.3320;-56.8700;-51.6400;-5.2300
1215.5310;-56.8100;-51.6100;-5.2000
1215.7300;-56.7500;-51.5400;-5.2100
1215.9290;-56.6900;-51.4900;-5.2000
1216.1280;-56.6000;-51.4200;-5.1800
1216.3270;-56.5300;-51.3600;-5.1700
1216.5270;-56.4700;-51.3100;-5.1600
1216.7260;-56.4000;-51.2400;-5.1600
1216.9250;-56.3000;-51.1800;-5.1200
1217.1240;-56.2200;-51.1100;-5.1100
1217.3230;-56.1800;-51.0500;-5.1300
1217.5220;-56.0900;-51.0100;-5.0800
1217.7210;-56.0000;-50.9400;-5.0600
1217.9200;-55.9300;-50.9000;-5.0300
1218.1200;-55.8400;-50.8300;-5.0100
1218.3190;-55.7900;-50.7900;-5.0000
1218.5180;-55.7100;-50.7500;-4.9600
1218.7170;-55.6600;-50.7000;-4.9600
1218.9160;-55.5900;-50.6700;-4.9200
1219.1150;-55.5400;-50.6100;-4.9300
1219.3140;-55.4700;-50.5700;-4.9000
1219.5130;-55.4100;-50.5400;-4.8700
1219.7120;-55.3700;-50.5100;-4.8600
1219.9120;-55.3100;-50.4700;-4.8400
1220.1110;-55.2400;-50.4200;-4.8200
1220.3100;-55.1800;-50.3800;-4.8000
1220.5090;-55.1300;-50.3400;-4.7900
1220.7080;-55.0700;-50.2900;-4.7800
1220.9070;-54.9900;-50.2600;-4.7300
1221.1060;-54.9200;-50.2000;-4.7200
1221.3050;-54.8700;-50.1400;-4.7300
1221.5040;-54.7900;-50.0900;-4.7000
1221.7040;-54.7200;-50.0200;-4.7000
1221.9030;-54.6400;-49.9700;-4.6700
1222.1020;-54.5600;-49.8900;-4.6700
1222.3010;-54.4900;-49.8300;-4.6600
1222.5000;-54.3900;-49.7600;-4.6300
1222.6990;-54.3100;-49.6900;-4.6200
1222.8980;-54.2200;-49.6300;-4.5900
1223.0970;-54.1300;-49.5400;-4.5900
1223.2970;-54.0400;-49.4700;-4.5700
1223.4960;-53.9300;-49.3900;-4.5400
1223.6950;-53.8700;-49.3100;-4.5600
1223.8940;-53.7700;-49.2500;-4.5200
1224.0930;-53.6700;-49.1700;-4.5000
1224.2920;-53.6000;-49.1000;-4.5000
1224.4910;-53.5100;-49.0300;-4.4800
1224.6900;-53.4400;-48.9600;-4.4800
1224.8890;-53.3400;-48.9100;-4.4300
1225.0890;-53.2700;-48.8400;-4.4300
1225.2880;-53.2000;-48.7700;-4.4300
1225.4870;-53.1200;-48.7200;-4.4000
1225.6860;-53.0600;-48.6600;-4.4000
1225.8850;-52.9900;-48.6200;-4.3700
1226.0840;-52.9300;-48.5500;-4.3800
1226.2830;-52.9000;-48.5000;-4.4000
1226.4820;-52.8300;-48.4400;-4.3900
1226.6810;-52.7900;-48.3800;-4.4100
1226.8810;-52.7500;-48.3400;-4.4100
1227.0800;-52.7000;-48.2700;-4.4300
1227.2790;-52.6700;-48.2200;-4.4500
1227.4780;-52.6200;-48.1600;-4.4600
1227.6770;-52.5900;-48.1000;-4.4900
1227.8760;-52.5400;-48.0400;-4.5000
1228.0750;-52.4800;-47.9600;-4.5200
1228.2740;-52.4600;-47.8900;-4.5700
1228.4740;-52.4000;-47.8300;-4.5700
1228.6730;-52.3700;-47.7500;-4.6200
1228.8720;-52.3100;-47.6800;-4.6300
1229.0710;-52.2500;-47.5900;-4.6600
1229.2700;-52.2200;-47.5100;-4.7100
1229.4690;-52.1400;-47.4300;-4.7100
1229.6680;-52.0900;-47.3500;-4.7400
1229.8670;-52.0300;-47.2700;-4.7600
1230.0660;-51.9700;-47.1800;-4.7900
1230.2660;-51.9100;-47.0900;-4.8200
1230.4650;-51.8200;-47.0100;-4.8100
1230.6640;-51.7700;-46.9200;-4.8500
1230.8630;-51.7200;-46.8600;-4.8600
1231.0620;-51.6600;-46.7700;-4.8900
1231.2610;-51.6200;-46.7100;-4.9100
1231.4600;-51.5700;-46.6500;-4.9200
1231.6590;-51.5200;-46.5700;-4.9500
1231.8580;-51.4600;-46.5100;-4.9500
1232.0580;-51.4100;-46.4400;-4.9700
1232.2570;-51.3800;-46.3800;-5.0000
1232.4560;-51.3300;-46.3300;-5.0000
1232.6550;-51.2900;-46.2600;-5.0300
1232.8540;-51.2300;-46.2000;-5.0300
1233.0530;-51.2000;-46.1400;-5.0600
1233.2520;-51.1500;-46.0700;-5.0800
1233.4510;-51.0900;-46.0100;-5.0800
1233.6500;-51.0600;-45.9400;-5.1200
1233.8500;-51.0000;-45.8900;-5.1100
1234.0490;-50.9400;-45.8000;-5.1400
1234.2480;-50.8800;-45.7500;-5.1300
1234.4470;-50.8000;-45.6600;-5.1400
1234.6460;-50.7400;-45.6000;-5.1400
1234.8450;-50.6600;-45.5200;-5.1400
1235.0440;-50.5700;-45.4400;-5.1300
1235.2430;-50.5000;-45.3800;-5.1200
1235.4430;-50.4000;-45.2700;-5.1300
1235.6420;-50.3200;-45.2000;-5.1200
1235.8410;-50.2100;-45.1000;-5.1100
1236.0400;-50.1100;-45.0100;-5.1000
1236.2390;-50.0100;-44.9200;-5.0900
1236.4380;-49.8800;-44.8100;-5.0700
1236.6370;-49.8000;-44.7300;-5.0700
1236.8360;-49.6800;-44.6400;-5.0400
1237.0350;-49.5700;-44.5500;-5.0200
1237.2350;-49.4600;-44.4700;-4.9900
1237.4340;-49.3500;-44.3600;-4.9900
1237.6330;-49.2600;-44.2900;-4.9700
1237.8320;-49.1500;-44.2100;-4.9400
1238.0310;-49.0500;-44.1100;-4.9400
1238.2300;-48.9500;-44.0500;-4.9000
1238.4290;-48.8400;-43.9500;-4.8900
1238.6280;-48.7600;-43.8800;-4.8800
1238.8270;-48.6400;-43.7900;-4.8500
1239.0270;-48.5500;-43.7200;-4.8300
1239.2260;-48.4400;-43.6500;-4.7900
1239.4250;-48.3200;-43.5500;-4.7700
1239.6240;-48.2300;-43.4800;-4.7500
1239.8230;-48.1100;-43.3900;-4.7200
1240.0220;-48.0100;-43.3100;-4.7000
1240.2210;-47.8800;-43.2300;-4.6500
1240.4200;-47.7500;-43.1300;-4.6200
1240.6200;-47.6500;-43.0500;-4.6000
1240.8190;-47.5100;-42.9400;-4.5700
1241.0180;-47.3800;-42.8300;-4.5500
1241.2170;-47.2400;-42.7300;-4.5100
1241.4160;-47.1100;-42.6200;-4.4900
1241.6150;-46.9800;-42.5000;-4.4800
1241.8140;-46.8400;-42.3900;-4.4500
1242.0130;-46.7200;-42.2700;-4.4500
1242.2120;-46.5900;-42.1700;-4.4200
1242.4120;-46.4600;-42.0400;-4.4200
1242.6110;-46.3400;-41.9300;-4.4100
1242.8100;-46.2200;-41.8000;-4.4200
1243.0090;-46.1100;-41.6800;-4.4300
1243.2080;-46.0000;-41.5700;-4.4300
1243.4070;-45.8900;-41.4500;-4.4400
1243.6060;-45.8000;-41.3300;-4.4700
1243.8050;-45.7100;-41.2100;-4.5000
1244.0040;-45.6200;-41.0900;-4.5300
1244.2040;-45.5300;-40.9900;-4.5400
1244.4030;-45.4700;-40.8700;-4.6000
1244.6020;-45.3800;-40.7600;-4.6200
1244.8010;-45.3200;-40.6400;-4.6800
1245.0000;-45.2500;-40.5300;-4.7200
1245.1990;-45.1900;-40.4300;-4.7600
1245.3980;-45.1400;-40.3100;-4.8300
1245.5970;-45.0600;-40.2000;-4.8600
1245.7970;-45.0000;-40.0800;-4.9200
1245.9960;-44.9300;-39.9600;-4.9700
1246.1950;-44.8800;-39.8600;-5.0200
1246.3940;-44.8300;-39.7300;-5.1000
1246.5930;-44.7600;-39.6000;-5.1600
1246.7920;-44.7000;-39.4800;-5.2200
1246.9910;-44.6300;-39.3400;-5.2900
1247.1900;-44.5700;-39.2300;-5.3400
1247.3890;-44.5300;-39.0900;-5.4400
1247.5890;-44.4500;-38.9600;-5.4900
1247.7880;-44.4000;-38.8200;-5.5800
1247.9870;-44.3400;-38.6800;-5.6600
1248.1860;-44.2900;-38.5600;-5.7300
1248.3850;-44.2500;-38.4100;-5.8400
1248.5840;-44.1900;-38.2800;-5.9100
1248.7830;-44.1500;-38.1400;-6.0100
1248.9820;-44.1200;-38.0100;-6.1100
1249.1810;-44.0800;-37.8800;-6.2000
1249.3810;-44.0700;-37.7400;-6.3300
1249.5800;-44.0200;-37.6100;-6.4100
1249.7790;-44.0100;-37.4700;-6.5400
1249.9780;-43.9800;-37.3300;-6.6500
1250.1770;-43.9600;-37.2200;-6.7400
1250.3760;-43.9600;-37.0800;-6.8800
1250.5750;-43.9300;-36.9500;-6.9800
1250.7740;-43.9300;-36.8200;-7.1100
1250.9740;-43.9300;-36.7000;-7.2300
1251.1730;-43.9100;-36.5800;-7.3300
1251.3720;-43.9100;-36.4400;-7.4700
1251.5710;-43.8800;-36.3400;-7.5400
1251.7700;-43.8600;-36.2000;-7.6600
1251.9690;-43.8300;-36.0700;-7.7600
1252.1680;-43.7800;-35.9400;-7.8400
1252.3670;-43.7400;-35.7800;-7.9600
1252.5660;-43.6800;-35.6800;-8.0000
1252.7660;-43.6200;-35.5400;-8.0800
1252.9650;-43.5300;-35.4300;-8.1000
1253.1640;-43.4400;-35.2800;-8.1600
1253.3630;-43.3400;-35.1400;-8.2000
1253.5620;-43.2100;-35.0200;-8.1900
1253.7610;-43.0900;-34.8800;-8.2100
1253.9600;-42.9500;-34.7600;-8.1900
1254.1590;-42.7900;-34.6100;-8.1800
1254.3580;-42.6300;-34.4800;-8.1500
1254.5580;-42.4500;-34.3500;-8.1000
1254.7570;-42.2700;-34.2100;-8.0600
1254.9560;-42.0600;-34.0800;-7.9800
1255.1550;-41.8700;-33.9500;-7.9200
1255.3540;-41.6600;-33.8200;-7.8400
1255.5530;-41.4400;-33.7000;-7.7400
1255.7520;-41.2300;-33.5700;-7.6600
1255.9510;-40.9800;-33.4500;-7.5300
1256.1500;-40.7600;-33.3100;-7.4500
1256.3500;-40.5200;-33.1900;-7.3300
1256.5490;-40.2800;-33.0700;-7.2100
1256.7480;-40.0400;-32.9400;-7.1000
1256.9470;-39.7800;-32.8200;-6.9600
1257.1460;-39.5300;-32.6900;-6.8400
1257.3450;-39.2700;-32.5600;-6.7100
1257.5440;-39.0200;-32.4400;-6.5800
1257.7430;-38.7700;-32.3100;-6.4600
1257.9430;-38.4900;-32.1900;-6.3000
1258.1420;-38.2400;-32.0600;-6.1800
1258.3410;-37.9700;-31.9400;-6.0300
1258.5400;-37.7100;-31.8100;-5.9000
1258.7390;-37.4500;-31.6800;-5.7700
1258.9380;-37.1700;-31.5500;-5.6200
1259.1370;-36.9200;-31.4200;-5.5000
1259.3360;-36.6500;-31.3000;-5.3500
1259.5350;-36.3900;-31.1700;-5.2200
1259.7350;-36.1300;-31.0400;-5.0900
1259.9340;-35.8200;-30.9100;-4.9100
1260.1330;-35.6300;-30.7800;-4.8500
1260.3320;-35.3700;-30.6600;-4.7100
1260.5310;-35.1500;-30.5300;-4.6200
1260.7300;-34.8900;-30.4100;-4.4800
1260.9290;-34.6600;-30.2900;-4.3700
1261.1280;-34.4300;-30.1500;-4.2800
1261.3270;-34.2000;-30.0400;-4.1600
1261.5270;-34.0000;-29.9200;-4.0800
1261.7260;-33.7700;-29.8000;-3.9700
1261.9250;-33.5500;-29.6800;-3.8700
1262.1240;-33.3500;-29.5500;-3.8000
1262.3230;-33.1400;-29.4400;-3.7000
1262.5220;-32.9600;-29.3200;-3.6400
1262.7210;-32.7500;-29.2000;-3.5500
1262.9200;-32.5600;-29.0800;-3.4800
1263.1200;-32.3700;-28.9600;-3.4100
1263.3190;-32.1800;-28.8400;-3.3400
1263.5180;-32.0200;-28.7200;-3.3000
1263.7170;-31.8300;-28.6000;-3.2300
1263.9160;-31.6500;-28.4800;-3.1700
1264.1150;-31.4800;-28.3500;-3.1300
1264.3140;-31.3000;-28.2400;-3.0600
1264.5130;-31.1500;-28.1100;-3.0400
1264.7120;-30.9800;-27.9900;-2.9900
1264.9120;-30.8200;-27.8600;-2.9600
1265.1110;-30.6600;-27.7400;-2.9200
1265.3100;-30.5100;-27.6200;-2.8900
1265.5090;-30.3800;-27.4900;-2.8900
1265.7080;-30.2300;-27.3800;-2.8500
1265.9070;-30.1000;-27.2600;-2.8400
1266.1060;-29.9700;-27.1300;-2.8400
1266.3050;-29.8500;-27.0300;-2.8200
1266.5040;-29.7500;-26.9100;-2.8400
1266.7040;-29.6300;-26.8000;-2.8300
1266.9030;-29.5300;-26.6800;-2.8500
1267.1020;-29.4400;-26.5700;-2.8700
1267.3010;-29.3400;-26.4700;-2.8700
1267.5000;-29.2700;-26.3500;-2.9200
1267.6990;-29.1800;-26.2500;-2.9300
1267.8980;-29.1100;-26.1300;-2.9800
1268.0970;-29.0400;-26.0200;-3.0200
1268.2970;-28.9700;-25.9100;-3.0600
1268.4960;-28.9300;-25.8200;-3.1100
1268.6950;-28.8600;-25.7100;-3.1500
1268.8940;-28.8100;-25.5900;-3.2200
1269.0930;-28.7600;-25.4900;-3.2700
1269.2920;-28.7100;-25.3700;-3.3400
1269.4910;-28.6900;-25.2600;-3.4300
1269.6900;-28.6400;-25.1500;-3.4900
1269.8890;-28.6100;-25.0300;-3.5800
1270.0890;-28.5700;-24.9300;-3.6400
1270.2880;-28.5400;-24.8000;-3.7400
1270.4870;-28.5500;-24.7000;-3.8500
1270.6860;-28.5200;-24.5900;-3.9300
1270.8850;-28.5200;-24.4700;-4.0500
1271.0840;-28.5100;-24.3700;-4.1400
1271.2830;-28.5100;-24.2600;-4.2500
1271.4820;-28.5300;-24.1500;-4.3800
1271.6810;-28.5400;-24.0500;-4.4900
1271.8810;-28.5800;-23.9400;-4.6400
1272.0800;-28.6000;-23.8500;-4.7500
1272.2790;-28.6500;-23.7300;-4.9200
1272.4780;-28.7000;-23.6400;-5.0600
1272.6770;-28.7500;-23.5400;-5.2100
1272.8760;-28.8300;-23.4300;-5.4000
1273.0750;-28.8900;-23.3400;-5.5500
1273.2740;-28.9600;-23.2300;-5.7300
1273.4740;-29.0500;-23.1300;-5.9200
1273.6730;-29.1400;-23.0300;-6.1100
1273.8720;-29.2500;-22.9300;-6.3200
1274.0710;-29.3300;-22.8400;-6.4900
1274.2700;-29.4400;-22.7300;-6.7100
1274.4690;-29.5500;-22.6300;-6.9200
1274.6680;-29.6600;-22.5200;-7.1400
1274.8670;-29.7900;-22.4100;-7.3800
1275.0660;-29.9100;-22.3200;-7.5900
1275.2660;-30.0400;-22.2000;-7.8400
1275.4650;-30.1700;-22.1100;-8.0600
1275.6640;-30.3000;-22.0100;-8.2900
1275.8630;-30.4500;-21.9100;-8.5400
1276.0620;-30.5900;-21.8100;-8.7800
1276.2610;-30.7400;-21.7100;-9.0300
1276.4600;-30.8900;-21.6200;-9.2700
1276.6590;-31.0300;-21.5100;-9.5200
1276.8580;-31.2000;-21.4200;-9.7800
1277.0580;-31.3500;-21.3400;-10.0100
1277.2570;-31.5100;-21.2300;-10.2800
1277.4560;-31.6500;-21.1600;-10.4900
1277.6550;-31.7800;-21.0600;-10.7200
1277.8540;-31.9200;-20.9700;-10.9500
1278.0530;-32.0300;-20.8800;-11.1500
1278.2520;-32.1400;-20.7900;-11.3500
1278.4510;-32.2200;-20.7200;-11.5000
1278.6500;-32.2800;-20.6200;-11.6600
1278.8500;-32.3100;-20.5300;-11.7800
1279.0490;-32.3200;-20.4400;-11.8800
1279.2480;-32.3100;-20.3500;-11.9600
1279.4470;-32.2400;-20.2800;-11.9600
1279.6460;-32.1600;-20.1800;-11.9800
1279.8450;-32.0400;-20.1000;-11.9400
1280.0440;-31.8900;-20.0100;-11.8800
1280.2430;-31.7300;-19.9100;-11.8200
1280.4430;-31.5200;-19.8400;-11.6800
1280.6420;-31.2900;-19.7500;-11.5400
1280.8410;-31.0300;-19.6700;-11.3600
1281.0400;-30.7500;-19.5800;-11.1700
1281.2390;-30.4700;-19.4900;-10.9800
1281.4380;-30.1600;-19.4200;-10.7400
1281.6370;-29.8500;-19.3300;-10.5200
1281.8360;-29.5200;-19.2600;-10.2600
1282.0350;-29.2000;-19.1700;-10.0300
1282.2350;-28.8700;-19.0900;-9.7800
1282.4340;-28.5300;-19.0100;-9.5200
1282.6330;-28.2200;-18.9400;-9.2800
1282.8320;-27.8800;-18.8700;-9.0100
1283.0310;-27.5500;-18.7800;-8.7700
1283.2300;-27.2300;-18.7100;-8.5200
1283.4290;-26.9000;-18.6400;-8.2600
1283.6280;-26.6000;-18.5600;-8.0400
1283.8270;-26.2800;-18.4900;-7.7900
1284.0270;-25.9400;-18.4100;-7.5300
1284.2260;-25.6800;-18.3400;-7.3400
1284.4250;-25.3900;-18.2700;-7.1200
1284.6240;-25.1100;-18.1900;-6.9200
1284.8230;-24.8300;-18.1300;-6.7000
1285.0220;-24.5700;-18.0400;-6.5300
1285.2210;-24.2900;-17.9700;-6.3200
1285.4200;-24.0300;-17.9000;-6.1300
1285.6200;-23.7700;-17.8300;-5.9400
1285.8190;-23.5200;-17.7700;-5.7500
1286.0180;-23.3000;-17.6900;-5.6100
1286.2170;-23.0500;-17.6200;-5.4300
1286.4160;-22.8300;-17.5400;-5.2900
1286.6150;-22.6100;-17.4800;-5.1300
1286.8140;-22.3900;-17.4300;-4.9600
1287.0130;-22.1900;-17.3500;-4.8400
1287.2120;-21.9700;-17.2900;-4.6800
1287.4120;-21.7800;-17.2200;-4.5600
1287.6110;-21.5900;-17.1500;-4.4400
1287.8100;-21.4000;-17.1000;-4.3000
1288.0090;-21.2300;-17.0200;-4.2100
1288.2080;-21.0500;-16.9700;-4.0800
1288.4070;-20.8900;-16.9000;-3.9900
1288.6060;-20.7300;-16.8400;-3.8900
1288.8050;-20.5700;-16.7900;-3.7800
1289.0040;-20.4400;-16.7200;-3.7200
1289.2040;-20.2800;-16.6700;-3.6100
1289.4030;-20.1600;-16.6000;-3.5600
1289.6020;-20.0200;-16.5400;-3.4800
1289.8010;-19.9000;-16.4900;-3.4100
1290.0000;-19.7900;-16.4200;-3.3700
1290.1990;-19.6700;-16.3800;-3.2900
1290.3980;-19.5700;-16.3100;-3.2600
1290.5970;-19.4600;-16.2700;-3.1900
1290.7970;-19.3600;-16.2100;-3.1500
1290.9960;-19.2600;-16.1400;-3.1200
1291.1950;-19.1700;-16.0900;-3.0800
1291.3940;-19.1000;-16.0400;-3.0600
1291.5930;-19.0000;-15.9800;-3.0200
1291.7920;-18.9300;-15.9200;-3.0100
1291.9910;-18.8600;-15.8700;-2.9900
1292.1900;-18.7900;-15.8100;-2.9800
1292.3890;-18.7500;-15.7600;-2.9900
1292.5890;-18.6700;-15.7100;-2.9600
1292.7880;-18.6300;-15.6500;-2.9800
1292.9870;-18.5900;-15.6200;-2.9700
1293.1860;-18.5500;-15.5600;-2.9900
1293.3850;-18.5300;-15.5100;-3.0200
1293.5840;-18.4900;-15.4500;-3.0400
1293.7830;-18.4800;-15.4000;-3.0800
1293.9820;-18.4600;-15.3700;-3.0900
1294.1810;-18.4500;-15.3100;-3.1400
1294.3810;-18.4500;-15.2700;-3.1800
1294.5800;-18.4400;-15.2200;-3.2200
1294.7790;-18.4600;-15.1700;-3.2900
1294.9780;-18.4700;-15.1300;-3.3400
1295.1770;-18.4900;-15.0800;-3.4100
1295.3760;-18.5100;-15.0400;-3.4700
1295.5750;-18.5200;-14.9800;-3.5400
1295.7740;-18.5700;-14.9300;-3.6400
1295.9740;-18.5900;-14.8900;-3.7000
1296.1730;-18.6500;-14.8400;-3.8100
1296.3720;-18.7000;-14.8100;-3.8900
1296.5710;-18.7400;-14.7500;-3.9900
1296.7700;-18.8200;-14.7100;-4.1100
1296.9690;-18.8800;-14.6700;-4.2100
1297.1680;-18.9700;-14.6300;-4.3400
1297.3670;-19.0400;-14.6000;-4.4400
1297.5660;-19.1200;-14.5400;-4.5800
1297.7660;-19.2200;-14.5000;-4.7200
1297.9650;-19.3200;-14.4700;-4.8500
1298.1640;-19.4400;-14.4300;-5.0100
1298.3630;-19.5500;-14.4100;-5.1400
1298.5620;-19.6700;-14.3500;-5.3200
1298.7610;-19.8100;-14.3300;-5.4800
1298.9600;-19.9500;-14.2900;-5.6600
1299.1590;-20.1100;-14.2500;-5.8600
1299.3580;-20.2700;-14.2300;-6.0400
1299.5580;-20.4400;-14.1800;-6.2600
1299.7570;-20.6100;-14.1500;-6.4600
1299.9560;-20.8000;-14.1200;-6.6800
1300.1550;-21.0100;-14.0900;-6.9200
1300.3540;-21.2100;-14.0600;-7.1500
1300.5530;-21.4400;-14.0100;-7.4300
1300.7520;-21.6600;-14.0000;-7.6600
1300.9510;-21.9100;-13.9600;-7.9500
1301.1500;-22.1800;-13.9400;-8.2400
1301.3500;-22.4500;-13.9100;-8.5400
1301.5490;-22.7600;-13.8900;-8.8700
1301.7480;-23.0400;-13.8800;-9.1600
1301.9470;-23.3700;-13.8400;-9.5300
1302.1460;-23.7100;-13.8300;-9.8800
1302.3450;-24.0600;-13.8100;-10.2500
1302.5440;-24.4500;-13.7900;-10.6600
1302.7430;-24.8200;-13.7800;-11.0400
1302.9430;-25.2500;-13.7500;-11.5000
1303.1420;-25.6800;-13.7500;-11.9300
1303.3410;-26.1300;-13.7200;-12.4100
1303.5400;-26.6300;-13.7100;-12.9200
1303.7390;-27.1300;-13.7100;-13.4200
1303.9380;-27.6700;-13.6800;-13.9900
1304.1370;-28.3400;-13.6800;-14.6600
1304.3360;-28.8300;-13.6600;-15.1700
1304.5350;-29.4200;-13.6500;-15.7700
1304.7350;-30.0300;-13.6400;-16.3900
1304.9340;-30.6500;-13.6300;-17.0200
1305.1330;-31.2300;-13.6300;-17.6000
1305.3320;-31.7600;-13.6000;-18.1600
1305.5310;-32.2000;-13.6100;-18.5900
1305.7300;-32.5200;-13.6000;-18.9200
1305.9290;-32.6700;-13.5800;-19.0900
1306.1280;-32.6500;-13.6000;-19.0500
1306.3270;-32.4500;-13.5800;-18.8700
1306.5270;-32.1000;-13.5900;-18.5100
1306.7260;-31.6200;-13.5900;-18.0300
1306.9250;-31.0700;-13.5800;-17.4900
1307.1240;-30.4700;-13.6000;-16.8700
1307.3230;-29.8600;-13.5900;-16.2700
1307.5220;-29.2400;-13.6100;-15.6300
1307.7210;-28.6300;-13.6100;-15.0200
1307.9200;-28.0300;-13.6100;-14.4200
1308.1200;-27.4600;-13.6300;-13.8300
1308.3190;-26.9300;-13.6300;-13.3000
1308.5180;-26.4100;-13.6500;-12.7600
1308.7170;-25.8200;-13.6500;-12.1700
1308.9160;-25.4300;-13.6500;-11.7800
1309.1150;-25.0000;-13.6800;-11.3200
1309.3140;-24.5700;-13.6900;-10.8800
1309.5130;-24.1700;-13.7200;-10.4500
1309.7120;-23.8000;-13.7200;-10.0800
1309.9120;-23.4300;-13.7400;-9.6900
1310.1110;-23.1000;-13.7600;-9.3400
1310.3100;-22.7600;-13.7700;-8.9900
1310.5090;-22.4600;-13.8100;-8.6500
1310.7080;-22.1600;-13.8100;-8.3500
1310.9070;-21.8700;-13.8400;-8.0300
1311.1060;-21.6200;-13.8600;-7.7600
1311.3050;-21.3500;-13.8800;-7.4700
1311.5040;-21.1200;-13.9200;-7.2000
1311.7040;-20.8800;-13.9300;-6.9500
1311.9030;-20.6600;-13.9700;-6.6900
1312.1020;-20.4600;-13.9800;-6.4800
1312.3010;-20.2600;-14.0100;-6.2500
1312.5000;-20.0900;-14.0600;-6.0300
1312.6990;-19.9000;-14.0800;-5.8200
1312.8980;-19.7300;-14.1300;-5.6000
1313.0970;-19.5800;-14.1500;-5.4300
1313.2970;-19.4300;-14.1900;-5.2400
1313.4960;-19.3100;-14.2300;-5.0800
1313.6950;-19.1700;-14.2600;-4.9100
1313.8940;-19.0500;-14.3100;-4.7400
1314.0930;-18.9400;-14.3500;-4.5900
1314.2920;-18.8300;-14.3900;-4.4400
1314.4910;-18.7600;-14.4300;-4.3300
1314.6900;-18.6500;-14.4700;-4.1800
1314.8890;-18.5800;-14.5200;-4.0600
1315.0890;-18.4900;-14.5500;-3.9400
1315.2880;-18.4200;-14.6100;-3.8100
1315.4870;-18.3800;-14.6500;-3.7300
1315.6860;-18.3100;-14.7100;-3.6000
1315.8850;-18.2700;-14.7500;-3.5200
1316.0840;-18.2200;-14.8000;-3.4200
1316.2830;-18.1900;-14.8500;-3.3400
1316.4820;-18.1700;-14.9100;-3.2600
1316.6810;-18.1400;-14.9700;-3.1700
1316.8810;-18.1400;-15.0200;-3.1200
1317.0800;-18.1300;-15.0800;-3.0500
1317.2790;-18.1200;-15.1500;-2.9700
1317.4780;-18.1400;-15.2000;-2.9400
1317.6770;-18.1400;-15.2700;-2.8700
1317.8760;-18.1600;-15.3200;-2.8400
1318.0750;-18.1700;-15.3800;-2.7900
1318.2740;-18.2000;-15.4400;-2.7600
1318.4740;-18.2300;-15.5000;-2.7300
1318.6730;-18.2700;-15.5900;-2.6800
1318.8720;-18.3200;-15.6500;-2.6700
1319.0710;-18.3600;-15.7400;-2.6200
1319.2700;-18.4300;-15.7900;-2.6400
1319.4690;-18.4700;-15.8600;-2.6100
1319.6680;-18.5400;-15.9500;-2.5900
1319.8670;-18.6100;-16.0100;-2.6000
1320.0660;-18.6800;-16.1000;-2.5800
1320.2660;-18.7700;-16.1700;-2.6000
1320.4650;-18.8400;-16.2500;-2.5900
1320.6640;-18.9400;-16.3300;-2.6100
1320.8630;-19.0300;-16.4000;-2.6300
1321.0620;-19.1200;-16.4900;-2.6300
1321.2610;-19.2300;-16.5600;-2.6700
1321.4600;-19.3300;-16.6600;-2.6700
1321.6590;-19.4400;-16.7300;-2.7100
1321.8580;-19.5500;-16.8200;-2.7300
1322.0580;-19.6700;-16.9100;-2.7600
1322.2570;-19.8000;-16.9900;-2.8100
1322.4560;-19.9200;-17.0900;-2.8300
1322.6550;-20.0600;-17.1700;-2.8900
1322.8540;-20.1900;-17.2700;-2.9200
1323.0530;-20.3300;-17.3600;-2.9700
1323.2520;-20.4800;-17.4500;-3.0300
1323.4510;-20.6200;-17.5600;-3.0600
1323.6500;-20.7800;-17.6400;-3.1400
1323.8500;-20.9300;-17.7500;-3.1800
1324.0490;-21.0900;-17.8400;-3.2500
1324.2480;-21.2500;-17.9500;-3.3000
1324.4470;-21.4100;-18.0500;-3.3600
1324.6460;-21.5900;-18.1400;-3.4500
1324.8450;-21.7500;-18.2600;-3.4900
1325.0440;-21.9400;-18.3600;-3.5800
1325.2430;-22.1000;-18.5000;-3.6000
1325.4430;-22.2800;-18.5800;-3.7000
1325.6420;-22.4800;-18.7000;-3.7800
1325.8410;-22.6500;-18.8200;-3.8300
1326.0400;-22.8500;-18.9200;-3.9300
1326.2390;-23.0200;-19.0500;-3.9700
1326.4380;-23.2100;-19.1500;-4.0600
1326.6370;-23.3900;-19.2700;-4.1200
1326.8360;-23.5800;-19.3900;-4.1900
1327.0350;-23.7800;-19.5100;-4.2700
1327.2350;-23.9600;-19.6400;-4.3200
1327.4340;-24.1500;-19.7500;-4.4000
1327.6330;-24.3300;-19.8700;-4.4600
1327.8320;-24.5100;-19.9900;-4.5200
1328.0310;-24.7100;-20.1100;-4.6000
1328.2300;-24.8800;-20.2500;-4.6300
1328.4290;-25.0800;-20.3700;-4.7100
1328.6280;-25.2400;-20.5100;-4.7300
1328.8270;-25.4300;-20.6300;-4.8000
1329.0270;-25.6000;-20.7600;-4.8400
1329.2260;-25.7700;-20.9000;-4.8700
1329.4250;-25.9500;-21.0200;-4.9300
1329.6240;-26.0900;-21.1700;-4.9200
1329.8230;-26.2600;-21.2900;-4.9700
1330.0220;-26.4100;-21.4300;-4.9800
1330.2210;-26.5600;-21.5600;-5.0000
1330.4200;-26.7200;-21.6900;-5.0300
1330.6200;-26.8600;-21.8400;-5.0200
1330.8190;-27.0000;-21.9700;-5.0300
1331.0180;-27.1300;-22.1100;-5.0200
1331.2170;-27.2700;-22.2600;-5.0100
1331.4160;-27.4000;-22.3900;-5.0100
1331.6150;-27.5100;-22.5500;-4.9600
1331.8140;-27.6500;-22.6800;-4.9700
1332.0130;-27.7500;-22.8400;-4.9100
1332.2120;-27.8700;-22.9700;-4.9000
1332.4120;-27.9700;-23.1200;-4.8500
1332.6110;-28.0900;-23.2800;-4.8100
1332.8100;-28.1900;-23.4200;-4.7700
1333.0090;-28.2800;-23.5800;-4.7000
1333.2080;-28.3900;-23.7200;-4.6700
1333.4070;-28.4900;-23.8800;-4.6100
1333.6060;-28.5700;-24.0200;-4.5500
1333.8050;-28.6600;-24.1800;-4.4800
1334.0040;-28.7500;-24.3300;-4.4200
1334.2040;-28.8400;-24.4800;-4.3600
1334.4030;-28.9200;-24.6500;-4.2700
1334.6020;-29.0100;-24.7900;-4.2200
1334.8010;-29.0800;-24.9500;-4.1300
1335.0000;-29.1700;-25.1100;-4.0600
1335.1990;-29.2500;-25.2600;-3.9900
1335.3980;-29.3300;-25.4300;-3.9000
1335.5970;-29.4300;-25.5700;-3.8600
1335.7970;-29.5100;-25.7400;-3.7700
1335.9960;-29.6000;-25.9000;-3.7000
1336.1950;-29.6900;-26.0600;-3.6300
1336.3940;-29.7700;-26.2200;-3.5500
1336.5930;-29.8700;-26.3700;-3.5000
1336.7920;-29.9500;-26.5400;-3.4100
1336.9910;-30.0500;-26.6900;-3.3600
1337.1900;-30.1400;-26.8600;-3.2800
1337.3890;-30.2400;-27.0200;-3.2200
1337.5890;-30.3500;-27.1800;-3.1700
1337.7880;-30.4400;-27.3500;-3.0900
1337.9870;-30.5700;-27.5100;-3.0600
1338.1860;-30.6600;-27.6800;-2.9800
1338.3850;-30.7800;-27.8300;-2.9500
1338.5840;-30.8900;-28.0000;-2.8900
1338.7830;-31.0000;-28.1600;-2.8400
1338.9820;-31.1300;-28.3200;-2.8100
1339.1810;-31.2500;-28.5300;-2.7200
1339.3810;-31.3900;-28.6700;-2.7200
1339.5800;-31.5100;-28.8400;-2.6700
1339.7790;-31.6400;-29.0000;-2.6400
1339.9780;-31.7900;-29.1800;-2.6100
1340.1770;-31.9200;-29.3500;-2.5700
1340.3760;-32.0800;-29.5200;-2.5600
1340.5750;-32.2400;-29.7100;-2.5300
1340.7740;-32.3900;-29.8700;-2.5200
1340.9740;-32.5300;-30.0400;-2.4900
1341.1730;-32.6900;-30.2000;-2.4900
1341.3720;-32.8600;-30.3700;-2.4900
1341.5710;-33.0200;-30.5400;-2.4800
1341.7700;-33.1900;-30.7100;-2.4800
1341.9690;-33.3600;-30.8900;-2.4700
1342.1680;-33.5300;-31.0500;-2.4800
1342.3670;-33.7100;-31.2300;-2.4800
1342.5660;-33.8900;-31.3900;-2.5000
1342.7660;-34.0900;-31.5600;-2.5300
1342.9650;-34.2700;-31.7400;-2.5300
1343.1640;-34.4700;-31.9100;-2.5600
1343.3630;-34.6700;-32.0900;-2.5800
1343.5620;-34.8600;-32.2500;-2.6100
1343.7610;-35.0800;-32.4200;-2.6600
1343.9600;-35.2900;-32.6000;-2.6900
1344.1590;-35.5100;-32.7800;-2.7300
1344.3580;-35.7200;-32.9600;-2.7600
1344.5580;-35.9500;-33.1300;-2.8200
1344.7570;-36.1800;-33.3000;-2.8800
1344.9560;-36.4000;-33.4700;-2.9300
1345.1550;-36.6300;-33.6300;-3.0000
1345.3540;-36.8400;-33.8000;-3.0400
1345.5530;-37.0800;-33.9600;-3.1200
1345.7520;-37.3200;-34.1400;-3.1800
1345.9510;-37.5600;-34.3000;-3.2600
1346.1500;-37.8200;-34.4600;-3.3600
1346.3500;-38.0700;-34.6500;-3.4200
1346.5490;-38.3500;-34.8200;-3.5300
1346.7480;-38.6500;-35.0000;-3.6500
1346.9470;-38.8700;-35.1500;-3.7200
1347.1460;-39.1300;-35.3100;-3.8200
1347.3450;-39.3800;-35.4700;-3.9100
1347.5440;-39.7000;-35.6700;-4.0300
1347.7430;-40.0200;-35.9000;-4.1200
1347.9430;-40.3400;-36.0800;-4.2600
1348.1420;-40.6200;-36.2400;-4.3800
1348.3410;-40.9200;-36.4200;-4.5000
1348.5400;-41.1900;-36.5500;-4.6400
1348.7390;-41.4600;-36.7100;-4.7500
1348.9380;-41.7600;-36.8400;-4.9200
1349.1370;-42.0500;-37.0000;-5.0500
1349.3360;-42.3300;-37.1300;-5.2000
1349.5350;-42.6300;-37.2700;-5.3600
1349.7350;-42.9200;-37.4200;-5.5000
1349.9340;-43.2500;-37.5800;-5.6700
1350.1330;-43.5800;-37.7700;-5.8100
1350.3320;-43.9800;-37.9900;-5.9900
1350.5310;-44.3400;-38.1800;-6.1600
1350.7300;-44.6700;-38.3400;-6.3300
1350.9290;-45.0000;-38.4800;-6.5200
1351.1280;-45.2800;-38.5800;-6.7000
1351.3270;-45.6200;-38.7100;-6.9100
1351.5270;-45.9500;-38.8800;-7.0700
1351.7260;-46.3600;-39.0900;-7.2700
1351.9250;-46.7200;-39.2700;-7.4500
1352.1240;-47.0700;-39.4100;-7.6600
1352.3230;-47.4300;-39.5700;-7.8600
1352.5220;-47.8100;-39.7600;-8.0500
1352.7210;-48.1400;-39.8800;-8.2600
1352.9200;-48.5400;-40.0400;-8.5000
1353.1200;-48.9100;-40.2600;-8.6500
1353.3190;-49.1800;-40.3500;-8.8300
1353.5180;-49.5100;-40.5000;-9.0100
1353.7170;-49.8600;-40.6500;-9.2100
1353.9160;-50.0900;-40.7400;-9.3500
1354.1150;-50.3800;-40.8700;-9.5100
1354.3140;-50.7100;-41.0800;-9.6300
1354.5130;-51.0100;-41.2400;-9.7700
1354.7120;-51.4200;-41.5400;-9.8800
1354.9120;-51.7700;-41.8000;-9.9700
1355.1110;-52.0100;-41.9500;-10.0600
1355.3100;-52.1700;-42.0600;-10.1100
1355.5090;-52.1900;-42.0300;-10.1600
1355.7080;-52.4400;-42.2800;-10.1600
1355.9070;-52.6800;-42.5200;-10.1600
1356.1060;-52.7900;-42.6600;-10.1300
1356.3050;-52.7800;-42.7200;-10.0600
1356.5040;-52.8100;-42.7900;-10.0200
1356.7040;-52.6100;-42.7000;-9.9100
1356.9030;-52.6300;-42.8200;-9.8100
1357.1020;-52.8700;-43.1700;-9.7000
1357.3010;-52.9200;-43.3700;-9.5500
1357.5000;-52.9300;-43.5200;-9.4100
1357.6990;-52.9000;-43.6800;-9.2200
1357.8980;-52.7800;-43.7000;-9.0800
1358.0970;-52.6300;-43.7400;-8.8900
1358.2970;-52.5900;-43.8900;-8.7000
1358.4960;-52.6300;-44.0900;-8.5400
1358.6950;-52.5400;-44.2100;-8.3300
1358.8940;-52.4700;-44.3300;-8.1400
1359.0930;-52.3800;-44.4600;-7.9200
1359.2920;-52.2200;-44.4700;-7.7500
1359.4910;-52.3900;-44.8200;-7.5700
1359.6900;-52.4600;-45.0900;-7.3700
1359.8890;-52.4300;-45.2600;-7.1700
1360.0890;-52.2600;-45.2900;-6.9700
1360.2880;-52.0900;-45.2800;-6.8100
1360.4870;-51.8700;-45.2600;-6.6100
1360.6860;-51.8200;-45.3900;-6.4300
1360.8850;-51.9900;-45.7100;-6.2800
1361.0840;-52.0800;-45.9800;-6.1000
1361.2830;-52.0500;-46.1200;-5.9300
1361.4820;-52.0100;-46.2600;-5.7500
1361.6810;-52.0700;-46.4400;-5.6300
1361.8810;-52.0200;-46.5600;-5.4600
1362.0800;-52.0600;-46.7500;-5.3100
1362.2790;-52.3500;-47.1500;-5.2000
1362.4780;-52.4100;-47.3600;-5.0500
1362.6770;-52.3900;-47.4700;-4.9200
1362.8760;-52.1000;-47.3400;-4.7600
1363.0750;-51.9000;-47.2400;-4.6600
1363.2740;-51.5400;-46.9900;-4.5500
1363.4740;-51.4900;-47.0400;-4.4500
1363.6730;-51.4600;-47.1100;-4.3500
1363.8720;-51.4800;-47.2400;-4.2400
1364.0710;-51.5900;-47.4300;-4.1600
1364.2700;-51.6600;-47.6100;-4.0500
1364.4690;-51.8800;-47.9000;-3.9800
1364.6680;-52.3000;-48.3900;-3.9100
1364.8670;-52.4200;-48.6100;-3.8100
1365.0660;-52.3000;-48.5600;-3.7400
1365.2660;-52.3900;-48.6900;-3.7000
1365.4650;-52.2700;-48.6100;-3.6600
1365.6640;-52.2500;-48.6700;-3.5800
1365.8630;-52.2300;-48.6900;-3.5400
1366.0620;-52.1600;-48.6700;-3.4900
1366.2610;-52.1000;-48.6400;-3.4600
1366.4600;-52.1300;-48.6900;-3.4400
1366.6590;-52.2300;-48.8400;-3.3900
1366.8580;-52.4400;-49.0600;-3.3800
1367.0580;-52.5200;-49.1800;-3.3400
1367.2570;-52.5900;-49.2700;-3.3200
1367.4560;-52.8400;-49.5200;-3.3200
1367.6550;-53.0000;-49.6800;-3.3200
1367.8540;-53.2600;-49.9300;-3.3300
1368.0530;-53.3600;-50.0400;-3.3200
1368.2520;-53.3200;-49.9900;-3.3300
1368.4510;-53.6600;-50.3200;-3.3400
1368.6500;-53.7300;-50.3800;-3.3500
1368.8500;-53.8500;-50.4700;-3.3800
1369.0490;-53.8400;-50.4200;-3.4200
1369.2480;-53.8200;-50.3600;-3.4600
1369.4470;-53.7500;-50.2800;-3.4700
1369.6460;-53.8700;-50.3600;-3.5100
1369.8450;-54.2100;-50.6900;-3.5200
1370.0440;-54.4300;-50.8500;-3.5800
1370.2430;-54.6000;-50.9600;-3.6400
1370.4430;-54.6900;-50.9800;-3.7100
1370.6420;-54.7500;-50.9700;-3.7800
1370.8410;-55.0900;-51.2900;-3.8000
1371.0400;-55.4100;-51.5300;-3.8800
1371.2390;-55.6600;-51.7000;-3.9600
1371.4380;-55.7400;-51.6700;-4.0700
1371.6370;-55.7600;-51.6200;-4.1400
1371.8360;-55.7800;-51.5700;-4.2100
1372.0350;-56.0400;-51.7400;-4.3000
1372.2350;-56.3300;-51.9400;-4.3900
1372.4340;-56.5000;-52.0000;-4.5000
1372.6330;-56.6700;-52.0600;-4.6100
1372.8320;-56.7800;-52.0600;-4.7200
1373.0310;-56.9200;-52.0700;-4.8500
1373.2300;-57.1400;-52.1800;-4.9600
1373.4290;-57.4000;-52.3100;-5.0900
1373.6280;-57.6000;-52.3900;-5.2100
1373.8270;-57.7900;-52.4500;-5.3400
1374.0270;-58.0300;-52.5400;-5.4900
1374.2260;-58.2400;-52.6100;-5.6300
1374.4250;-58.5900;-52.7300;-5.8600
1374.6240;-58.7900;-52.8400;-5.9500
1374.8230;-59.1100;-53.0000;-6.1100
1375.0220;-59.4300;-53.1600;-6.2700
1375.2210;-59.6800;-53.2100;-6.4700
1375.4200;-59.9000;-53.2500;-6.6500
1375.6200;-60.1400;-53.3000;-6.8400
1375.8190;-60.4200;-53.3900;-7.0300
1376.0180;-60.7100;-53.5200;-7.1900
1376.2170;-61.0300;-53.6200;-7.4100
1376.4160;-61.3300;-53.7100;-7.6200
1376.6150;-61.6100;-53.7700;-7.8400
1376.8140;-61.9400;-53.9100;-8.0300
1377.0130;-62.3500;-54.1300;-8.2200
1377.2120;-62.7200;-54.2700;-8.4500
1377.4120;-63.0000;-54.3300;-8.6700
1377.6110;-63.2700;-54.3600;-8.9100
1377.8100;-63.4300;-54.3000;-9.1300
1378.0090;-63.6600;-54.3400;-9.3200
1378.2080;-63.9800;-54.4200;-9.5600
1378.4070;-64.3000;-54.5700;-9.7300
1378.6060;-64.7500;-54.8000;-9.9500
1378.8050;-65.1100;-55.0800;-10.0300
1379.0040;-65.4600;-55.1800;-10.2800
1379.2040;-65.6300;-55.2200;-10.4100
1379.4030;-65.7400;-55.1600;-10.5800
1379.6020;-65.8700;-55.1100;-10.7600
1379.8010;-65.9000;-55.1400;-10.7600
1380.0000;-66.1800;-55.2600;-10.9200
1380.1990;-66.3600;-55.4100;-10.9500
1380.3980;-66.6100;-55.5900;-11.0200
1380.5970;-67.0200;-56.1300;-10.8900
1380.7970;-67.5200;-56.5600;-10.9600
1380.9960;-67.5100;-56.7000;-10.8100
1381.1950;-67.4700;-56.6700;-10.8000
1381.3940;-67.0800;-56.3700;-10.7100
1381.5930;-66.6600;-56.1000;-10.5600
1381.7920;-66.5400;-56.1200;-10.4200
1381.9910;-66.3700;-56.1400;-10.2300
1382.1900;-66.3000;-56.2400;-10.0600
1382.3890;-66.3900;-56.5300;-9.8600
1382.5890;-66.7600;-57.0600;-9.7000
1382.7880;-66.9800;-57.5100;-9.4700
1382.9870;-66.9500;-57.7200;-9.2300
1383.1860;-66.4100;-57.4500;-8.9600
1383.3850;-65.9500;-57.1600;-8.7900
1383.5840;-65.4800;-56.9600;-8.5200
1383.7830;-65.4400;-57.0600;-8.3800
1383.9820;-65.3100;-57.1800;-8.1300
1384.1810;-65.0700;-57.2000;-7.8700
1384.3810;-64.8300;-57.1900;-7.6400
1384.5800;-64.5500;-57.1400;-7.4100
1384.7790;-64.4600;-57.2100;-7.2500
1384.9780;-64.4800;-57.5000;-6.9800
1385.1770;-64.5400;-57.6900;-6.8500
1385.3760;-64.4100;-57.7900;-6.6200
1385.5750;-64.1600;-57.7100;-6.4500
1385.7740;-63.9600;-57.7400;-6.2200
1385.9740;-63.7700;-57.7100;-6.0600
1386.1730;-63.6400;-57.7300;-5.9100
1386.3720;-63.5800;-57.8700;-5.7100
1386.5710;-63.4300;-57.8800;-5.5500
1386.7700;-63.2600;-57.8900;-5.3700
1386.9690;-63.1500;-57.9200;-5.2300
1387.1680;-63.0100;-57.9300;-5.0800
1387.3670;-62.9200;-57.9700;-4.9500
1387.5660;-62.8800;-58.0300;-4.8500
1387.7660;-62.9900;-58.3200;-4.6700
1387.9650;-63.1100;-58.6100;-4.5000
1388.1640;-63.2500;-58.8200;-4.4300
1388.3630;-63.2600;-58.9300;-4.3300
1388.5620;-63.0500;-58.8600;-4.1900
1388.7610;-62.7900;-58.7100;-4.0800
1388.9600;-62.6900;-58.6600;-4.0300
1389.1590;-62.5000;-58.6000;-3.9000
1389.3580;-62.4200;-58.6300;-3.7900
1389.5580;-62.4100;-58.6900;-3.7200
1389.7570;-62.4100;-58.7700;-3.6400
1389.9560;-62.4600;-58.9200;-3.5400
1390.1550;-62.4700;-58.9700;-3.5000
1390.3540;-62.4400;-59.0100;-3.4300
1390.5530;-62.3800;-59.0400;-3.3400
1390.7520;-62.3500;-59.0500;-3.3000
1390.9510;-62.3300;-59.1100;-3.2200
1391.1500;-62.3600;-59.1700;-3.1900
1391.3500;-62.3600;-59.2200;-3.1400
1391.5490;-62.3800;-59.3000;-3.0800
1391.7480;-62.4100;-59.3600;-3.0500
1391.9470;-62.4200;-59.4400;-2.9800
1392.1460;-62.6000;-59.6100;-2.9900
1392.3450;-62.7600;-59.8200;-2.9400
1392.5440;-63.1300;-60.2300;-2.9000
1392.7430;-63.2600;-60.3800;-2.8800
1392.9430;-63.1400;-60.3000;-2.8400
1393.1420;-63.0300;-60.1400;-2.8900
1393.3410;-62.8100;-59.9200;-2.8900
1393.5400;-62.7200;-59.8900;-2.8300
1393.7390;-62.7800;-59.9500;-2.8300
1393.9380;-62.8700;-59.9800;-2.8900
1394.1370;-62.9500;-60.0800;-2.8700
1394.3360;-63.0000;-60.1300;-2.8700
1394.5350;-63.1100;-60.2100;-2.9000
1394.7350;-63.2600;-60.3200;-2.9400
1394.9340;-63.5200;-60.5900;-2.9300
1395.1330;-63.7500;-60.8200;-2.9300
1395.3320;-63.9200;-60.9100;-3.0100
1395.5310;-64.0200;-61.0300;-2.9900
1395.7300;-64.0600;-61.0200;-3.0400
1395.9290;-64.0500;-60.9400;-3.1100
1396.1280;-64.0800;-60.9300;-3.1500
1396.3270;-64.2800;-61.0800;-3.2000
1396.5270;-64.6200;-61.3300;-3.2900
1396.7260;-64.8300;-61.4800;-3.3500
1396.9250;-64.8300;-61.4200;-3.4100
1397.1240;-64.7700;-61.2700;-3.5000
1397.3230;-64.7800;-61.1900;-3.5900
1397.5220;-64.7300;-61.1500;-3.5800
1397.7210;-64.8500;-61.1700;-3.6800
1397.9200;-65.0300;-61.2200;-3.8100
1398.1200;-65.1600;-61.2600;-3.9000
1398.3190;-65.2600;-61.3300;-3.9300
1398.5180;-65.4700;-61.4100;-4.0600
1398.7170;-65.6100;-61.4700;-4.1400
1398.9160;-65.7400;-61.5200;-4.2200
1399.1150;-65.9300;-61.5800;-4.3500
1399.3140;-66.1500;-61.6800;-4.4700
1399.5130;-66.5700;-61.9700;-4.6000
1399.7120;-66.9100;-62.0800;-4.8300
1399.9120;-67.1100;-62.1600;-4.9500
1400.1110;-67.3000;-62.3100;-4.9900
1400.3100;-67.4400;-62.2800;-5.1600
1400.5090;-67.6700;-62.3300;-5.3400
1400.7080;-68.1900;-62.7300;-5.4600
1400.9070;-68.3600;-62.8000;-5.5600
1401.1060;-68.4900;-62.7600;-5.7300
1401.3050;-68.7500;-62.7600;-5.9900
1401.5040;-68.8500;-62.6400;-6.2100
1401.7040;-68.9400;-62.6600;-6.2800
1401.9030;-69.3100;-62.7100;-6.6000
1402.1020;-69.3800;-62.6800;-6.7000
1402.3010;-69.5800;-62.6500;-6.9300
1402.5000;-69.5700;-62.6600;-6.9100
1402.6990;-69.8400;-62.6900;-7.1500
1402.8980;-70.1800;-62.8200;-7.3600
1403.0970;-70.5900;-62.9200;-7.6700
1403.2970;-70.9700;-62.9800;-7.9900
1403.4960;-71.1500;-63.0300;-8.1200
1403.6950;-71.3400;-63.0800;-8.2600
1403.8940;-71.7700;-63.1800;-8.5900
1404.0930;-71.9100;-63.3000;-8.6100
1404.2920;-72.1400;-63.4300;-8.7100
1404.4910;-72.2500;-63.5100;-8.7400
1404.6900;-72.7700;-63.6100;-9.1600
1404.8890;-73.1100;-64.0700;-9.0400
1405.0890;-73.4100;-64.2300;-9.1800
1405.2880;-73.5600;-64.2500;-9.3100
1405.4870;-73.8800;-64.2300;-9.6500
1405.6860;-74.2400;-63.9400;-10.3000
1405.8850;-73.9900;-63.8800;-10.1100
1406.0840;-74.1400;-63.9400;-10.2000
1406.2830;-74.4900;-63.9700;-10.5200
1406.4820;-74.3500;-64.0200;-10.3300
1406.6810;-74.8600;-64.1900;-10.6700
1406.8810;-74.3200;-64.3500;-9.9700
1407.0800;-74.5000;-64.4900;-10.0100
1407.2790;-75.3300;-64.7300;-10.6000
1407.4780;-75.5400;-64.7900;-10.7500
1407.6770;-74.9700;-64.7800;-10.1900
1407.8760;-74.6100;-64.8000;-9.8100
1408.0750;-74.4000;-64.7600;-9.6400
1408.2740;-74.2800;-64.6700;-9.6100
1408.4740;-75.1000;-64.7400;-10.3600
1408.6730;-74.9500;-64.7900;-10.1600
1408.8720;-74.7900;-64.9000;-9.8900
1409.0710;-74.5100;-65.0400;-9.4700
1409.2700;-74.5000;-65.2600;-9.2400
1409.4690;-74.5300;-65.5900;-8.9400
1409.6680;-74.5600;-65.6500;-8.9100
1409.8670;-74.6800;-65.7100;-8.9700
1410.0660;-74.6500;-65.6000;-9.0500
1410.2660;-74.1700;-65.4500;-8.7200
1410.4650;-73.7300;-65.5300;-8.2000
1410.6640;-73.9700;-65.5700;-8.4000
1410.8630;-73.9800;-65.6500;-8.3300
1411.0620;-73.9900;-65.6400;-8.3500
1411.2610;-73.5000;-65.7700;-7.7300
1411.4600;-73.3100;-65.9300;-7.3800
1411.6590;-73.6200;-65.9500;-7.6700
1411.8580;-73.3300;-66.0700;-7.2600
1412.0580;-73.4100;-66.1100;-7.3000
1412.2570;-73.3500;-66.2200;-7.1300
1412.4560;-73.7400;-66.3500;-7.3900
1412.6550;-73.3500;-66.3800;-6.9700
1412.8540;-73.3600;-66.4500;-6.9100
1413.0530;-73.3200;-66.4900;-6.8300
1413.2520;-73.0800;-66.5200;-6.5600
1413.4510;-72.9300;-66.6400;-6.2900
1413.6500;-73.3600;-66.7600;-6.6000
1413.8500;-73.1900;-66.8200;-6.3700
1414.0490;-73.4000;-67.0900;-6.3100
1414.2480;-73.3700;-67.2000;-6.1700
1414.4470;-73.2300;-67.2300;-6.0000
1414.6460;-73.4300;-67.3600;-6.0700
1414.8450;-73.3100;-67.5100;-5.8000
1415.0440;-73.0300;-67.4100;-5.6200
1415.2430;-72.9300;-67.4900;-5.4400
1415.4430;-73.2900;-67.5300;-5.7600
1415.6420;-72.8300;-67.5200;-5.3100
1415.8410;-73.0600;-67.6500;-5.4100
1416.0400;-72.9700;-67.6900;-5.2800
1416.2390;-72.8000;-67.7300;-5.0700
1416.4380;-73.4100;-67.8100;-5.6000
1416.6370;-73.3600;-67.8200;-5.5400
1416.8360;-73.1500;-68.0000;-5.1500
1417.0350;-73.2000;-68.0200;-5.1800
1417.2350;-73.3700;-68.1700;-5.2000
1417.4340;-73.4700;-68.2800;-5.1900
1417.6330;-73.4900;-68.4700;-5.0200
1417.8320;-73.8700;-68.5400;-5.3300
1418.0310;-73.2600;-68.6700;-4.5900
1418.2300;-73.2400;-68.6700;-4.5700
1418.4290;-73.5600;-68.6000;-4.9600
1418.6280;-73.8200;-68.7000;-5.1200
1418.8270;-73.5600;-68.7800;-4.7800
1419.0270;-73.9300;-69.0600;-4.8700
1419.2260;-74.4900;-69.1200;-5.3700
1419.4250;-74.5500;-69.2900;-5.2600
1419.6240;-74.4700;-69.2900;-5.1800
1419.8230;-74.6200;-69.4200;-5.2000
1420.0220;-74.6000;-69.4600;-5.1400
1420.2210;-74.8800;-69.4500;-5.4300
1420.4200;-74.6000;-69.4600;-5.1400
1420.6200;-74.3800;-69.4900;-4.8900
1420.8190;-74.5600;-69.8400;-4.7200
1421.0180;-75.0000;-69.7700;-5.2300
1421.2170;-75.2800;-69.9900;-5.2900
1421.4160;-75.3800;-69.9100;-5.4700
1421.6150;-75.2400;-70.1300;-5.1100
1421.8140;-75.8200;-70.1100;-5.7100
1422.0130;-75.6400;-70.0200;-5.6200
1422.2120;-75.7400;-70.2400;-5.5000
1422.4120;-76.0800;-70.1800;-5.9000
1422.6110;-75.8800;-70.4900;-5.3900
1422.8100;-76.0200;-70.6000;-5.4200
1423.0090;-76.3800;-70.5900;-5.7900
1423.2080;-76.0200;-70.4200;-5.6000
1423.4070;-76.7000;-70.6400;-6.0600
1423.6060;-76.0600;-70.7900;-5.2700
1423.8050;-76.8800;-70.8600;-6.0200
1424.0040;-76.4100;-70.7900;-5.6200
1424.2040;-76.7700;-71.0800;-5.6900
1424.4030;-76.4900;-71.1400;-5.3500
1424.6020;-77.4100;-71.1100;-6.3000
1424.8010;-76.6300;-71.0700;-5.5600
1425.0000;-77.6000;-71.2100;-6.3900
