Wavelength;Intensity_Meas;Intensity_Ref;Difference_dB
1200.0000;-56.7800;-54.7600;-2.0200
1200.1990;-56.6800;-54.7300;-1.9500
1200.3980;-56.6400;-54.7000;-1.9400
1200.5970;-56.6500;-54.6700;-1.9800
1200.7970;-56.6400;-54.6400;-2.0000
1200.9960;-56.5800;-54.6100;-1.9700
1201.1950;-56.5200;-54.5600;-1.9600
1201.3940;-56.5100;-54.5300;-1.9800
1201.5930;-56.4800;-54.4900;-1.9900
1201.7920;-56.4100;-54.4200;-1.9900
1201.9910;-56.3700;-54.3800;-1.9900
1202.1900;-56.2900;-54.3300;-1.9600
1202.3890;-56.2400;-54.2800;-1.9600
1202.5890;-56.1900;-54.2200;-1.9700
1202.7880;-56.1300;-54.1600;-1.9700
1202.9870;-56.0400;-54.1200;-1.9200
1203.1860;-55.9700;-54.0600;-1.9100
1203.3850;-55.9500;-54.0100;-1.9400
1203.5840;-55.8800;-53.9700;-1.9100
1203.7830;-55.7700;-53.9100;-1.8600
1203.9820;-55.7400;-53.9000;-1.8400
1204.1810;-55.7100;-53.8400;-1.8700
1204.3810;-55.6400;-53.8000;-1.8400
1204.5800;-55.5600;-53.7700;-1.7900
1204.7790;-55.5100;-53.7300;-1.7800
1204.9780;-55.5000;-53.7100;-1.7900
1205.1770;-55.4400;-53.6600;-1.7800
1205.3760;-55.3700;-53.6500;-1.7200
1205.5750;-55.3500;-53.6300;-1.7200
1205.7740;-55.3400;-53.6000;-1.7400
1205.9740;-55.3300;-53.5900;-1.7400
1206.1730;-55.2500;-53.5600;-1.6900
1206.3720;-55.2200;-53.5400;-1.6800
1206.5710;-55.2400;-53.5200;-1.7200
1206.7700;-55.2000;-53.4900;-1.7100
1206.9690;-55.1600;-53.4600;-1.7000
1207.1680;-55.1200;-53.4200;-1.7000
1207.3670;-55.0900;-53.4000;-1.6900
1207.5660;-55.0800;-53.3700;-1.7100
1207.7660;-55.0400;-53.3200;-1.7200
1207.9650;-55.0000;-53.3000;-1.7000
1208.1640;-54.9400;-53.2500;-1.6900
1208.3630;-54.9100;-53.1900;-1.7200
1208.5620;-54.9000;-53.1500;-1.7500
1208.7610;-54.8100;-53.1100;-1.7000
1208.9600;-54.7500;-53.0500;-1.7000
1209.1590;-54.7300;-52.9800;-1.7500
1209.3580;-54.6700;-52.9300;-1.7400
1209.5580;-54.5900;-52.8900;-1.7000
1209.7570;-54.5300;-52.8200;-1.7100
1209.9560;-54.5100;-52.7700;-1.7400
1210.1550;-54.4500;-52.7100;-1.7400
1210.3540;-54.3700;-52.6500;-1.7200
1210.5530;-54.3500;-52.6200;-1.7300
1210.7520;-54.3000;-52.5600;-1.7400
1210.9510;-54.2500;-52.5200;-1.7300
1211.1500;-54.2000;-52.4600;-1.7400
1211.3500;-54.1500;-52.4100;-1.7400
1211.5490;-54.1300;-52.3900;-1.7400
1211.7480;-54.1000;-52.3300;-1.7700
1211.9470;-54.0700;-52.3000;-1.7700
1212.1460;-54.0200;-52.2600;-1.7600
1212.3450;-53.9900;-52.2200;-1.7700
1212.5440;-54.0100;-52.2100;-1.8000
1212.7430;-53.9600;-52.1700;-1.7900
1212.9430;-53.9100;-52.1400;-1.7700
1213.1420;-53.8900;-52.1000;-1.7900
1213.3410;-53.8900;-52.0700;-1.8200
1213.5400;-53.8600;-52.0500;-1.8100
1213.7390;-53.8000;-52.0000;-1.8000
1213.9380;-53.7900;-51.9800;-1.8100
1214.1370;-53.7700;-51.9300;-1.8400
1214.3360;-53.7000;-51.8800;-1.8200
1214.5350;-53.6800;-51.8600;-1.8200
1214.7350;-53.6400;-51.8100;-1.8300
1214.9340;-53.6000;-51.7600;-1.8400
1215.1330;-53.5500;-51.7000;-1.8500
1215.3320;-53.4800;-51.6400;-1.8400
1215.5310;-53.4400;-51.6100;-1.8300
1215.7300;-53.3900;-51.5400;-1.8500
1215.9290;-53.3400;-51.4900;-1.8500
1216.1280;-53.2600;-51.4200;-1.8400
1216.3270;-53.1900;-51.3600;-1.8300
1216.5270;-53.1700;-51.3100;-1.8600
1216.7260;-53.1100;-51.2400;-1.8700
1216.9250;-53.0200;-51.1800;-1.8400
1217.1240;-52.9600;-51.1100;-1.8500
1217.3230;-52.9200;-51.0500;-1.8700
1217.5220;-52.8800;-51.0100;-1.8700
1217.7210;-52.7900;-50.9400;-1.8500
1217.9200;-52.7600;-50.9000;-1.8600
1218.1200;-52.7100;-50.8300;-1.8800
1218.3190;-52.6500;-50.7900;-1.8600
1218.5180;-52.6200;-50.7500;-1.8700
1218.7170;-52.5700;-50.7000;-1.8700
1218.9160;-52.5300;-50.6700;-1.8600
1219.1150;-52.4900;-50.6100;-1.8800
1219.3140;-52.4500;-50.5700;-1.8800
1219.5130;-52.4200;-50.5400;-1.8800
1219.7120;-52.3800;-50.5100;-1.8700
1219.9120;-52.3600;-50.4700;-1.8900
1220.1110;-52.3100;-50.4200;-1.8900
1220.3100;-52.2600;-50.3800;-1.8800
1220.5090;-52.2500;-50.3400;-1.9100
1220.7080;-52.2100;-50.2900;-1.9200
1220.9070;-52.1600;-50.2600;-1.9000
1221.1060;-52.1000;-50.2000;-1.9000
1221.3050;-52.0600;-50.1400;-1.9200
1221.5040;-52.0100;-50.0900;-1.9200
1221.7040;-51.9500;-50.0200;-1.9300
1221.9030;-51.9100;-49.9700;-1.9400
1222.1020;-51.8400;-49.8900;-1.9500
1222.3010;-51.7800;-49.8300;-1.9500
1222.5000;-51.7200;-49.7600;-1.9600
1222.6990;-51.6400;-49.6900;-1.9500
1222.8980;-51.5900;-49.6300;-1.9600
1223.0970;-51.5200;-49.5400;-1.9800
1223.2970;-51.4400;-49.4700;-1.9700
1223.4960;-51.3700;-49.3900;-1.9800
1223.6950;-51.3100;-49.3100;-2.0000
1223.8940;-51.2500;-49.2500;-2.0000
1224.0930;-51.1600;-49.1700;-1.9900
1224.2920;-51.1000;-49.1000;-2.0000
1224.4910;-51.0500;-49.0300;-2.0200
1224.6900;-50.9800;-48.9600;-2.0200
1224.8890;-50.9300;-48.9100;-2.0200
1225.0890;-50.8700;-48.8400;-2.0300
1225.2880;-50.8100;-48.7700;-2.0400
1225.4870;-50.7700;-48.7200;-2.0500
1225.6860;-50.7200;-48.6600;-2.0600
1225.8850;-50.6900;-48.6200;-2.0700
1226.0840;-50.6400;-48.5500;-2.0900
1226.2830;-50.6000;-48.5000;-2.1000
1226.4820;-50.5800;-48.4400;-2.1400
1226.6810;-50.5400;-48.3800;-2.1600
1226.8810;-50.5200;-48.3400;-2.1800
1227.0800;-50.4800;-48.2700;-2.2100
1227.2790;-50.4500;-48.2200;-2.2300
1227.4780;-50.4200;-48.1600;-2.2600
1227.6770;-50.3900;-48.1000;-2.2900
1227.8760;-50.3700;-48.0400;-2.3300
1228.0750;-50.3200;-47.9600;-2.3600
1228.2740;-50.2900;-47.8900;-2.4000
1228.4740;-50.2600;-47.8300;-2.4300
1228.6730;-50.2200;-47.7500;-2.4700
1228.8720;-50.1800;-47.6800;-2.5000
1229.0710;-50.1300;-47.5900;-2.5400
1229.2700;-50.0900;-47.5100;-2.5800
1229.4690;-50.0400;-47.4300;-2.6100
1229.6680;-49.9800;-47.3500;-2.6300
1229.8670;-49.9300;-47.2700;-2.6600
1230.0660;-49.8800;-47.1800;-2.7000
1230.2660;-49.8100;-47.0900;-2.7200
1230.4650;-49.7700;-47.0100;-2.7600
1230.6640;-49.7000;-46.9200;-2.7800
1230.8630;-49.6700;-46.8600;-2.8100
1231.0620;-49.6100;-46.7700;-2.8400
1231.2610;-49.5600;-46.7100;-2.8500
1231.4600;-49.5400;-46.6500;-2.8900
1231.6590;-49.4800;-46.5700;-2.9100
1231.8580;-49.4400;-46.5100;-2.9300
1232.0580;-49.4000;-46.4400;-2.9600
1232.2570;-49.3600;-46.3800;-2.9800
1232.4560;-49.3300;-46.3300;-3.0000
1232.6550;-49.2800;-46.2600;-3.0200
1232.8540;-49.2400;-46.2000;-3.0400
1233.0530;-49.2000;-46.1400;-3.0600
1233.2520;-49.1500;-46.0700;-3.0800
1233.4510;-49.1100;-46.0100;-3.1000
1233.6500;-49.0600;-45.9400;-3.1200
1233.8500;-49.0100;-45.8900;-3.1200
1234.0490;-48.9500;-45.8000;-3.1500
1234.2480;-48.8800;-45.7500;-3.1300
1234.4470;-48.8200;-45.6600;-3.1600
1234.6460;-48.7500;-45.6000;-3.1500
1234.8450;-48.6900;-45.5200;-3.1700
1235.0440;-48.5900;-45.4400;-3.1500
1235.2430;-48.5100;-45.3800;-3.1300
1235.4430;-48.4200;-45.2700;-3.1500
1235.6420;-48.3300;-45.2000;-3.1300
1235.8410;-48.2400;-45.1000;-3.1400
1236.0400;-48.1400;-45.0100;-3.1300
1236.2390;-48.0400;-44.9200;-3.1200
1236.4380;-47.9200;-44.8100;-3.1100
1236.6370;-47.8300;-44.7300;-3.1000
1236.8360;-47.7400;-44.6400;-3.1000
1237.0350;-47.6300;-44.5500;-3.0800
1237.2350;-47.5300;-44.4700;-3.0600
1237.4340;-47.4200;-44.3600;-3.0600
1237.6330;-47.3300;-44.2900;-3.0400
1237.8320;-47.2400;-44.2100;-3.0300
1238.0310;-47.1400;-44.1100;-3.0300
1238.2300;-47.0600;-44.0500;-3.0100
1238.4290;-46.9500;-43.9500;-3.0000
1238.6280;-46.8600;-43.8800;-2.9800
1238.8270;-46.7700;-43.7900;-2.9800
1239.0270;-46.6800;-43.7200;-2.9600
1239.2260;-46.5800;-43.6500;-2.9300
1239.4250;-46.4700;-43.5500;-2.9200
1239.6240;-46.3800;-43.4800;-2.9000
1239.8230;-46.2800;-43.3900;-2.8900
1240.0220;-46.1800;-43.3100;-2.8700
1240.2210;-46.0800;-43.2300;-2.8500
1240.4200;-45.9300;-43.1300;-2.8000
1240.6200;-45.8600;-43.0500;-2.8100
1240.8190;-45.7400;-42.9400;-2.8000
1241.0180;-45.6200;-42.8300;-2.7900
1241.2170;-45.5000;-42.7300;-2.7700
1241.4160;-45.3800;-42.6200;-2.7600
1241.6150;-45.2600;-42.5000;-2.7600
1241.8140;-45.1300;-42.3900;-2.7400
1242.0130;-45.0200;-42.2700;-2.7500
1242.2120;-44.9000;-42.1700;-2.7300
1242.4120;-44.7800;-42.0400;-2.7400
1242.6110;-44.6800;-41.9300;-2.7500
1242.8100;-44.5600;-41.8000;-2.7600
1243.0090;-44.4500;-41.6800;-2.7700
1243.2080;-44.3500;-41.5700;-2.7800
1243.4070;-44.2500;-41.4500;-2.8000
1243.6060;-44.1500;-41.3300;-2.8200
1243.8050;-44.0500;-41.2100;-2.8400
1244.0040;-43.9700;-41.0900;-2.8800
1244.2040;-43.8900;-40.9900;-2.9000
1244.4030;-43.8100;-40.8700;-2.9400
1244.6020;-43.7400;-40.7600;-2.9800
1244.8010;-43.6600;-40.6400;-3.0200
1245.0000;-43.5900;-40.5300;-3.0600
1245.1990;-43.5300;-40.4300;-3.1000
1245.3980;-43.4700;-40.3100;-3.1600
1245.5970;-43.4100;-40.2000;-3.2100
1245.7970;-43.3500;-40.0800;-3.2700
1245.9960;-43.2900;-39.9600;-3.3300
1246.1950;-43.2400;-39.8600;-3.3800
1246.3940;-43.1800;-39.7300;-3.4500
1246.5930;-43.1300;-39.6000;-3.5300
1246.7920;-43.0800;-39.4800;-3.6000
1246.9910;-43.0200;-39.3400;-3.6800
1247.1900;-42.9700;-39.2300;-3.7400
1247.3890;-42.9200;-39.0900;-3.8300
1247.5890;-42.8800;-38.9600;-3.9200
1247.7880;-42.8300;-38.8200;-4.0100
1247.9870;-42.7800;-38.6800;-4.1000
1248.1860;-42.7400;-38.5600;-4.1800
1248.3850;-42.7000;-38.4100;-4.2900
1248.5840;-42.6700;-38.2800;-4.3900
1248.7830;-42.6400;-38.1400;-4.5000
1248.9820;-42.6200;-38.0100;-4.6100
1249.1810;-42.6100;-37.8800;-4.7300
1249.3810;-42.5900;-37.7400;-4.8500
1249.5800;-42.5900;-37.6100;-4.9800
1249.7790;-42.5900;-37.4700;-5.1200
1249.9780;-42.5900;-37.3300;-5.2600
1250.1770;-42.6100;-37.2200;-5.3900
1250.3760;-42.6300;-37.0800;-5.5500
1250.5750;-42.6600;-36.9500;-5.7100
1250.7740;-42.6900;-36.8200;-5.8700
1250.9740;-42.7500;-36.7000;-6.0500
1251.1730;-42.8000;-36.5800;-6.2200
1251.3720;-42.8500;-36.4400;-6.4100
1251.5710;-42.9300;-36.3400;-6.5900
1251.7700;-42.9800;-36.2000;-6.7800
1251.9690;-43.0500;-36.0700;-6.9800
1252.1680;-43.1100;-35.9400;-7.1700
1252.3670;-43.1800;-35.7800;-7.4000
1252.5660;-43.2800;-35.6800;-7.6000
1252.7660;-43.3500;-35.5400;-7.8100
1252.9650;-43.4400;-35.4300;-8.0100
1253.1640;-43.5100;-35.2800;-8.2300
1253.3630;-43.5900;-35.1400;-8.4500
1253.5620;-43.6900;-35.0200;-8.6700
1253.7610;-43.7600;-34.8800;-8.8800
1253.9600;-43.8700;-34.7600;-9.1100
1254.1590;-43.9500;-34.6100;-9.3400
1254.3580;-44.0400;-34.4800;-9.5600
1254.5580;-44.1500;-34.3500;-9.8000
1254.7570;-44.2300;-34.2100;-10.0200
1254.9560;-44.3300;-34.0800;-10.2500
1255.1550;-44.4200;-33.9500;-10.4700
1255.3540;-44.5100;-33.8200;-10.6900
1255.5530;-44.6100;-33.7000;-10.9100
1255.7520;-44.6900;-33.5700;-11.1200
1255.9510;-44.7800;-33.4500;-11.3300
1256.1500;-44.8400;-33.3100;-11.5300
1256.3500;-44.9000;-33.1900;-11.7100
1256.5490;-44.9500;-33.0700;-11.8800
1256.7480;-44.9800;-32.9400;-12.0400
1256.9470;-45.0100;-32.8200;-12.1900
1257.1460;-45.0000;-32.6900;-12.3100
1257.3450;-44.9800;-32.5600;-12.4200
1257.5440;-44.9400;-32.4400;-12.5000
1257.7430;-44.8700;-32.3100;-12.5600
1257.9430;-44.7900;-32.1900;-12.6000
1258.1420;-44.6800;-32.0600;-12.6200
1258.3410;-44.5400;-31.9400;-12.6000
1258.5400;-44.3800;-31.8100;-12.5700
1258.7390;-44.1900;-31.6800;-12.5100
1258.9380;-44.0000;-31.5500;-12.4500
1259.1370;-43.7700;-31.4200;-12.3500
1259.3360;-43.5400;-31.3000;-12.2400
1259.5350;-43.2900;-31.1700;-12.1200
1259.7350;-43.0200;-31.0400;-11.9800
1259.9340;-42.7500;-30.9100;-11.8400
1260.1330;-42.4700;-30.7800;-11.6900
1260.3320;-42.1900;-30.6600;-11.5300
1260.5310;-41.8900;-30.5300;-11.3600
1260.7300;-41.6000;-30.4100;-11.1900
1260.9290;-41.3000;-30.2900;-11.0100
1261.1280;-41.0000;-30.1500;-10.8500
1261.3270;-40.7100;-30.0400;-10.6700
1261.5270;-40.4200;-29.9200;-10.5000
1261.7260;-40.1200;-29.8000;-10.3200
1261.9250;-39.8300;-29.6800;-10.1500
1262.1240;-39.5500;-29.5500;-10.0000
1262.3230;-39.2800;-29.4400;-9.8400
1262.5220;-39.0000;-29.3200;-9.6800
1262.7210;-38.7300;-29.2000;-9.5300
1262.9200;-38.4600;-29.0800;-9.3800
1263.1200;-38.1900;-28.9600;-9.2300
1263.3190;-37.9400;-28.8400;-9.1000
1263.5180;-37.6800;-28.7200;-8.9600
1263.7170;-37.4300;-28.6000;-8.8300
1263.9160;-37.1700;-28.4800;-8.6900
1264.1150;-36.9200;-28.3500;-8.5700
1264.3140;-36.6900;-28.2400;-8.4500
1264.5130;-36.4500;-28.1100;-8.3400
1264.7120;-36.2200;-27.9900;-8.2300
1264.9120;-35.9400;-27.8600;-8.0800
1265.1110;-35.7600;-27.7400;-8.0200
1265.3100;-35.5400;-27.6200;-7.9200
1265.5090;-35.3300;-27.4900;-7.8400
1265.7080;-35.1300;-27.3800;-7.7500
1265.9070;-34.9200;-27.2600;-7.6600
1266.1060;-34.7200;-27.1300;-7.5900
1266.3050;-34.5300;-27.0300;-7.5000
1266.5040;-34.3500;-26.9100;-7.4400
1266.7040;-34.1800;-26.8000;-7.3800
1266.9030;-33.9900;-26.6800;-7.3100
1267.1020;-33.8300;-26.5700;-7.2600
1267.3010;-33.6700;-26.4700;-7.2000
1267.5000;-33.5100;-26.3500;-7.1600
1267.6990;-33.3800;-26.2500;-7.1300
1267.8980;-33.2200;-26.1300;-7.0900
1268.0970;-33.0900;-26.0200;-7.0700
1268.2970;-32.9600;-25.9100;-7.0500
1268.4960;-32.8300;-25.8200;-7.0100
1268.6950;-32.7200;-25.7100;-7.0100
1268.8940;-32.5800;-25.5900;-6.9900
1269.0930;-32.4700;-25.4900;-6.9800
1269.2920;-32.3500;-25.3700;-6.9800
1269.4910;-32.2500;-25.2600;-6.9900
1269.6900;-32.1500;-25.1500;-7.0000
1269.8890;-32.0400;-25.0300;-7.0100
1270.0890;-31.9500;-24.9300;-7.0200
1270.2880;-31.8600;-24.8000;-7.0600
1270.4870;-31.7700;-24.7000;-7.0700
1270.6860;-31.6900;-24.5900;-7.1000
1270.8850;-31.6000;-24.4700;-7.1300
1271.0840;-31.5300;-24.3700;-7.1600
1271.2830;-31.4500;-24.2600;-7.1900
1271.4820;-31.3800;-24.1500;-7.2300
1271.6810;-31.3300;-24.0500;-7.2800
1271.8810;-31.2600;-23.9400;-7.3200
1272.0800;-31.2200;-23.8500;-7.3700
1272.2790;-31.1700;-23.7300;-7.4400
1272.4780;-31.1200;-23.6400;-7.4800
1272.6770;-31.1000;-23.5400;-7.5600
1272.8760;-31.0600;-23.4300;-7.6300
1273.0750;-31.0500;-23.3400;-7.7100
1273.2740;-31.0200;-23.2300;-7.7900
1273.4740;-31.0100;-23.1300;-7.8800
1273.6730;-31.0100;-23.0300;-7.9800
1273.8720;-31.0100;-22.9300;-8.0800
1274.0710;-31.0200;-22.8400;-8.1800
1274.2700;-31.0200;-22.7300;-8.2900
1274.4690;-31.0400;-22.6300;-8.4100
1274.6680;-31.0600;-22.5200;-8.5400
1274.8670;-31.0800;-22.4100;-8.6700
1275.0660;-31.1200;-22.3200;-8.8000
1275.2660;-31.1400;-22.2000;-8.9400
1275.4650;-31.1800;-22.1100;-9.0700
1275.6640;-31.2300;-22.0100;-9.2200
1275.8630;-31.2800;-21.9100;-9.3700
1276.0620;-31.3400;-21.8100;-9.5300
1276.2610;-31.3900;-21.7100;-9.6800
1276.4600;-31.4700;-21.6200;-9.8500
1276.6590;-31.5300;-21.5100;-10.0200
1276.8580;-31.6100;-21.4200;-10.1900
1277.0580;-31.7000;-21.3400;-10.3600
1277.2570;-31.7900;-21.2300;-10.5600
1277.4560;-31.9000;-21.1600;-10.7400
1277.6550;-32.0100;-21.0600;-10.9500
1277.8540;-32.1200;-20.9700;-11.1500
1278.0530;-32.2600;-20.8800;-11.3800
1278.2520;-32.3900;-20.7900;-11.6000
1278.4510;-32.5500;-20.7200;-11.8300
1278.6500;-32.7000;-20.6200;-12.0800
1278.8500;-32.8700;-20.5300;-12.3400
1279.0490;-33.0500;-20.4400;-12.6100
1279.2480;-33.2300;-20.3500;-12.8800
1279.4470;-33.4400;-20.2800;-13.1600
1279.6460;-33.6400;-20.1800;-13.4600
1279.8450;-33.8700;-20.1000;-13.7700
1280.0440;-34.1100;-20.0100;-14.1000
1280.2430;-34.3500;-19.9100;-14.4400
1280.4430;-34.6200;-19.8400;-14.7800
1280.6420;-34.8900;-19.7500;-15.1400
1280.8410;-35.1700;-19.6700;-15.5000
1281.0400;-35.4600;-19.5800;-15.8800
1281.2390;-35.7700;-19.4900;-16.2800
1281.4380;-36.1000;-19.4200;-16.6800
1281.6370;-36.4200;-19.3300;-17.0900
1281.8360;-36.7500;-19.2600;-17.4900
1282.0350;-37.0800;-19.1700;-17.9100
1282.2350;-37.4100;-19.0900;-18.3200
1282.4340;-37.7500;-19.0100;-18.7400
1282.6330;-38.0700;-18.9400;-19.1300
1282.8320;-38.4400;-18.8700;-19.5700
1283.0310;-38.6500;-18.7800;-19.8700
1283.2300;-38.8800;-18.7100;-20.1700
1283.4290;-39.0500;-18.6400;-20.4100
1283.6280;-39.1600;-18.5600;-20.6000
1283.8270;-39.2000;-18.4900;-20.7100
1284.0270;-39.1500;-18.4100;-20.7400
1284.2260;-39.0200;-18.3400;-20.6800
1284.4250;-38.7900;-18.2700;-20.5200
1284.6240;-38.4900;-18.1900;-20.3000
1284.8230;-38.1300;-18.1300;-20.0000
1285.0220;-37.7200;-18.0400;-19.6800
1285.2210;-37.2800;-17.9700;-19.3100
1285.4200;-36.7900;-17.9000;-18.8900
1285.6200;-36.3000;-17.8300;-18.4700
1285.8190;-35.7100;-17.7700;-17.9400
1286.0180;-35.3000;-17.6900;-17.6100
1286.2170;-34.8100;-17.6200;-17.1900
1286.4160;-34.3100;-17.5400;-16.7700
1286.6150;-33.8500;-17.4800;-16.3700
1286.8140;-33.3600;-17.4300;-15.9300
1287.0130;-32.9100;-17.3500;-15.5600
1287.2120;-32.4600;-17.2900;-15.1700
1287.4120;-32.0200;-17.2200;-14.8000
1287.6110;-31.6100;-17.1500;-14.4600
1287.8100;-31.1900;-17.1000;-14.0900
1288.0090;-30.8000;-17.0200;-13.7800
1288.2080;-30.4200;-16.9700;-13.4500
1288.4070;-30.0500;-16.9000;-13.1500
1288.6060;-29.7000;-16.8400;-12.8600
1288.8050;-29.3600;-16.7900;-12.5700
1289.0040;-29.0300;-16.7200;-12.3100
1289.2040;-28.7100;-16.6700;-12.0400
1289.4030;-28.4000;-16.6000;-11.8000
1289.6020;-28.1100;-16.5400;-11.5700
1289.8010;-27.8200;-16.4900;-11.3300
1290.0000;-27.5500;-16.4200;-11.1300
1290.1990;-27.2800;-16.3800;-10.9000
1290.3980;-27.0200;-16.3100;-10.7100
1290.5970;-26.7900;-16.2700;-10.5200
1290.7970;-26.5400;-16.2100;-10.3300
1290.9960;-26.3000;-16.1400;-10.1600
1291.1950;-26.0200;-16.0900;-9.9300
1291.3940;-25.8500;-16.0400;-9.8100
1291.5930;-25.6200;-15.9800;-9.6400
1291.7920;-25.4200;-15.9200;-9.5000
1291.9910;-25.2200;-15.8700;-9.3500
1292.1900;-25.0200;-15.8100;-9.2100
1292.3890;-24.8500;-15.7600;-9.0900
1292.5890;-24.6600;-15.7100;-8.9500
1292.7880;-24.4800;-15.6500;-8.8300
1292.9870;-24.3200;-15.6200;-8.7000
1293.1860;-24.1600;-15.5600;-8.6000
1293.3850;-24.0200;-15.5100;-8.5100
1293.5840;-23.8600;-15.4500;-8.4100
1293.7830;-23.7300;-15.4000;-8.3300
1293.9820;-23.5900;-15.3700;-8.2200
1294.1810;-23.4600;-15.3100;-8.1500
1294.3810;-23.3500;-15.2700;-8.0800
1294.5800;-23.2100;-15.2200;-7.9900
1294.7790;-23.1200;-15.1700;-7.9500
1294.9780;-23.0000;-15.1300;-7.8700
1295.1770;-22.9100;-15.0800;-7.8300
1295.3760;-22.8100;-15.0400;-7.7700
1295.5750;-22.7100;-14.9800;-7.7300
1295.7740;-22.6400;-14.9300;-7.7100
1295.9740;-22.5400;-14.8900;-7.6500
1296.1730;-22.4600;-14.8400;-7.6200
1296.3720;-22.4000;-14.8100;-7.5900
1296.5710;-22.3200;-14.7500;-7.5700
1296.7700;-22.2700;-14.7100;-7.5600
1296.9690;-22.2100;-14.6700;-7.5400
1297.1680;-22.1700;-14.6300;-7.5400
1297.3670;-22.1200;-14.6000;-7.5200
1297.5660;-22.0700;-14.5400;-7.5300
1297.7660;-22.0400;-14.5000;-7.5400
1297.9650;-22.0100;-14.4700;-7.5400
1298.1640;-21.9900;-14.4300;-7.5600
1298.3630;-21.9700;-14.4100;-7.5600
1298.5620;-21.9400;-14.3500;-7.5900
1298.7610;-21.9400;-14.3300;-7.6100
1298.9600;-21.9300;-14.2900;-7.6400
1299.1590;-21.9500;-14.2500;-7.7000
1299.3580;-21.9500;-14.2300;-7.7200
1299.5580;-21.9500;-14.1800;-7.7700
1299.7570;-21.9700;-14.1500;-7.8200
1299.9560;-22.0000;-14.1200;-7.8800
1300.1550;-22.0400;-14.0900;-7.9500
1300.3540;-22.0700;-14.0600;-8.0100
1300.5530;-22.1000;-14.0100;-8.0900
1300.7520;-22.1400;-14.0000;-8.1400
1300.9510;-22.1900;-13.9600;-8.2300
1301.1500;-22.2700;-13.9400;-8.3300
1301.3500;-22.3200;-13.9100;-8.4100
1301.5490;-22.4100;-13.8900;-8.5200
1301.7480;-22.4800;-13.8800;-8.6000
1301.9470;-22.5600;-13.8400;-8.7200
1302.1460;-22.6600;-13.8300;-8.8300
1302.3450;-22.7500;-13.8100;-8.9400
1302.5440;-22.8700;-13.7900;-9.0800
1302.7430;-22.9700;-13.7800;-9.1900
1302.9430;-23.0900;-13.7500;-9.3400
1303.1420;-23.2300;-13.7500;-9.4800
1303.3410;-23.3500;-13.7200;-9.6300
1303.5400;-23.5100;-13.7100;-9.8000
1303.7390;-23.6500;-13.7100;-9.9400
1303.9380;-23.8000;-13.6800;-10.1200
1304.1370;-23.9700;-13.6800;-10.2900
1304.3360;-24.1400;-13.6600;-10.4800
1304.5350;-24.3500;-13.6500;-10.7000
1304.7350;-24.5300;-13.6400;-10.8900
1304.9340;-24.7400;-13.6300;-11.1100
1305.1330;-24.9500;-13.6300;-11.3200
1305.3320;-25.1700;-13.6000;-11.5700
1305.5310;-25.4200;-13.6100;-11.8100
1305.7300;-25.6600;-13.6000;-12.0600
1305.9290;-25.9200;-13.5800;-12.3400
1306.1280;-26.1800;-13.6000;-12.5800
1306.3270;-26.4500;-13.5800;-12.8700
1306.5270;-26.7500;-13.5900;-13.1600
1306.7260;-27.0400;-13.5900;-13.4500
1306.9250;-27.3600;-13.5800;-13.7800
1307.1240;-27.6800;-13.6000;-14.0800
1307.3230;-28.0000;-13.5900;-14.4100
1307.5220;-28.4100;-13.6100;-14.8000
1307.7210;-28.7000;-13.6100;-15.0900
1307.9200;-29.0500;-13.6100;-15.4400
1308.1200;-29.4200;-13.6300;-15.7900
1308.3190;-29.7900;-13.6300;-16.1600
1308.5180;-30.1500;-13.6500;-16.5000
1308.7170;-30.5200;-13.6500;-16.8700
1308.9160;-30.8700;-13.6500;-17.2200
1309.1150;-31.2100;-13.6800;-17.5300
1309.3140;-31.5300;-13.6900;-17.8400
1309.5130;-31.8000;-13.7200;-18.0800
1309.7120;-32.0300;-13.7200;-18.3100
1309.9120;-32.2000;-13.7400;-18.4600
1310.1110;-32.3100;-13.7600;-18.5500
1310.3100;-32.3700;-13.7700;-18.6000
1310.5090;-32.3500;-13.8100;-18.5400
1310.7080;-32.2600;-13.8100;-18.4500
1310.9070;-32.1000;-13.8400;-18.2600
1311.1060;-31.8900;-13.8600;-18.0300
1311.3050;-31.6400;-13.8800;-17.7600
1311.5040;-31.3400;-13.9200;-17.4200
1311.7040;-31.0300;-13.9300;-17.1000
1311.9030;-30.6700;-13.9700;-16.7000
1312.1020;-30.3200;-13.9800;-16.3400
1312.3010;-29.9600;-14.0100;-15.9500
1312.5000;-29.6000;-14.0600;-15.5400
1312.6990;-29.2400;-14.0800;-15.1600
1312.8980;-28.8800;-14.1300;-14.7500
1313.0970;-28.5300;-14.1500;-14.3800
1313.2970;-28.1800;-14.1900;-13.9900
1313.4960;-27.8600;-14.2300;-13.6300
1313.6950;-27.5500;-14.2600;-13.2900
1313.8940;-27.2300;-14.3100;-12.9200
1314.0930;-26.9500;-14.3500;-12.6000
1314.2920;-26.6600;-14.3900;-12.2700
1314.4910;-26.3900;-14.4300;-11.9600
1314.6900;-26.0900;-14.4700;-11.6200
1314.8890;-25.8900;-14.5200;-11.3700
1315.0890;-25.6600;-14.5500;-11.1100
1315.2880;-25.4300;-14.6100;-10.8200
1315.4870;-25.2400;-14.6500;-10.5900
1315.6860;-25.0200;-14.7100;-10.3100
1315.8850;-24.8400;-14.7500;-10.0900
1316.0840;-24.6500;-14.8000;-9.8500
1316.2830;-24.4800;-14.8500;-9.6300
1316.4820;-24.3400;-14.9100;-9.4300
1316.6810;-24.1800;-14.9700;-9.2100
1316.8810;-24.0500;-15.0200;-9.0300
1317.0800;-23.9200;-15.0800;-8.8400
1317.2790;-23.8000;-15.1500;-8.6500
1317.4780;-23.6900;-15.2000;-8.4900
1317.6770;-23.5800;-15.2700;-8.3100
1317.8760;-23.4900;-15.3200;-8.1700
1318.0750;-23.4000;-15.3800;-8.0200
1318.2740;-23.3200;-15.4400;-7.8800
1318.4740;-23.2500;-15.5000;-7.7500
1318.6730;-23.1800;-15.5900;-7.5900
1318.8720;-23.1400;-15.6500;-7.4900
1319.0710;-23.0800;-15.7400;-7.3400
1319.2700;-23.0500;-15.7900;-7.2600
1319.4690;-23.0000;-15.8600;-7.1400
1319.6680;-22.9700;-15.9500;-7.0200
1319.8670;-22.9600;-16.0100;-6.9500
1320.0660;-22.9400;-16.1000;-6.8400
1320.2660;-22.9400;-16.1700;-6.7700
1320.4650;-22.9200;-16.2500;-6.6700
1320.6640;-22.9300;-16.3300;-6.6000
1320.8630;-22.9500;-16.4000;-6.5500
1321.0620;-22.9500;-16.4900;-6.4600
1321.2610;-22.9900;-16.5600;-6.4300
1321.4600;-23.0100;-16.6600;-6.3500
1321.6590;-23.0500;-16.7300;-6.3200
1321.8580;-23.0800;-16.8200;-6.2600
1322.0580;-23.1300;-16.9100;-6.2200
1322.2570;-23.1900;-16.9900;-6.2000
1322.4560;-23.2400;-17.0900;-6.1500
1322.6550;-23.3100;-17.1700;-6.1400
1322.8540;-23.3700;-17.2700;-6.1000
1323.0530;-23.4500;-17.3600;-6.0900
1323.2520;-23.5400;-17.4500;-6.0900
1323.4510;-23.6200;-17.5600;-6.0600
1323.6500;-23.7200;-17.6400;-6.0800
1323.8500;-23.8200;-17.7500;-6.0700
1324.0490;-23.9200;-17.8400;-6.0800
1324.2480;-24.0300;-17.9500;-6.0800
1324.4470;-24.1400;-18.0500;-6.0900
1324.6460;-24.2800;-18.1400;-6.1400
1324.8450;-24.3900;-18.2600;-6.1300
1325.0440;-24.5300;-18.3600;-6.1700
1325.2430;-24.6600;-18.5000;-6.1600
1325.4430;-24.8000;-18.5800;-6.2200
1325.6420;-24.9700;-18.7000;-6.2700
1325.8410;-25.1100;-18.8200;-6.2900
1326.0400;-25.2800;-18.9200;-6.3600
1326.2390;-25.4400;-19.0500;-6.3900
1326.4380;-25.6100;-19.1500;-6.4600
1326.6370;-25.7800;-19.2700;-6.5100
1326.8360;-25.9600;-19.3900;-6.5700
1327.0350;-26.1600;-19.5100;-6.6500
1327.2350;-26.3400;-19.6400;-6.7000
1327.4340;-26.5300;-19.7500;-6.7800
1327.6330;-26.7300;-19.8700;-6.8600
1327.8320;-26.9300;-19.9900;-6.9400
1328.0310;-27.1600;-20.1100;-7.0500
1328.2300;-27.3600;-20.2500;-7.1100
1328.4290;-27.5900;-20.3700;-7.2200
1328.6280;-27.8000;-20.5100;-7.2900
1328.8270;-28.0300;-20.6300;-7.4000
1329.0270;-28.2600;-20.7600;-7.5000
1329.2260;-28.5400;-20.9000;-7.6400
1329.4250;-28.7400;-21.0200;-7.7200
1329.6240;-28.9700;-21.1700;-7.8000
1329.8230;-29.2200;-21.2900;-7.9300
1330.0220;-29.4600;-21.4300;-8.0300
1330.2210;-29.7100;-21.5600;-8.1500
1330.4200;-29.9600;-21.6900;-8.2700
1330.6200;-30.2200;-21.8400;-8.3800
1330.8190;-30.4900;-21.9700;-8.5200
1331.0180;-30.7400;-22.1100;-8.6300
1331.2170;-31.0200;-22.2600;-8.7600
1331.4160;-31.2700;-22.3900;-8.8800
1331.6150;-31.5300;-22.5500;-8.9800
1331.8140;-31.8000;-22.6800;-9.1200
1332.0130;-32.0500;-22.8400;-9.2100
1332.2120;-32.3100;-22.9700;-9.3400
1332.4120;-32.5600;-23.1200;-9.4400
1332.6110;-32.8200;-23.2800;-9.5400
1332.8100;-33.0600;-23.4200;-9.6400
1333.0090;-33.2900;-23.5800;-9.7100
1333.2080;-33.5300;-23.7200;-9.8100
1333.4070;-33.7400;-23.8800;-9.8600
1333.6060;-33.9600;-24.0200;-9.9400
1333.8050;-34.1600;-24.1800;-9.9800
1334.0040;-34.3600;-24.3300;-10.0300
1334.2040;-34.5500;-24.4800;-10.0700
1334.4030;-34.7100;-24.6500;-10.0600
1334.6020;-34.8800;-24.7900;-10.0900
1334.8010;-35.0200;-24.9500;-10.0700
1335.0000;-35.1500;-25.1100;-10.0400
1335.1990;-35.2700;-25.2600;-10.0100
1335.3980;-35.3800;-25.4300;-9.9500
1335.5970;-35.4800;-25.5700;-9.9100
1335.7970;-35.5700;-25.7400;-9.8300
1335.9960;-35.6600;-25.9000;-9.7600
1336.1950;-35.7200;-26.0600;-9.6600
1336.3940;-35.7700;-26.2200;-9.5500
1336.5930;-35.8300;-26.3700;-9.4600
1336.7920;-35.8500;-26.5400;-9.3100
1336.9910;-35.9000;-26.6900;-9.2100
1337.1900;-35.9200;-26.8600;-9.0600
1337.3890;-35.9500;-27.0200;-8.9300
1337.5890;-35.9600;-27.1800;-8.7800
1337.7880;-35.9700;-27.3500;-8.6200
1337.9870;-36.0000;-27.5100;-8.4900
1338.1860;-36.0000;-27.6800;-8.3200
1338.3850;-36.0100;-27.8300;-8.1800
1338.5840;-36.0100;-28.0000;-8.0100
1338.7830;-36.0200;-28.1600;-7.8600
1338.9820;-36.0400;-28.3200;-7.7200
1339.1810;-36.0400;-28.5300;-7.5100
1339.3810;-36.0700;-28.6700;-7.4000
1339.5800;-36.0700;-28.8400;-7.2300
1339.7790;-36.0900;-29.0000;-7.0900
1339.9780;-36.1100;-29.1800;-6.9300
1340.1770;-36.1300;-29.3500;-6.7800
1340.3760;-36.1700;-29.5200;-6.6500
1340.5750;-36.2000;-29.7100;-6.4900
1340.7740;-36.2400;-29.8700;-6.3700
1340.9740;-36.2600;-30.0400;-6.2200
1341.1730;-36.2900;-30.2000;-6.0900
1341.3720;-36.3400;-30.3700;-5.9700
1341.5710;-36.3800;-30.5400;-5.8400
1341.7700;-36.4400;-30.7100;-5.7300
1341.9690;-36.4800;-30.8900;-5.5900
1342.1680;-36.5400;-31.0500;-5.4900
1342.3670;-36.6100;-31.2300;-5.3800
1342.5660;-36.6600;-31.3900;-5.2700
1342.7660;-36.7500;-31.5600;-5.1900
1342.9650;-36.8000;-31.7400;-5.0600
1343.1640;-36.8900;-31.9100;-4.9800
1343.3630;-36.9600;-32.0900;-4.8700
1343.5620;-37.0500;-32.2500;-4.8000
1343.7610;-37.1400;-32.4200;-4.7200
1343.9600;-37.2300;-32.6000;-4.6300
1344.1590;-37.3400;-32.7800;-4.5600
1344.3580;-37.4400;-32.9600;-4.4800
1344.5580;-37.5400;-33.1300;-4.4100
1344.7570;-37.6600;-33.3000;-4.3600
1344.9560;-37.7600;-33.4700;-4.2900
1345.1550;-37.8800;-33.6300;-4.2500
1345.3540;-37.9800;-33.8000;-4.1800
1345.5530;-38.1000;-33.9600;-4.1400
1345.7520;-38.2200;-34.1400;-4.0800
1345.9510;-38.3400;-34.3000;-4.0400
1346.1500;-38.5100;-34.4600;-4.0500
1346.3500;-38.6200;-34.6500;-3.9700
1346.5490;-38.7900;-34.8200;-3.9700
1346.7480;-38.9200;-35.0000;-3.9200
1346.9470;-39.0600;-35.1500;-3.9100
1347.1460;-39.2000;-35.3100;-3.8900
1347.3450;-39.3300;-35.4700;-3.8600
1347.5440;-39.5400;-35.6700;-3.8700
1347.7430;-39.7400;-35.9000;-3.8400
1347.9430;-39.9400;-36.0800;-3.8600
1348.1420;-40.0900;-36.2400;-3.8500
1348.3410;-40.2700;-36.4200;-3.8500
1348.5400;-40.4100;-36.5500;-3.8600
1348.7390;-40.5700;-36.7100;-3.8600
1348.9380;-40.7400;-36.8400;-3.9000
1349.1370;-40.8900;-37.0000;-3.8900
1349.3360;-41.0500;-37.1300;-3.9200
1349.5350;-41.2300;-37.2700;-3.9600
1349.7350;-41.3900;-37.4200;-3.9700
1349.9340;-41.5900;-37.5800;-4.0100
1350.1330;-41.8000;-37.7700;-4.0300
1350.3320;-42.0800;-37.9900;-4.0900
1350.5310;-42.3000;-38.1800;-4.1200
1350.7300;-42.5000;-38.3400;-4.1600
1350.9290;-42.7000;-38.4800;-4.2200
1351.1280;-42.8400;-38.5800;-4.2600
1351.3270;-43.0500;-38.7100;-4.3400
1351.5270;-43.2600;-38.8800;-4.3800
1351.7260;-43.5400;-39.0900;-4.4500
1351.9250;-43.7800;-39.2700;-4.5100
1352.1240;-44.0000;-39.4100;-4.5900
1352.3230;-44.2500;-39.5700;-4.6800
1352.5220;-44.5000;-39.7600;-4.7400
1352.7210;-44.7300;-39.8800;-4.8500
1352.9200;-44.9500;-40.0400;-4.9100
1353.1200;-45.2800;-40.2600;-5.0200
1353.3190;-45.4600;-40.3500;-5.1100
1353.5180;-45.7000;-40.5000;-5.2000
1353.7170;-45.9800;-40.6500;-5.3300
1353.9160;-46.1500;-40.7400;-5.4100
1354.1150;-46.3900;-40.8700;-5.5200
1354.3140;-46.7100;-41.0800;-5.6300
1354.5130;-46.9800;-41.2400;-5.7400
1354.7120;-47.3900;-41.5400;-5.8500
1354.9120;-47.7700;-41.8000;-5.9700
1355.1110;-48.0600;-41.9500;-6.1100
1355.3100;-48.2900;-42.0600;-6.2300
1355.5090;-48.4000;-42.0300;-6.3700
1355.7080;-48.8700;-42.2800;-6.5900
1355.9070;-49.1500;-42.5200;-6.6300
1356.1060;-49.4200;-42.6600;-6.7600
1356.3050;-49.6200;-42.7200;-6.9000
1356.5040;-49.8600;-42.7900;-7.0700
1356.7040;-49.8700;-42.7000;-7.1700
1356.9030;-50.1400;-42.8200;-7.3200
1357.1020;-50.6000;-43.1700;-7.4300
1357.3010;-50.9400;-43.3700;-7.5700
1357.5000;-51.2400;-43.5200;-7.7200
1357.6990;-51.5300;-43.6800;-7.8500
1357.8980;-51.7000;-43.7000;-8.0000
1358.0970;-51.8300;-43.7400;-8.0900
1358.2970;-52.1100;-43.8900;-8.2200
1358.4960;-52.4200;-44.0900;-8.3300
1358.6950;-52.6300;-44.2100;-8.4200
1358.8940;-52.8600;-44.3300;-8.5300
1359.0930;-53.0800;-44.4600;-8.6200
1359.2920;-53.1700;-44.4700;-8.7000
1359.4910;-53.5700;-44.8200;-8.7500
1359.6900;-53.8900;-45.0900;-8.8000
1359.8890;-54.1100;-45.2600;-8.8500
1360.0890;-54.1700;-45.2900;-8.8800
1360.2880;-54.2000;-45.2800;-8.9200
1360.4870;-54.1500;-45.2600;-8.8900
1360.6860;-54.2700;-45.3900;-8.8800
1360.8850;-54.5600;-45.7100;-8.8500
1361.0840;-54.7900;-45.9800;-8.8100
1361.2830;-54.8700;-46.1200;-8.7500
1361.4820;-54.9300;-46.2600;-8.6700
1361.6810;-55.0700;-46.4400;-8.6300
1361.8810;-55.0700;-46.5600;-8.5100
1362.0800;-55.1600;-46.7500;-8.4100
1362.2790;-55.4700;-47.1500;-8.3200
1362.4780;-55.5500;-47.3600;-8.1900
1362.6770;-55.5300;-47.4700;-8.0600
1362.8760;-55.2200;-47.3400;-7.8800
1363.0750;-55.0200;-47.2400;-7.7800
1363.2740;-54.6200;-46.9900;-7.6300
1363.4740;-54.5300;-47.0400;-7.4900
1363.6730;-54.4500;-47.1100;-7.3400
1363.8720;-54.4200;-47.2400;-7.1800
1364.0710;-54.4800;-47.4300;-7.0500
1364.2700;-54.5000;-47.6100;-6.8900
1364.4690;-54.6500;-47.9000;-6.7500
1364.6680;-54.9900;-48.3900;-6.6000
1364.8670;-55.0300;-48.6100;-6.4200
1365.0660;-54.8200;-48.5600;-6.2600
1365.2660;-54.8300;-48.6900;-6.1400
1365.4650;-54.6200;-48.6100;-6.0100
1365.6640;-54.5200;-48.6700;-5.8500
1365.8630;-54.4100;-48.6900;-5.7200
1366.0620;-54.2400;-48.6700;-5.5700
1366.2610;-54.1000;-48.6400;-5.4600
1366.4600;-54.0200;-48.6900;-5.3300
1366.6590;-54.0400;-48.8400;-5.2000
1366.8580;-54.1600;-49.0600;-5.1000
1367.0580;-54.1500;-49.1800;-4.9700
1367.2570;-54.1300;-49.2700;-4.8600
1367.4560;-54.2700;-49.5200;-4.7500
1367.6550;-54.3400;-49.6800;-4.6600
1367.8540;-54.5100;-49.9300;-4.5800
1368.0530;-54.5000;-50.0400;-4.4600
1368.2520;-54.3700;-49.9900;-4.3800
1368.4510;-54.6100;-50.3200;-4.2900
1368.6500;-54.6100;-50.3800;-4.2300
1368.8500;-54.6000;-50.4700;-4.1300
1369.0490;-54.4900;-50.4200;-4.0700
1369.2480;-54.3700;-50.3600;-4.0100
1369.4470;-54.2000;-50.2800;-3.9200
1369.6460;-54.2400;-50.3600;-3.8800
1369.8450;-54.4900;-50.6900;-3.8000
1370.0440;-54.6100;-50.8500;-3.7600
1370.2430;-54.6800;-50.9600;-3.7200
1370.4430;-54.6500;-50.9800;-3.6700
1370.6420;-54.6100;-50.9700;-3.6400
1370.8410;-54.8700;-51.2900;-3.5800
1371.0400;-55.1000;-51.5300;-3.5700
1371.2390;-55.2200;-51.7000;-3.5200
1371.4380;-55.1800;-51.6700;-3.5100
1371.6370;-55.1100;-51.6200;-3.4900
1371.8360;-55.0400;-51.5700;-3.4700
1372.0350;-55.2100;-51.7400;-3.4700
1372.2350;-55.3800;-51.9400;-3.4400
1372.4340;-55.4500;-52.0000;-3.4500
1372.6330;-55.5100;-52.0600;-3.4500
1372.8320;-55.5200;-52.0600;-3.4600
1373.0310;-55.5500;-52.0700;-3.4800
1373.2300;-55.6600;-52.1800;-3.4800
1373.4290;-55.8200;-52.3100;-3.5100
1373.6280;-55.9100;-52.3900;-3.5200
1373.8270;-56.0000;-52.4500;-3.5500
1374.0270;-56.1200;-52.5400;-3.5800
1374.2260;-56.2200;-52.6100;-3.6100
1374.4250;-56.3900;-52.7300;-3.6600
1374.6240;-56.5300;-52.8400;-3.6900
1374.8230;-56.7500;-53.0000;-3.7500
1375.0220;-56.9500;-53.1600;-3.7900
1375.2210;-57.0600;-53.2100;-3.8500
1375.4200;-57.1700;-53.2500;-3.9200
1375.6200;-57.2900;-53.3000;-3.9900
1375.8190;-57.4400;-53.3900;-4.0500
1376.0180;-57.6500;-53.5200;-4.1300
1376.2170;-57.8500;-53.6200;-4.2300
1376.4160;-58.0100;-53.7100;-4.3000
1376.6150;-58.1700;-53.7700;-4.4000
1376.8140;-58.4000;-53.9100;-4.4900
1377.0130;-58.7900;-54.1300;-4.6600
1377.2120;-59.0000;-54.2700;-4.7300
1377.4120;-59.1600;-54.3300;-4.8300
1377.6110;-59.3600;-54.3600;-5.0000
1377.8100;-59.4000;-54.3000;-5.1000
1378.0090;-59.5800;-54.3400;-5.2400
1378.2080;-59.7900;-54.4200;-5.3700
1378.4070;-60.0800;-54.5700;-5.5100
1378.6060;-60.4700;-54.8000;-5.6700
1378.8050;-60.8800;-55.0800;-5.8000
1379.0040;-61.1900;-55.1800;-6.0100
1379.2040;-61.3900;-55.2200;-6.1700
1379.4030;-61.5500;-55.1600;-6.3900
1379.6020;-61.6800;-55.1100;-6.5700
1379.8010;-61.8800;-55.1400;-6.7400
1380.0000;-62.2200;-55.2600;-6.9600
1380.1990;-62.5600;-55.4100;-7.1500
1380.3980;-62.9700;-55.5900;-7.3800
1380.5970;-63.7000;-56.1300;-7.5700
1380.7970;-64.3700;-56.5600;-7.8100
1380.9960;-64.7200;-56.7000;-8.0200
1381.1950;-65.0100;-56.6700;-8.3400
1381.3940;-65.0000;-56.3700;-8.6300
1381.5930;-64.8900;-56.1000;-8.7900
1381.7920;-65.2900;-56.1200;-9.1700
1381.9910;-65.5800;-56.1400;-9.4400
1382.1900;-65.9200;-56.2400;-9.6800
1382.3890;-66.5000;-56.5300;-9.9700
1382.5890;-67.2900;-57.0600;-10.2300
1382.7880;-67.9100;-57.5100;-10.4000
1382.9870;-68.5100;-57.7200;-10.7900
1383.1860;-68.5700;-57.4500;-11.1200
1383.3850;-68.5700;-57.1600;-11.4100
1383.5840;-68.5100;-56.9600;-11.5500
1383.7830;-68.8200;-57.0600;-11.7600
1383.9820;-69.0300;-57.1800;-11.8500
1384.1810;-69.3400;-57.2000;-12.1400
1384.3810;-69.6200;-57.1900;-12.4300
1384.5800;-69.5500;-57.1400;-12.4100
1384.7790;-69.8200;-57.2100;-12.6100
1384.9780;-70.0500;-57.5000;-12.5500
1385.1770;-70.2400;-57.6900;-12.5500
1385.3760;-70.3000;-57.7900;-12.5100
1385.5750;-70.1000;-57.7100;-12.3900
1385.7740;-69.9600;-57.7400;-12.2200
1385.9740;-69.8700;-57.7100;-12.1600
1386.1730;-69.8000;-57.7300;-12.0700
1386.3720;-69.6500;-57.8700;-11.7800
1386.5710;-69.4800;-57.8800;-11.6000
1386.7700;-69.2800;-57.8900;-11.3900
1386.9690;-69.0300;-57.9200;-11.1100
1387.1680;-68.6400;-57.9300;-10.7100
1387.3670;-68.4500;-57.9700;-10.4800
1387.5660;-68.3000;-58.0300;-10.2700
1387.7660;-68.3600;-58.3200;-10.0400
1387.9650;-68.3300;-58.6100;-9.7200
1388.1640;-68.2300;-58.8200;-9.4100
1388.3630;-68.1400;-58.9300;-9.2100
1388.5620;-67.7100;-58.8600;-8.8500
1388.7610;-67.2100;-58.7100;-8.5000
1388.9600;-67.0500;-58.6600;-8.3900
1389.1590;-66.7100;-58.6000;-8.1100
1389.3580;-66.5300;-58.6300;-7.9000
1389.5580;-66.3100;-58.6900;-7.6200
1389.7570;-66.2000;-58.7700;-7.4300
1389.9560;-66.1100;-58.9200;-7.1900
1390.1550;-65.9200;-58.9700;-6.9500
1390.3540;-65.7600;-59.0100;-6.7500
1390.5530;-65.5700;-59.0400;-6.5300
1390.7520;-65.4100;-59.0500;-6.3600
1390.9510;-65.2900;-59.1100;-6.1800
1391.1500;-65.1800;-59.1700;-6.0100
1391.3500;-65.0200;-59.2200;-5.8000
1391.5490;-64.9200;-59.3000;-5.6200
1391.7480;-64.7900;-59.3600;-5.4300
1391.9470;-64.7000;-59.4400;-5.2600
1392.1460;-64.7800;-59.6100;-5.1700
1392.3450;-64.8300;-59.8200;-5.0100
1392.5440;-65.1400;-60.2300;-4.9100
1392.7430;-65.0900;-60.3800;-4.7100
1392.9430;-64.8600;-60.3000;-4.5600
1393.1420;-64.6000;-60.1400;-4.4600
1393.3410;-64.2500;-59.9200;-4.3300
1393.5400;-64.1500;-59.8900;-4.2600
1393.7390;-64.0600;-59.9500;-4.1100
1393.9380;-64.0100;-59.9800;-4.0300
1394.1370;-63.9700;-60.0800;-3.8900
1394.3360;-63.9200;-60.1300;-3.7900
1394.5350;-63.9200;-60.2100;-3.7100
1394.7350;-63.9300;-60.3200;-3.6100
1394.9340;-64.1400;-60.5900;-3.5500
1395.1330;-64.2800;-60.8200;-3.4600
1395.3320;-64.3400;-60.9100;-3.4300
1395.5310;-64.3400;-61.0300;-3.3100
1395.7300;-64.2700;-61.0200;-3.2500
1395.9290;-64.1200;-60.9400;-3.1800
1396.1280;-64.1100;-60.9300;-3.1800
1396.3270;-64.2100;-61.0800;-3.1300
1396.5270;-64.3800;-61.3300;-3.0500
1396.7260;-64.4600;-61.4800;-2.9800
1396.9250;-64.4400;-61.4200;-3.0200
1397.1240;-64.2400;-61.2700;-2.9700
1397.3230;-64.1400;-61.1900;-2.9500
1397.5220;-64.0200;-61.1500;-2.8700
1397.7210;-64.0500;-61.1700;-2.8800
1397.9200;-64.0600;-61.2200;-2.8400
1398.1200;-64.0900;-61.2600;-2.8300
1398.3190;-64.1400;-61.3300;-2.8100
1398.5180;-64.2100;-61.4100;-2.8000
1398.7170;-64.3000;-61.4700;-2.8300
1398.9160;-64.3400;-61.5200;-2.8200
1399.1150;-64.4200;-61.5800;-2.8400
1399.3140;-64.5200;-61.6800;-2.8400
1399.5130;-64.8100;-61.9700;-2.8400
1399.7120;-64.9600;-62.0800;-2.8800
1399.9120;-65.0900;-62.1600;-2.9300
1400.1110;-65.3000;-62.3100;-2.9900
1400.3100;-65.2300;-62.2800;-2.9500
1400.5090;-65.3800;-62.3300;-3.0500
1400.7080;-65.7700;-62.7300;-3.0400
1400.9070;-65.8300;-62.8000;-3.0300
1401.1060;-65.8900;-62.7600;-3.1300
1401.3050;-65.9900;-62.7600;-3.2300
1401.5040;-65.9100;-62.6400;-3.2700
1401.7040;-66.0000;-62.6600;-3.3400
1401.9030;-66.1000;-62.7100;-3.3900
1402.1020;-66.1400;-62.6800;-3.4600
1402.3010;-66.2100;-62.6500;-3.5600
1402.5000;-66.2900;-62.6600;-3.6300
1402.6990;-66.4800;-62.6900;-3.7900
1402.8980;-66.5700;-62.8200;-3.7500
1403.0970;-66.7800;-62.9200;-3.8600
1403.2970;-66.9400;-62.9800;-3.9600
1403.4960;-67.0900;-63.0300;-4.0600
1403.6950;-67.2900;-63.0800;-4.2100
1403.8940;-67.4400;-63.1800;-4.2600
1404.0930;-67.6300;-63.3000;-4.3300
1404.2920;-67.7700;-63.4300;-4.3400
1404.4910;-68.0300;-63.5100;-4.5200
1404.6900;-68.2500;-63.6100;-4.6400
1404.8890;-68.7600;-64.0700;-4.6900
1405.0890;-69.0400;-64.2300;-4.8100
1405.2880;-69.3100;-64.2500;-5.0600
1405.4870;-69.5100;-64.2300;-5.2800
1405.6860;-69.1600;-63.9400;-5.2200
1405.8850;-69.3200;-63.8800;-5.4400
1406.0840;-69.3500;-63.9400;-5.4100
1406.2830;-69.5600;-63.9700;-5.5900
1406.4820;-69.7500;-64.0200;-5.7300
1406.6810;-70.0500;-64.1900;-5.8600
1406.8810;-70.3600;-64.3500;-6.0100
1407.0800;-70.6200;-64.4900;-6.1300
1407.2790;-70.8000;-64.7300;-6.0700
1407.4780;-71.1700;-64.7900;-6.3800
1407.6770;-71.2400;-64.7800;-6.4600
1407.8760;-71.1700;-64.8000;-6.3700
1408.0750;-71.1300;-64.7600;-6.3700
1408.2740;-71.6700;-64.6700;-7.0000
1408.4740;-71.6900;-64.7400;-6.9500
1408.6730;-71.7700;-64.7900;-6.9800
1408.8720;-71.8200;-64.9000;-6.9200
1409.0710;-72.1600;-65.0400;-7.1200
1409.2700;-72.6300;-65.2600;-7.3700
1409.4690;-72.9600;-65.5900;-7.3700
1409.6680;-73.0600;-65.6500;-7.4100
1409.8670;-72.9200;-65.7100;-7.2100
1410.0660;-73.0800;-65.6000;-7.4800
1410.2660;-72.9100;-65.4500;-7.4600
1410.4650;-73.0100;-65.5300;-7.4800
1410.6640;-73.1500;-65.5700;-7.5800
1410.8630;-73.1200;-65.6500;-7.4700
1411.0620;-73.1700;-65.6400;-7.5300
1411.2610;-73.2400;-65.7700;-7.4700
1411.4600;-73.0600;-65.9300;-7.1300
1411.6590;-73.5000;-65.9500;-7.5500
1411.8580;-73.3300;-66.0700;-7.2600
1412.0580;-73.6800;-66.1100;-7.5700
1412.2570;-73.4100;-66.2200;-7.1900
1412.4560;-73.6800;-66.3500;-7.3300
1412.6550;-73.6200;-66.3800;-7.2400
1412.8540;-73.5000;-66.4500;-7.0500
1413.0530;-73.3100;-66.4900;-6.8200
1413.2520;-73.2300;-66.5200;-6.7100
1413.4510;-73.4400;-66.6400;-6.8000
1413.6500;-73.3800;-66.7600;-6.6200
1413.8500;-73.7300;-66.8200;-6.9100
1414.0490;-73.6800;-67.0900;-6.5900
1414.2480;-74.0200;-67.2000;-6.8200
1414.4470;-73.6700;-67.2300;-6.4400
1414.6460;-73.4800;-67.3600;-6.1200
1414.8450;-73.5100;-67.5100;-6.0000
1415.0440;-73.5100;-67.4100;-6.1000
1415.2430;-73.2900;-67.4900;-5.8000
1415.4430;-73.3700;-67.5300;-5.8400
1415.6420;-73.7200;-67.5200;-6.2000
1415.8410;-73.2800;-67.6500;-5.6300
1416.0400;-73.2800;-67.6900;-5.5900
1416.2390;-73.0500;-67.7300;-5.3200
1416.4380;-73.2800;-67.8100;-5.4700
1416.6370;-73.3000;-67.8200;-5.4800
1416.8360;-73.4800;-68.0000;-5.4800
1417.0350;-73.2000;-68.0200;-5.1800
1417.2350;-73.3200;-68.1700;-5.1500
1417.4340;-73.1600;-68.2800;-4.8800
1417.6330;-73.3600;-68.4700;-4.8900
1417.8320;-73.2600;-68.5400;-4.7200
1418.0310;-73.2000;-68.6700;-4.5300
1418.2300;-73.4200;-68.6700;-4.7500
1418.4290;-73.6700;-68.6000;-5.0700
1418.6280;-73.5800;-68.7000;-4.8800
1418.8270;-73.8200;-68.7800;-5.0400
1419.0270;-73.7500;-69.0600;-4.6900
1419.2260;-73.7300;-69.1200;-4.6100
1419.4250;-73.8500;-69.2900;-4.5600
1419.6240;-73.8500;-69.2900;-4.5600
1419.8230;-73.9000;-69.4200;-4.4800
1420.0220;-74.1300;-69.4600;-4.6700
1420.2210;-73.9700;-69.4500;-4.5200
1420.4200;-74.0900;-69.4600;-4.6300
1420.6200;-73.9800;-69.4900;-4.4900
1420.8190;-74.0500;-69.8400;-4.2100
1421.0180;-74.0600;-69.7700;-4.2900
1421.2170;-74.3100;-69.9900;-4.3200
1421.4160;-74.5000;-69.9100;-4.5900
1421.6150;-74.5200;-70.1300;-4.3900
1421.8140;-74.6800;-70.1100;-4.5700
1422.0130;-74.8100;-70.0200;-4.7900
1422.2120;-74.4600;-70.2400;-4.2200
1422.4120;-74.5500;-70.1800;-4.3700
1422.6110;-74.7700;-70.4900;-4.2800
1422.8100;-75.2400;-70.6000;-4.6400
1423.0090;-75.1400;-70.5900;-4.5500
1423.2080;-75.1200;-70.4200;-4.7000
1423.4070;-75.6300;-70.6400;-4.9900
1423.6060;-75.5600;-70.7900;-4.7700
1423.8050;-75.7200;-70.8600;-4.8600
1424.0040;-76.0300;-70.7900;-5.2400
1424.2040;-76.2000;-71.0800;-5.1200
1424.4030;-76.4300;-71.1400;-5.2900
1424.6020;-76.7500;-71.1100;-5.6400
1424.8010;-76.1800;-71.0700;-5.1100
1425.0000;-76.2300;-71.2100;-5.0200
