Wavelength;Intensity_Meas;Intensity_Ref;Difference_dB
1200.0000;-57.8400;-54.7600;-3.0800
1200.1990;-57.7700;-54.7300;-3.0400
1200.3980;-57.7400;-54.7000;-3.0400
1200.5970;-57.7700;-54.6700;-3.1000
1200.7970;-57.7800;-54.6400;-3.1400
1200.9960;-57.7000;-54.6100;-3.0900
1201.1950;-57.6800;-54.5600;-3.1200
1201.3940;-57.6800;-54.5300;-3.1500
1201.5930;-57.6500;-54.4900;-3.1600
1201.7920;-57.6000;-54.4200;-3.1800
1201.9910;-57.5600;-54.3800;-3.1800
1202.1900;-57.5000;-54.3300;-3.1700
1202.3890;-57.4700;-54.2800;-3.1900
1202.5890;-57.4400;-54.2200;-3.2200
1202.7880;-57.4000;-54.1600;-3.2400
1202.9870;-57.3000;-54.1200;-3.1800
1203.1860;-57.2400;-54.0600;-3.1800
1203.3850;-57.2500;-54.0100;-3.2400
1203.5840;-57.1900;-53.9700;-3.2200
1203.7830;-57.0900;-53.9100;-3.1800
1203.9820;-57.0500;-53.9000;-3.1500
1204.1810;-57.0400;-53.8400;-3.2000
1204.3810;-57.0000;-53.8000;-3.2000
1204.5800;-56.9200;-53.7700;-3.1500
1204.7790;-56.8900;-53.7300;-3.1600
1204.9780;-56.8900;-53.7100;-3.1800
1205.1770;-56.8500;-53.6600;-3.1900
1205.3760;-56.8000;-53.6500;-3.1500
1205.5750;-56.7700;-53.6300;-3.1400
1205.7740;-56.7800;-53.6000;-3.1800
1205.9740;-56.7800;-53.5900;-3.1900
1206.1730;-56.7300;-53.5600;-3.1700
1206.3720;-56.7300;-53.5400;-3.1900
1206.5710;-56.7400;-53.5200;-3.2200
1206.7700;-56.7300;-53.4900;-3.2400
1206.9690;-56.7100;-53.4600;-3.2500
1207.1680;-56.6800;-53.4200;-3.2600
1207.3670;-56.6800;-53.4000;-3.2800
1207.5660;-56.6700;-53.3700;-3.3000
1207.7660;-56.6400;-53.3200;-3.3200
1207.9650;-56.6300;-53.3000;-3.3300
1208.1640;-56.6000;-53.2500;-3.3500
1208.3630;-56.6000;-53.1900;-3.4100
1208.5620;-56.5700;-53.1500;-3.4200
1208.7610;-56.5100;-53.1100;-3.4000
1208.9600;-56.4800;-53.0500;-3.4300
1209.1590;-56.4600;-52.9800;-3.4800
1209.3580;-56.4300;-52.9300;-3.5000
1209.5580;-56.3400;-52.8900;-3.4500
1209.7570;-56.3100;-52.8200;-3.4900
1209.9560;-56.2900;-52.7700;-3.5200
1210.1550;-56.2300;-52.7100;-3.5200
1210.3540;-56.1600;-52.6500;-3.5100
1210.5530;-56.1200;-52.6200;-3.5000
1210.7520;-56.0900;-52.5600;-3.5300
1210.9510;-56.0400;-52.5200;-3.5200
1211.1500;-55.9800;-52.4600;-3.5200
1211.3500;-55.9400;-52.4100;-3.5300
1211.5490;-55.9100;-52.3900;-3.5200
1211.7480;-55.8700;-52.3300;-3.5400
1211.9470;-55.8000;-52.3000;-3.5000
1212.1460;-55.7500;-52.2600;-3.4900
1212.3450;-55.7400;-52.2200;-3.5200
1212.5440;-55.7300;-52.2100;-3.5200
1212.7430;-55.6800;-52.1700;-3.5100
1212.9430;-55.6100;-52.1400;-3.4700
1213.1420;-55.5900;-52.1000;-3.4900
1213.3410;-55.5900;-52.0700;-3.5200
1213.5400;-55.5300;-52.0500;-3.4800
1213.7390;-55.4900;-52.0000;-3.4900
1213.9380;-55.4600;-51.9800;-3.4800
1214.1370;-55.4300;-51.9300;-3.5000
1214.3360;-55.3600;-51.8800;-3.4800
1214.5350;-55.3100;-51.8600;-3.4500
1214.7350;-55.2800;-51.8100;-3.4700
1214.9340;-55.2300;-51.7600;-3.4700
1215.1330;-55.1500;-51.7000;-3.4500
1215.3320;-55.1100;-51.6400;-3.4700
1215.5310;-55.0400;-51.6100;-3.4300
1215.7300;-54.9900;-51.5400;-3.4500
1215.9290;-54.9100;-51.4900;-3.4200
1216.1280;-54.8100;-51.4200;-3.3900
1216.3270;-54.7500;-51.3600;-3.3900
1216.5270;-54.6900;-51.3100;-3.3800
1216.7260;-54.6200;-51.2400;-3.3800
1216.9250;-54.5100;-51.1800;-3.3300
1217.1240;-54.4300;-51.1100;-3.3200
1217.3230;-54.3800;-51.0500;-3.3300
1217.5220;-54.2900;-51.0100;-3.2800
1217.7210;-54.2100;-50.9400;-3.2700
1217.9200;-54.1300;-50.9000;-3.2300
1218.1200;-54.0600;-50.8300;-3.2300
1218.3190;-53.9900;-50.7900;-3.2000
1218.5180;-53.9200;-50.7500;-3.1700
1218.7170;-53.8600;-50.7000;-3.1600
1218.9160;-53.7800;-50.6700;-3.1100
1219.1150;-53.7200;-50.6100;-3.1100
1219.3140;-53.6700;-50.5700;-3.1000
1219.5130;-53.6000;-50.5400;-3.0600
1219.7120;-53.5600;-50.5100;-3.0500
1219.9120;-53.5100;-50.4700;-3.0400
1220.1110;-53.4400;-50.4200;-3.0200
1220.3100;-53.4000;-50.3800;-3.0200
1220.5090;-53.3400;-50.3400;-3.0000
1220.7080;-53.3000;-50.2900;-3.0100
1220.9070;-53.2300;-50.2600;-2.9700
1221.1060;-53.1600;-50.2000;-2.9600
1221.3050;-53.1300;-50.1400;-2.9900
1221.5040;-53.0500;-50.0900;-2.9600
1221.7040;-53.0000;-50.0200;-2.9800
1221.9030;-52.9300;-49.9700;-2.9600
1222.1020;-52.8500;-49.8900;-2.9600
1222.3010;-52.8000;-49.8300;-2.9700
1222.5000;-52.7100;-49.7600;-2.9500
1222.6990;-52.6400;-49.6900;-2.9500
1222.8980;-52.5600;-49.6300;-2.9300
1223.0970;-52.4800;-49.5400;-2.9400
1223.2970;-52.4100;-49.4700;-2.9400
1223.4960;-52.3200;-49.3900;-2.9300
1223.6950;-52.2500;-49.3100;-2.9400
1223.8940;-52.1700;-49.2500;-2.9200
1224.0930;-52.0700;-49.1700;-2.9000
1224.2920;-52.0100;-49.1000;-2.9100
1224.4910;-51.9300;-49.0300;-2.9000
1224.6900;-51.8600;-48.9600;-2.9000
1224.8890;-51.7800;-48.9100;-2.8700
1225.0890;-51.7100;-48.8400;-2.8700
1225.2880;-51.6500;-48.7700;-2.8800
1225.4870;-51.5700;-48.7200;-2.8500
1225.6860;-51.5200;-48.6600;-2.8600
1225.8850;-51.4600;-48.6200;-2.8400
1226.0840;-51.4100;-48.5500;-2.8600
1226.2830;-51.3800;-48.5000;-2.8800
1226.4820;-51.3100;-48.4400;-2.8700
1226.6810;-51.2700;-48.3800;-2.8900
1226.8810;-51.2300;-48.3400;-2.8900
1227.0800;-51.1800;-48.2700;-2.9100
1227.2790;-51.1600;-48.2200;-2.9400
1227.4780;-51.0900;-48.1600;-2.9300
1227.6770;-51.0600;-48.1000;-2.9600
1227.8760;-51.0200;-48.0400;-2.9800
1228.0750;-50.9600;-47.9600;-3.0000
1228.2740;-50.9400;-47.8900;-3.0500
1228.4740;-50.8700;-47.8300;-3.0400
1228.6730;-50.8200;-47.7500;-3.0700
1228.8720;-50.7700;-47.6800;-3.0900
1229.0710;-50.7000;-47.5900;-3.1100
1229.2700;-50.6400;-47.5100;-3.1300
1229.4690;-50.5600;-47.4300;-3.1300
1229.6680;-50.4900;-47.3500;-3.1400
1229.8670;-50.4100;-47.2700;-3.1400
1230.0660;-50.3300;-47.1800;-3.1500
1230.2660;-50.2500;-47.0900;-3.1600
1230.4650;-50.1500;-47.0100;-3.1400
1230.6640;-50.0700;-46.9200;-3.1500
1230.8630;-50.0000;-46.8600;-3.1400
1231.0620;-49.9000;-46.7700;-3.1300
1231.2610;-49.8400;-46.7100;-3.1300
1231.4600;-49.7600;-46.6500;-3.1100
1231.6590;-49.6700;-46.5700;-3.1000
1231.8580;-49.5900;-46.5100;-3.0800
1232.0580;-49.5000;-46.4400;-3.0600
1232.2570;-49.4300;-46.3800;-3.0500
1232.4560;-49.3500;-46.3300;-3.0200
1232.6550;-49.2700;-46.2600;-3.0100
1232.8540;-49.1900;-46.2000;-2.9900
1233.0530;-49.1100;-46.1400;-2.9700
1233.2520;-49.0400;-46.0700;-2.9700
1233.4510;-48.9300;-46.0100;-2.9200
1233.6500;-48.8600;-45.9400;-2.9200
1233.8500;-48.7700;-45.8900;-2.8800
1234.0490;-48.6700;-45.8000;-2.8700
1234.2480;-48.5900;-45.7500;-2.8400
1234.4470;-48.4700;-45.6600;-2.8100
1234.6460;-48.3800;-45.6000;-2.7800
1234.8450;-48.2800;-45.5200;-2.7600
1235.0440;-48.1600;-45.4400;-2.7200
1235.2430;-48.0700;-45.3800;-2.6900
1235.4430;-47.9400;-45.2700;-2.6700
1235.6420;-47.8400;-45.2000;-2.6400
1235.8410;-47.7100;-45.1000;-2.6100
1236.0400;-47.6000;-45.0100;-2.5900
1236.2390;-47.4800;-44.9200;-2.5600
1236.4380;-47.3500;-44.8100;-2.5400
1236.6370;-47.2500;-44.7300;-2.5200
1236.8360;-47.1300;-44.6400;-2.4900
1237.0350;-47.0200;-44.5500;-2.4700
1237.2350;-46.9100;-44.4700;-2.4400
1237.4340;-46.8000;-44.3600;-2.4400
1237.6330;-46.7100;-44.2900;-2.4200
1237.8320;-46.6100;-44.2100;-2.4000
1238.0310;-46.5000;-44.1100;-2.3900
1238.2300;-46.4300;-44.0500;-2.3800
1238.4290;-46.3300;-43.9500;-2.3800
1238.6280;-46.2500;-43.8800;-2.3700
1238.8270;-46.1500;-43.7900;-2.3600
1239.0270;-46.0700;-43.7200;-2.3500
1239.2260;-45.9800;-43.6500;-2.3300
1239.4250;-45.8700;-43.5500;-2.3200
1239.6240;-45.8100;-43.4800;-2.3300
1239.8230;-45.7200;-43.3900;-2.3300
1240.0220;-45.6400;-43.3100;-2.3300
1240.2210;-45.5400;-43.2300;-2.3100
1240.4200;-45.4500;-43.1300;-2.3200
1240.6200;-45.3700;-43.0500;-2.3200
1240.8190;-45.2700;-42.9400;-2.3300
1241.0180;-45.1700;-42.8300;-2.3400
1241.2170;-45.0600;-42.7300;-2.3300
1241.4160;-44.9700;-42.6200;-2.3500
1241.6150;-44.8700;-42.5000;-2.3700
1241.8140;-44.7700;-42.3900;-2.3800
1242.0130;-44.6900;-42.2700;-2.4200
1242.2120;-44.5900;-42.1700;-2.4200
1242.4120;-44.5000;-42.0400;-2.4600
1242.6110;-44.4200;-41.9300;-2.4900
1242.8100;-44.3400;-41.8000;-2.5400
1243.0090;-44.2700;-41.6800;-2.5900
1243.2080;-44.1900;-41.5700;-2.6200
1243.4070;-44.1300;-41.4500;-2.6800
1243.6060;-44.0700;-41.3300;-2.7400
1243.8050;-44.0100;-41.2100;-2.8000
1244.0040;-43.9600;-41.0900;-2.8700
1244.2040;-43.9100;-40.9900;-2.9200
1244.4030;-43.8700;-40.8700;-3.0000
1244.6020;-43.8400;-40.7600;-3.0800
1244.8010;-43.8000;-40.6400;-3.1600
1245.0000;-43.7900;-40.5300;-3.2600
1245.1990;-43.7500;-40.4300;-3.3200
1245.3980;-43.7200;-40.3100;-3.4100
1245.5970;-43.7000;-40.2000;-3.5000
1245.7970;-43.6700;-40.0800;-3.5900
1245.9960;-43.6500;-39.9600;-3.6900
1246.1950;-43.6200;-39.8600;-3.7600
1246.3940;-43.5900;-39.7300;-3.8600
1246.5930;-43.5600;-39.6000;-3.9600
1246.7920;-43.5300;-39.4800;-4.0500
1246.9910;-43.5000;-39.3400;-4.1600
1247.1900;-43.4600;-39.2300;-4.2300
1247.3890;-43.4200;-39.0900;-4.3300
1247.5890;-43.3900;-38.9600;-4.4300
1247.7880;-43.3500;-38.8200;-4.5300
1247.9870;-43.3100;-38.6800;-4.6300
1248.1860;-43.2700;-38.5600;-4.7100
1248.3850;-43.2300;-38.4100;-4.8200
1248.5840;-43.1900;-38.2800;-4.9100
1248.7830;-43.1500;-38.1400;-5.0100
1248.9820;-43.1300;-38.0100;-5.1200
1249.1810;-43.0800;-37.8800;-5.2000
1249.3810;-43.0500;-37.7400;-5.3100
1249.5800;-43.0100;-37.6100;-5.4000
1249.7790;-42.9700;-37.4700;-5.5000
1249.9780;-42.9400;-37.3300;-5.6100
1250.1770;-42.8900;-37.2200;-5.6700
1250.3760;-42.8600;-37.0800;-5.7800
1250.5750;-42.8200;-36.9500;-5.8700
1250.7740;-42.7700;-36.8200;-5.9500
1250.9740;-42.7500;-36.7000;-6.0500
1251.1730;-42.6900;-36.5800;-6.1100
1251.3720;-42.6500;-36.4400;-6.2100
1251.5710;-42.6000;-36.3400;-6.2600
1251.7700;-42.5300;-36.2000;-6.3300
1251.9690;-42.4600;-36.0700;-6.3900
1252.1680;-42.3700;-35.9400;-6.4300
1252.3670;-42.2800;-35.7800;-6.5000
1252.5660;-42.1900;-35.6800;-6.5100
1252.7660;-42.0700;-35.5400;-6.5300
1252.9650;-41.9700;-35.4300;-6.5400
1253.1640;-41.8300;-35.2800;-6.5500
1253.3630;-41.6900;-35.1400;-6.5500
1253.5620;-41.5400;-35.0200;-6.5200
1253.7610;-41.3800;-34.8800;-6.5000
1253.9600;-41.2300;-34.7600;-6.4700
1254.1590;-41.0500;-34.6100;-6.4400
1254.3580;-40.8700;-34.4800;-6.3900
1254.5580;-40.6900;-34.3500;-6.3400
1254.7570;-40.4900;-34.2100;-6.2800
1254.9560;-40.3000;-34.0800;-6.2200
1255.1550;-40.1000;-33.9500;-6.1500
1255.3540;-39.9100;-33.8200;-6.0900
1255.5530;-39.7000;-33.7000;-6.0000
1255.7520;-39.4900;-33.5700;-5.9200
1255.9510;-39.2900;-33.4500;-5.8400
1256.1500;-39.0900;-33.3100;-5.7800
1256.3500;-38.8900;-33.1900;-5.7000
1256.5490;-38.6800;-33.0700;-5.6100
1256.7480;-38.4700;-32.9400;-5.5300
1256.9470;-38.2700;-32.8200;-5.4500
1257.1460;-38.0600;-32.6900;-5.3700
1257.3450;-37.8700;-32.5600;-5.3100
1257.5440;-37.6600;-32.4400;-5.2200
1257.7430;-37.4500;-32.3100;-5.1400
1257.9430;-37.2500;-32.1900;-5.0600
1258.1420;-37.0500;-32.0600;-4.9900
1258.3410;-36.8600;-31.9400;-4.9200
1258.5400;-36.6500;-31.8100;-4.8400
1258.7390;-36.4500;-31.6800;-4.7700
1258.9380;-36.2400;-31.5500;-4.6900
1259.1370;-36.0500;-31.4200;-4.6300
1259.3360;-35.8200;-31.3000;-4.5200
1259.5350;-35.6600;-31.1700;-4.4900
1259.7350;-35.4800;-31.0400;-4.4400
1259.9340;-35.2800;-30.9100;-4.3700
1260.1330;-35.1100;-30.7800;-4.3300
1260.3320;-34.9200;-30.6600;-4.2600
1260.5310;-34.7400;-30.5300;-4.2100
1260.7300;-34.5800;-30.4100;-4.1700
1260.9290;-34.3900;-30.2900;-4.1000
1261.1280;-34.2300;-30.1500;-4.0800
1261.3270;-34.0500;-30.0400;-4.0100
1261.5270;-33.9000;-29.9200;-3.9800
1261.7260;-33.7600;-29.8000;-3.9600
1261.9250;-33.6000;-29.6800;-3.9200
1262.1240;-33.4600;-29.5500;-3.9100
1262.3230;-33.3000;-29.4400;-3.8600
1262.5220;-33.1700;-29.3200;-3.8500
1262.7210;-33.0400;-29.2000;-3.8400
1262.9200;-32.8900;-29.0800;-3.8100
1263.1200;-32.7700;-28.9600;-3.8100
1263.3190;-32.6300;-28.8400;-3.7900
1263.5180;-32.5100;-28.7200;-3.7900
1263.7170;-32.3900;-28.6000;-3.7900
1263.9160;-32.2600;-28.4800;-3.7800
1264.1150;-32.1500;-28.3500;-3.8000
1264.3140;-32.0300;-28.2400;-3.7900
1264.5130;-31.9200;-28.1100;-3.8100
1264.7120;-31.8200;-27.9900;-3.8300
1264.9120;-31.7000;-27.8600;-3.8400
1265.1110;-31.6100;-27.7400;-3.8700
1265.3100;-31.5000;-27.6200;-3.8800
1265.5090;-31.4200;-27.4900;-3.9300
1265.7080;-31.3400;-27.3800;-3.9600
1265.9070;-31.2500;-27.2600;-3.9900
1266.1060;-31.1800;-27.1300;-4.0500
1266.3050;-31.1000;-27.0300;-4.0700
1266.5040;-31.0400;-26.9100;-4.1300
1266.7040;-30.9900;-26.8000;-4.1900
1266.9030;-30.9300;-26.6800;-4.2500
1267.1020;-30.8900;-26.5700;-4.3200
1267.3010;-30.8400;-26.4700;-4.3700
1267.5000;-30.8100;-26.3500;-4.4600
1267.6990;-30.7800;-26.2500;-4.5300
1267.8980;-30.7500;-26.1300;-4.6200
1268.0970;-30.7500;-26.0200;-4.7300
1268.2970;-30.7200;-25.9100;-4.8100
1268.4960;-30.7100;-25.8200;-4.8900
1268.6950;-30.7000;-25.7100;-4.9900
1268.8940;-30.6900;-25.5900;-5.1000
1269.0930;-30.7000;-25.4900;-5.2100
1269.2920;-30.6800;-25.3700;-5.3100
1269.4910;-30.6900;-25.2600;-5.4300
1269.6900;-30.7000;-25.1500;-5.5500
1269.8890;-30.7000;-25.0300;-5.6700
1270.0890;-30.7300;-24.9300;-5.8000
1270.2880;-30.7400;-24.8000;-5.9400
1270.4870;-30.7700;-24.7000;-6.0700
1270.6860;-30.7900;-24.5900;-6.2000
1270.8850;-30.8200;-24.4700;-6.3500
1271.0840;-30.8700;-24.3700;-6.5000
1271.2830;-30.9000;-24.2600;-6.6400
1271.4820;-30.9500;-24.1500;-6.8000
1271.6810;-31.0100;-24.0500;-6.9600
1271.8810;-31.0700;-23.9400;-7.1300
1272.0800;-31.1500;-23.8500;-7.3000
1272.2790;-31.2200;-23.7300;-7.4900
1272.4780;-31.3100;-23.6400;-7.6700
1272.6770;-31.4000;-23.5400;-7.8600
1272.8760;-31.4900;-23.4300;-8.0600
1273.0750;-31.6100;-23.3400;-8.2700
1273.2740;-31.7100;-23.2300;-8.4800
1273.4740;-31.8300;-23.1300;-8.7000
1273.6730;-31.9400;-23.0300;-8.9100
1273.8720;-32.0600;-22.9300;-9.1300
1274.0710;-32.1900;-22.8400;-9.3500
1274.2700;-32.3000;-22.7300;-9.5700
1274.4690;-32.4300;-22.6300;-9.8000
1274.6680;-32.5400;-22.5200;-10.0200
1274.8670;-32.6600;-22.4100;-10.2500
1275.0660;-32.7800;-22.3200;-10.4600
1275.2660;-32.8900;-22.2000;-10.6900
1275.4650;-33.0100;-22.1100;-10.9000
1275.6640;-33.1000;-22.0100;-11.0900
1275.8630;-33.2000;-21.9100;-11.2900
1276.0620;-33.2900;-21.8100;-11.4800
1276.2610;-33.3600;-21.7100;-11.6500
1276.4600;-33.4500;-21.6200;-11.8300
1276.6590;-33.4900;-21.5100;-11.9800
1276.8580;-33.5400;-21.4200;-12.1200
1277.0580;-33.5600;-21.3400;-12.2200
1277.2570;-33.5700;-21.2300;-12.3400
1277.4560;-33.5800;-21.1600;-12.4200
1277.6550;-33.5400;-21.0600;-12.4800
1277.8540;-33.5100;-20.9700;-12.5400
1278.0530;-33.4300;-20.8800;-12.5500
1278.2520;-33.3400;-20.7900;-12.5500
1278.4510;-33.2400;-20.7200;-12.5200
1278.6500;-33.1000;-20.6200;-12.4800
1278.8500;-32.9600;-20.5300;-12.4300
1279.0490;-32.7700;-20.4400;-12.3300
1279.2480;-32.5900;-20.3500;-12.2400
1279.4470;-32.3800;-20.2800;-12.1000
1279.6460;-32.1600;-20.1800;-11.9800
1279.8450;-31.9300;-20.1000;-11.8300
1280.0440;-31.6800;-20.0100;-11.6700
1280.2430;-31.4200;-19.9100;-11.5100
1280.4430;-31.1600;-19.8400;-11.3200
1280.6420;-30.8800;-19.7500;-11.1300
1280.8410;-30.6200;-19.6700;-10.9500
1281.0400;-30.3300;-19.5800;-10.7500
1281.2390;-30.0500;-19.4900;-10.5600
1281.4380;-29.7700;-19.4200;-10.3500
1281.6370;-29.4800;-19.3300;-10.1500
1281.8360;-29.2100;-19.2600;-9.9500
1282.0350;-28.9200;-19.1700;-9.7500
1282.2350;-28.6500;-19.0900;-9.5600
1282.4340;-28.3700;-19.0100;-9.3600
1282.6330;-28.1100;-18.9400;-9.1700
1282.8320;-27.8500;-18.8700;-8.9800
1283.0310;-27.5800;-18.7800;-8.8000
1283.2300;-27.3300;-18.7100;-8.6200
1283.4290;-27.0700;-18.6400;-8.4300
1283.6280;-26.8200;-18.5600;-8.2600
1283.8270;-26.5800;-18.4900;-8.0900
1284.0270;-26.3300;-18.4100;-7.9200
1284.2260;-26.0700;-18.3400;-7.7300
1284.4250;-25.8800;-18.2700;-7.6100
1284.6240;-25.6700;-18.1900;-7.4800
1284.8230;-25.4400;-18.1300;-7.3100
1285.0220;-25.2400;-18.0400;-7.2000
1285.2210;-25.0200;-17.9700;-7.0500
1285.4200;-24.8200;-17.9000;-6.9200
1285.6200;-24.6300;-17.8300;-6.8000
1285.8190;-24.4300;-17.7700;-6.6600
1286.0180;-24.2600;-17.6900;-6.5700
1286.2170;-24.0700;-17.6200;-6.4500
1286.4160;-23.8900;-17.5400;-6.3500
1286.6150;-23.7400;-17.4800;-6.2600
1286.8140;-23.5600;-17.4300;-6.1300
1287.0130;-23.4100;-17.3500;-6.0600
1287.2120;-23.2500;-17.2900;-5.9600
1287.4120;-23.0900;-17.2200;-5.8700
1287.6110;-22.9600;-17.1500;-5.8100
1287.8100;-22.8100;-17.1000;-5.7100
1288.0090;-22.6900;-17.0200;-5.6700
1288.2080;-22.5500;-16.9700;-5.5800
1288.4070;-22.4300;-16.9000;-5.5300
1288.6060;-22.3200;-16.8400;-5.4800
1288.8050;-22.2000;-16.7900;-5.4100
1289.0040;-22.1100;-16.7200;-5.3900
1289.2040;-22.0000;-16.6700;-5.3300
1289.4030;-21.9000;-16.6000;-5.3000
1289.6020;-21.8200;-16.5400;-5.2800
1289.8010;-21.7200;-16.4900;-5.2300
1290.0000;-21.6500;-16.4200;-5.2300
1290.1990;-21.5700;-16.3800;-5.1900
1290.3980;-21.5000;-16.3100;-5.1900
1290.5970;-21.4500;-16.2700;-5.1800
1290.7970;-21.3800;-16.2100;-5.1700
1290.9960;-21.3300;-16.1400;-5.1900
1291.1950;-21.2600;-16.0900;-5.1700
1291.3940;-21.2200;-16.0400;-5.1800
1291.5930;-21.1600;-15.9800;-5.1800
1291.7920;-21.1200;-15.9200;-5.2000
1291.9910;-21.1000;-15.8700;-5.2300
1292.1900;-21.0700;-15.8100;-5.2600
1292.3890;-21.0500;-15.7600;-5.2900
1292.5890;-21.0200;-15.7100;-5.3100
1292.7880;-21.0100;-15.6500;-5.3600
1292.9870;-21.0100;-15.6200;-5.3900
1293.1860;-21.0100;-15.5600;-5.4500
1293.3850;-21.0300;-15.5100;-5.5200
1293.5840;-21.0200;-15.4500;-5.5700
1293.7830;-21.0400;-15.4000;-5.6400
1293.9820;-21.0700;-15.3700;-5.7000
1294.1810;-21.0900;-15.3100;-5.7800
1294.3810;-21.1400;-15.2700;-5.8700
1294.5800;-21.1600;-15.2200;-5.9400
1294.7790;-21.2100;-15.1700;-6.0400
1294.9780;-21.2600;-15.1300;-6.1300
1295.1770;-21.3100;-15.0800;-6.2300
1295.3760;-21.3900;-15.0400;-6.3500
1295.5750;-21.4400;-14.9800;-6.4600
1295.7740;-21.5300;-14.9300;-6.6000
1295.9740;-21.6000;-14.8900;-6.7100
1296.1730;-21.6800;-14.8400;-6.8400
1296.3720;-21.7900;-14.8100;-6.9800
1296.5710;-21.8700;-14.7500;-7.1200
1296.7700;-22.0000;-14.7100;-7.2900
1296.9690;-22.1100;-14.6700;-7.4400
1297.1680;-22.2300;-14.6300;-7.6000
1297.3670;-22.3700;-14.6000;-7.7700
1297.5660;-22.4900;-14.5400;-7.9500
1297.7660;-22.6500;-14.5000;-8.1500
1297.9650;-22.8000;-14.4700;-8.3300
1298.1640;-22.9700;-14.4300;-8.5400
1298.3630;-23.1500;-14.4100;-8.7400
1298.5620;-23.3200;-14.3500;-8.9700
1298.7610;-23.5300;-14.3300;-9.2000
1298.9600;-23.7300;-14.2900;-9.4400
1299.1590;-23.9500;-14.2500;-9.7000
1299.3580;-24.1800;-14.2300;-9.9500
1299.5580;-24.4000;-14.1800;-10.2200
1299.7570;-24.6700;-14.1500;-10.5200
1299.9560;-24.9300;-14.1200;-10.8100
1300.1550;-25.2200;-14.0900;-11.1300
1300.3540;-25.5000;-14.0600;-11.4400
1300.5530;-25.8100;-14.0100;-11.8000
1300.7520;-26.1300;-14.0000;-12.1300
1300.9510;-26.4700;-13.9600;-12.5100
1301.1500;-26.8400;-13.9400;-12.9000
1301.3500;-27.1900;-13.9100;-13.2800
1301.5490;-27.5900;-13.8900;-13.7000
1301.7480;-27.9900;-13.8800;-14.1100
1301.9470;-28.5000;-13.8400;-14.6600
1302.1460;-28.8500;-13.8300;-15.0200
1302.3450;-29.2800;-13.8100;-15.4700
1302.5440;-29.7400;-13.7900;-15.9500
1302.7430;-30.1800;-13.7800;-16.4000
1302.9430;-30.6400;-13.7500;-16.8900
1303.1420;-31.0600;-13.7500;-17.3100
1303.3410;-31.4600;-13.7200;-17.7400
1303.5400;-31.8400;-13.7100;-18.1300
1303.7390;-32.1300;-13.7100;-18.4200
1303.9380;-32.3700;-13.6800;-18.6900
1304.1370;-32.5000;-13.6800;-18.8200
1304.3360;-32.5300;-13.6600;-18.8700
1304.5350;-32.4600;-13.6500;-18.8100
1304.7350;-32.2700;-13.6400;-18.6300
1304.9340;-32.0000;-13.6300;-18.3700
1305.1330;-31.6500;-13.6300;-18.0200
1305.3320;-31.2400;-13.6000;-17.6400
1305.5310;-30.8000;-13.6100;-17.1900
1305.7300;-30.3200;-13.6000;-16.7200
1305.9290;-29.8400;-13.5800;-16.2600
1306.1280;-29.3500;-13.6000;-15.7500
1306.3270;-28.8700;-13.5800;-15.2900
1306.5270;-28.4000;-13.5900;-14.8100
1306.7260;-27.9200;-13.5900;-14.3300
1306.9250;-27.4800;-13.5800;-13.9000
1307.1240;-27.0400;-13.6000;-13.4400
1307.3230;-26.6300;-13.5900;-13.0400
1307.5220;-26.2200;-13.6100;-12.6100
1307.7210;-25.7700;-13.6100;-12.1600
1307.9200;-25.4600;-13.6100;-11.8500
1308.1200;-25.1100;-13.6300;-11.4800
1308.3190;-24.7800;-13.6300;-11.1500
1308.5180;-24.4500;-13.6500;-10.8000
1308.7170;-24.1500;-13.6500;-10.5000
1308.9160;-23.8300;-13.6500;-10.1800
1309.1150;-23.5500;-13.6800;-9.8700
1309.3140;-23.2800;-13.6900;-9.5900
1309.5130;-23.0200;-13.7200;-9.3000
1309.7120;-22.7800;-13.7200;-9.0600
1309.9120;-22.5200;-13.7400;-8.7800
1310.1110;-22.3100;-13.7600;-8.5500
1310.3100;-22.0900;-13.7700;-8.3200
1310.5090;-21.8900;-13.8100;-8.0800
1310.7080;-21.7000;-13.8100;-7.8900
1310.9070;-21.4900;-13.8400;-7.6500
1311.1060;-21.3300;-13.8600;-7.4700
1311.3050;-21.1400;-13.8800;-7.2600
1311.5040;-20.9800;-13.9200;-7.0600
1311.7040;-20.8400;-13.9300;-6.9100
1311.9030;-20.6800;-13.9700;-6.7100
1312.1020;-20.5500;-13.9800;-6.5700
1312.3010;-20.4100;-14.0100;-6.4000
1312.5000;-20.3000;-14.0600;-6.2400
1312.6990;-20.1900;-14.0800;-6.1100
1312.8980;-20.0700;-14.1300;-5.9400
1313.0970;-19.9800;-14.1500;-5.8300
1313.2970;-19.8700;-14.1900;-5.6800
1313.4960;-19.8000;-14.2300;-5.5700
1313.6950;-19.7100;-14.2600;-5.4500
1313.8940;-19.6400;-14.3100;-5.3300
1314.0930;-19.5900;-14.3500;-5.2400
1314.2920;-19.5200;-14.3900;-5.1300
1314.4910;-19.4800;-14.4300;-5.0500
1314.6900;-19.4200;-14.4700;-4.9500
1314.8890;-19.3800;-14.5200;-4.8600
1315.0890;-19.3500;-14.5500;-4.8000
1315.2880;-19.3100;-14.6100;-4.7000
1315.4870;-19.3100;-14.6500;-4.6600
1315.6860;-19.2800;-14.7100;-4.5700
1315.8850;-19.2700;-14.7500;-4.5200
1316.0840;-19.2600;-14.8000;-4.4600
1316.2830;-19.2600;-14.8500;-4.4100
1316.4820;-19.2800;-14.9100;-4.3700
1316.6810;-19.2900;-14.9700;-4.3200
1316.8810;-19.3100;-15.0200;-4.2900
1317.0800;-19.3300;-15.0800;-4.2500
1317.2790;-19.3600;-15.1500;-4.2100
1317.4780;-19.4100;-15.2000;-4.2100
1317.6770;-19.4400;-15.2700;-4.1700
1317.8760;-19.5000;-15.3200;-4.1800
1318.0750;-19.5300;-15.3800;-4.1500
1318.2740;-19.5900;-15.4400;-4.1500
1318.4740;-19.6500;-15.5000;-4.1500
1318.6730;-19.7200;-15.5900;-4.1300
1318.8720;-19.8000;-15.6500;-4.1500
1319.0710;-19.8700;-15.7400;-4.1300
1319.2700;-19.9600;-15.7900;-4.1700
1319.4690;-20.0300;-15.8600;-4.1700
1319.6680;-20.1200;-15.9500;-4.1700
1319.8670;-20.2300;-16.0100;-4.2200
1320.0660;-20.3200;-16.1000;-4.2200
1320.2660;-20.4300;-16.1700;-4.2600
1320.4650;-20.5300;-16.2500;-4.2800
1320.6640;-20.6500;-16.3300;-4.3200
1320.8630;-20.7700;-16.4000;-4.3700
1321.0620;-20.8900;-16.4900;-4.4000
1321.2610;-21.0200;-16.5600;-4.4600
1321.4600;-21.1400;-16.6600;-4.4800
1321.6590;-21.2700;-16.7300;-4.5400
1321.8580;-21.4100;-16.8200;-4.5900
1322.0580;-21.5500;-16.9100;-4.6400
1322.2570;-21.7000;-16.9900;-4.7100
1322.4560;-21.8400;-17.0900;-4.7500
1322.6550;-22.0000;-17.1700;-4.8300
1322.8540;-22.1400;-17.2700;-4.8700
1323.0530;-22.3100;-17.3600;-4.9500
1323.2520;-22.4800;-17.4500;-5.0300
1323.4510;-22.6400;-17.5600;-5.0800
1323.6500;-22.8100;-17.6400;-5.1700
1323.8500;-22.9700;-17.7500;-5.2200
1324.0490;-23.1500;-17.8400;-5.3100
1324.2480;-23.3200;-17.9500;-5.3700
1324.4470;-23.4900;-18.0500;-5.4400
1324.6460;-23.6800;-18.1400;-5.5400
1324.8450;-23.8600;-18.2600;-5.6000
1325.0440;-24.0400;-18.3600;-5.6800
1325.2430;-24.2100;-18.5000;-5.7100
1325.4430;-24.3900;-18.5800;-5.8100
1325.6420;-24.5900;-18.7000;-5.8900
1325.8410;-24.7600;-18.8200;-5.9400
1326.0400;-24.9500;-18.9200;-6.0300
1326.2390;-25.1200;-19.0500;-6.0700
1326.4380;-25.3000;-19.1500;-6.1500
1326.6370;-25.4700;-19.2700;-6.2000
1326.8360;-25.6400;-19.3900;-6.2500
1327.0350;-25.8200;-19.5100;-6.3100
1327.2350;-25.9800;-19.6400;-6.3400
1327.4340;-26.1600;-19.7500;-6.4100
1327.6330;-26.3000;-19.8700;-6.4300
1327.8320;-26.4600;-19.9900;-6.4700
1328.0310;-26.6200;-20.1100;-6.5100
1328.2300;-26.7600;-20.2500;-6.5100
1328.4290;-26.9200;-20.3700;-6.5500
1328.6280;-27.0500;-20.5100;-6.5400
1328.8270;-27.1900;-20.6300;-6.5600
1329.0270;-27.3200;-20.7600;-6.5600
1329.2260;-27.4300;-20.9000;-6.5300
1329.4250;-27.5700;-21.0200;-6.5500
1329.6240;-27.6700;-21.1700;-6.5000
1329.8230;-27.7800;-21.2900;-6.4900
1330.0220;-27.8800;-21.4300;-6.4500
1330.2210;-27.9700;-21.5600;-6.4100
1330.4200;-28.0700;-21.6900;-6.3800
1330.6200;-28.1500;-21.8400;-6.3100
1330.8190;-28.2400;-21.9700;-6.2700
1331.0180;-28.3200;-22.1100;-6.2100
1331.2170;-28.4000;-22.2600;-6.1400
1331.4160;-28.5000;-22.3900;-6.1100
1331.6150;-28.5600;-22.5500;-6.0100
1331.8140;-28.6300;-22.6800;-5.9500
1332.0130;-28.6900;-22.8400;-5.8500
1332.2120;-28.7700;-22.9700;-5.8000
1332.4120;-28.8300;-23.1200;-5.7100
1332.6110;-28.9100;-23.2800;-5.6300
1332.8100;-28.9600;-23.4200;-5.5400
1333.0090;-29.0200;-23.5800;-5.4400
1333.2080;-29.0900;-23.7200;-5.3700
1333.4070;-29.1400;-23.8800;-5.2600
1333.6060;-29.2100;-24.0200;-5.1900
1333.8050;-29.2700;-24.1800;-5.0900
1334.0040;-29.3400;-24.3300;-5.0100
1334.2040;-29.3900;-24.4800;-4.9100
1334.4030;-29.4500;-24.6500;-4.8000
1334.6020;-29.5300;-24.7900;-4.7400
1334.8010;-29.5900;-24.9500;-4.6400
1335.0000;-29.6700;-25.1100;-4.5600
1335.1990;-29.7300;-25.2600;-4.4700
1335.3980;-29.8100;-25.4300;-4.3800
1335.5970;-29.8900;-25.5700;-4.3200
1335.7970;-29.9700;-25.7400;-4.2300
1335.9960;-30.0700;-25.9000;-4.1700
1336.1950;-30.1500;-26.0600;-4.0900
1336.3940;-30.2400;-26.2200;-4.0200
1336.5930;-30.3300;-26.3700;-3.9600
1336.7920;-30.4100;-26.5400;-3.8700
1336.9910;-30.5200;-26.6900;-3.8300
1337.1900;-30.6200;-26.8600;-3.7600
1337.3890;-30.7400;-27.0200;-3.7200
1337.5890;-30.8400;-27.1800;-3.6600
1337.7880;-30.9500;-27.3500;-3.6000
1337.9870;-31.0700;-27.5100;-3.5600
1338.1860;-31.1900;-27.6800;-3.5100
1338.3850;-31.3200;-27.8300;-3.4900
1338.5840;-31.4400;-28.0000;-3.4400
1338.7830;-31.5700;-28.1600;-3.4100
1338.9820;-31.7000;-28.3200;-3.3800
1339.1810;-31.8400;-28.5300;-3.3100
1339.3810;-32.0000;-28.6700;-3.3300
1339.5800;-32.1400;-28.8400;-3.3000
1339.7790;-32.2900;-29.0000;-3.2900
1339.9780;-32.4400;-29.1800;-3.2600
1340.1770;-32.6100;-29.3500;-3.2600
1340.3760;-32.7800;-29.5200;-3.2600
1340.5750;-32.9600;-29.7100;-3.2500
1340.7740;-33.1400;-29.8700;-3.2700
1340.9740;-33.3000;-30.0400;-3.2600
1341.1730;-33.4800;-30.2000;-3.2800
1341.3720;-33.6600;-30.3700;-3.2900
1341.5710;-33.8500;-30.5400;-3.3100
1341.7700;-34.0500;-30.7100;-3.3400
1341.9690;-34.2400;-30.8900;-3.3500
1342.1680;-34.4500;-31.0500;-3.4000
1342.3670;-34.6400;-31.2300;-3.4100
1342.5660;-34.8500;-31.3900;-3.4600
1342.7660;-35.0700;-31.5600;-3.5100
1342.9650;-35.2800;-31.7400;-3.5400
1343.1640;-35.5200;-31.9100;-3.6100
1343.3630;-35.7400;-32.0900;-3.6500
1343.5620;-35.9700;-32.2500;-3.7200
1343.7610;-36.2100;-32.4200;-3.7900
1343.9600;-36.4500;-32.6000;-3.8500
1344.1590;-36.7100;-32.7800;-3.9300
1344.3580;-36.9600;-32.9600;-4.0000
1344.5580;-37.2200;-33.1300;-4.0900
1344.7570;-37.4800;-33.3000;-4.1800
1344.9560;-37.7300;-33.4700;-4.2600
1345.1550;-38.0000;-33.6300;-4.3700
1345.3540;-38.2600;-33.8000;-4.4600
1345.5530;-38.6000;-33.9600;-4.6400
1345.7520;-38.8200;-34.1400;-4.6800
1345.9510;-39.1200;-34.3000;-4.8200
1346.1500;-39.4100;-34.4600;-4.9500
1346.3500;-39.7100;-34.6500;-5.0600
1346.5490;-40.0300;-34.8200;-5.2100
1346.7480;-40.3300;-35.0000;-5.3300
1346.9470;-40.6500;-35.1500;-5.5000
1347.1460;-40.9600;-35.3100;-5.6500
1347.3450;-41.2700;-35.4700;-5.8000
1347.5440;-41.6400;-35.6700;-5.9700
1347.7430;-42.0200;-35.9000;-6.1200
1347.9430;-42.4000;-36.0800;-6.3200
1348.1420;-42.7500;-36.2400;-6.5100
1348.3410;-43.1300;-36.4200;-6.7100
1348.5400;-43.4500;-36.5500;-6.9000
1348.7390;-43.8000;-36.7100;-7.0900
1348.9380;-44.1700;-36.8400;-7.3300
1349.1370;-44.5300;-37.0000;-7.5300
1349.3360;-44.9000;-37.1300;-7.7700
1349.5350;-45.2800;-37.2700;-8.0100
1349.7350;-45.6700;-37.4200;-8.2500
1349.9340;-46.0700;-37.5800;-8.4900
1350.1330;-46.5100;-37.7700;-8.7400
1350.3320;-47.0100;-37.9900;-9.0200
1350.5310;-47.4800;-38.1800;-9.3000
1350.7300;-47.9200;-38.3400;-9.5800
1350.9290;-48.3500;-38.4800;-9.8700
1351.1280;-48.8400;-38.5800;-10.2600
1351.3270;-49.2200;-38.7100;-10.5100
1351.5270;-49.6900;-38.8800;-10.8100
1351.7260;-50.2200;-39.0900;-11.1300
1351.9250;-50.7200;-39.2700;-11.4500
1352.1240;-51.2300;-39.4100;-11.8200
1352.3230;-51.7000;-39.5700;-12.1300
1352.5220;-52.2200;-39.7600;-12.4600
1352.7210;-52.6600;-39.8800;-12.7800
1352.9200;-53.1100;-40.0400;-13.0700
1353.1200;-53.6400;-40.2600;-13.3800
1353.3190;-53.9800;-40.3500;-13.6300
1353.5180;-54.3800;-40.5000;-13.8800
1353.7170;-54.7300;-40.6500;-14.0800
1353.9160;-54.9700;-40.7400;-14.2300
1354.1150;-55.2000;-40.8700;-14.3300
1354.3140;-55.4600;-41.0800;-14.3800
1354.5130;-55.6400;-41.2400;-14.4000
1354.7120;-55.8900;-41.5400;-14.3500
1354.9120;-56.0500;-41.8000;-14.2500
1355.1110;-56.0500;-41.9500;-14.1000
1355.3100;-55.9500;-42.0600;-13.8900
1355.5090;-55.6900;-42.0300;-13.6600
1355.7080;-55.7000;-42.2800;-13.4200
1355.9070;-55.6900;-42.5200;-13.1700
1356.1060;-55.4900;-42.6600;-12.8300
1356.3050;-55.2100;-42.7200;-12.4900
1356.5040;-54.9500;-42.7900;-12.1600
1356.7040;-54.5500;-42.7000;-11.8500
1356.9030;-54.3500;-42.8200;-11.5300
1357.1020;-54.4000;-43.1700;-11.2300
1357.3010;-54.2700;-43.3700;-10.9000
1357.5000;-54.0700;-43.5200;-10.5500
1357.6990;-53.9100;-43.6800;-10.2300
1357.8980;-53.6400;-43.7000;-9.9400
1358.0970;-53.3700;-43.7400;-9.6300
1358.2970;-53.2500;-43.8900;-9.3600
1358.4960;-53.1800;-44.0900;-9.0900
1358.6950;-53.0200;-44.2100;-8.8100
1358.8940;-52.8600;-44.3300;-8.5300
1359.0930;-52.7200;-44.4600;-8.2600
1359.2920;-52.5100;-44.4700;-8.0400
1359.4910;-52.6300;-44.8200;-7.8100
1359.6900;-52.6900;-45.0900;-7.6000
1359.8890;-52.6100;-45.2600;-7.3500
1360.0890;-52.4300;-45.2900;-7.1400
1360.2880;-52.2200;-45.2800;-6.9400
1360.4870;-51.9900;-45.2600;-6.7300
1360.6860;-51.9500;-45.3900;-6.5600
1360.8850;-52.1000;-45.7100;-6.3900
1361.0840;-52.2000;-45.9800;-6.2200
1361.2830;-52.1500;-46.1200;-6.0300
1361.4820;-52.1200;-46.2600;-5.8600
1361.6810;-52.1900;-46.4400;-5.7500
1361.8810;-52.1500;-46.5600;-5.5900
1362.0800;-52.2100;-46.7500;-5.4600
1362.2790;-52.4900;-47.1500;-5.3400
1362.4780;-52.5800;-47.3600;-5.2200
1362.6770;-52.5500;-47.4700;-5.0800
1362.8760;-52.2900;-47.3400;-4.9500
1363.0750;-52.1100;-47.2400;-4.8700
1363.2740;-51.7500;-46.9900;-4.7600
1363.4740;-51.7400;-47.0400;-4.7000
1363.6730;-51.7200;-47.1100;-4.6100
1363.8720;-51.7700;-47.2400;-4.5300
1364.0710;-51.8900;-47.4300;-4.4600
1364.2700;-51.9900;-47.6100;-4.3800
1364.4690;-52.2300;-47.9000;-4.3300
1364.6680;-52.6600;-48.3900;-4.2700
1364.8670;-52.8300;-48.6100;-4.2200
1365.0660;-52.7200;-48.5600;-4.1600
1365.2660;-52.8500;-48.6900;-4.1600
1365.4650;-52.7300;-48.6100;-4.1200
1365.6640;-52.7500;-48.6700;-4.0800
1365.8630;-52.7600;-48.6900;-4.0700
1366.0620;-52.7200;-48.6700;-4.0500
1366.2610;-52.6900;-48.6400;-4.0500
1366.4600;-52.7300;-48.6900;-4.0400
1366.6590;-52.8800;-48.8400;-4.0400
1366.8580;-53.1000;-49.0600;-4.0400
1367.0580;-53.2400;-49.1800;-4.0600
1367.2570;-53.3500;-49.2700;-4.0800
1367.4560;-53.6100;-49.5200;-4.0900
1367.6550;-53.8100;-49.6800;-4.1300
1367.8540;-54.1000;-49.9300;-4.1700
1368.0530;-54.2400;-50.0400;-4.2000
1368.2520;-54.2400;-49.9900;-4.2500
1368.4510;-54.6000;-50.3200;-4.2800
1368.6500;-54.7300;-50.3800;-4.3500
1368.8500;-54.8700;-50.4700;-4.4000
1369.0490;-54.9100;-50.4200;-4.4900
1369.2480;-54.9100;-50.3600;-4.5500
1369.4470;-54.8800;-50.2800;-4.6000
1369.6460;-55.0500;-50.3600;-4.6900
1369.8450;-55.4300;-50.6900;-4.7400
1370.0440;-55.7100;-50.8500;-4.8600
1370.2430;-55.9200;-50.9600;-4.9600
1370.4430;-56.0600;-50.9800;-5.0800
1370.6420;-56.1500;-50.9700;-5.1800
1370.8410;-56.5300;-51.2900;-5.2400
1371.0400;-56.9100;-51.5300;-5.3800
1371.2390;-57.2000;-51.7000;-5.5000
1371.4380;-57.3600;-51.6700;-5.6900
1371.6370;-57.4000;-51.6200;-5.7800
1371.8360;-57.5100;-51.5700;-5.9400
1372.0350;-57.8100;-51.7400;-6.0700
1372.2350;-58.1600;-51.9400;-6.2200
1372.4340;-58.4500;-52.0000;-6.4500
1372.6330;-58.6400;-52.0600;-6.5800
1372.8320;-58.8200;-52.0600;-6.7600
1373.0310;-59.0000;-52.0700;-6.9300
1373.2300;-59.3000;-52.1800;-7.1200
1373.4290;-59.6100;-52.3100;-7.3000
1373.6280;-59.9200;-52.3900;-7.5300
1373.8270;-60.1800;-52.4500;-7.7300
1374.0270;-60.5000;-52.5400;-7.9600
1374.2260;-60.7900;-52.6100;-8.1800
1374.4250;-61.1200;-52.7300;-8.3900
1374.6240;-61.4900;-52.8400;-8.6500
1374.8230;-61.9100;-53.0000;-8.9100
1375.0220;-62.3100;-53.1600;-9.1500
1375.2210;-62.6300;-53.2100;-9.4200
1375.4200;-62.9300;-53.2500;-9.6800
1375.6200;-63.2400;-53.3000;-9.9400
1375.8190;-63.6000;-53.3900;-10.2100
1376.0180;-64.0000;-53.5200;-10.4800
1376.2170;-64.3900;-53.6200;-10.7700
1376.4160;-64.7300;-53.7100;-11.0200
1376.6150;-65.1100;-53.7700;-11.3400
1376.8140;-65.4300;-53.9100;-11.5200
1377.0130;-65.9600;-54.1300;-11.8300
1377.2120;-66.3500;-54.2700;-12.0800
1377.4120;-66.5700;-54.3300;-12.2400
1377.6110;-66.8100;-54.3600;-12.4500
1377.8100;-66.9000;-54.3000;-12.6000
1378.0090;-67.0400;-54.3400;-12.7000
1378.2080;-67.2300;-54.4200;-12.8100
1378.4070;-67.4300;-54.5700;-12.8600
1378.6060;-67.6800;-54.8000;-12.8800
1378.8050;-67.8700;-55.0800;-12.7900
1379.0040;-67.9900;-55.1800;-12.8100
1379.2040;-67.8800;-55.2200;-12.6600
1379.4030;-67.6600;-55.1600;-12.5000
1379.6020;-67.5000;-55.1100;-12.3900
1379.8010;-67.1500;-55.1400;-12.0100
1380.0000;-67.1400;-55.2600;-11.8800
1380.1990;-67.0400;-55.4100;-11.6300
1380.3980;-66.9700;-55.5900;-11.3800
1380.5970;-67.1800;-56.1300;-11.0500
1380.7970;-67.3400;-56.5600;-10.7800
1380.9960;-67.1700;-56.7000;-10.4700
1381.1950;-66.8000;-56.6700;-10.1300
1381.3940;-66.2800;-56.3700;-9.9100
1381.5930;-65.7400;-56.1000;-9.6400
1381.7920;-65.4100;-56.1200;-9.2900
1381.9910;-65.1400;-56.1400;-9.0000
1382.1900;-64.9900;-56.2400;-8.7500
1382.3890;-65.0200;-56.5300;-8.4900
1382.5890;-65.3000;-57.0600;-8.2400
1382.7880;-65.4400;-57.5100;-7.9300
1382.9870;-65.3600;-57.7200;-7.6400
1383.1860;-64.8800;-57.4500;-7.4300
1383.3850;-64.3200;-57.1600;-7.1600
1383.5840;-63.9100;-56.9600;-6.9500
1383.7830;-63.8100;-57.0600;-6.7500
1383.9820;-63.6900;-57.1800;-6.5100
1384.1810;-63.5100;-57.2000;-6.3100
1384.3810;-63.3000;-57.1900;-6.1100
1384.5800;-63.1000;-57.1400;-5.9600
1384.7790;-62.9700;-57.2100;-5.7600
1384.9780;-63.0800;-57.5000;-5.5800
1385.1770;-63.0800;-57.6900;-5.3900
1385.3760;-63.0200;-57.7900;-5.2300
1385.5750;-62.8300;-57.7100;-5.1200
1385.7740;-62.6600;-57.7400;-4.9200
1385.9740;-62.5100;-57.7100;-4.8000
1386.1730;-62.4100;-57.7300;-4.6800
1386.3720;-62.4100;-57.8700;-4.5400
1386.5710;-62.2900;-57.8800;-4.4100
1386.7700;-62.1700;-57.8900;-4.2800
1386.9690;-62.1000;-57.9200;-4.1800
1387.1680;-61.9800;-57.9300;-4.0500
1387.3670;-61.9300;-57.9700;-3.9600
1387.5660;-61.8900;-58.0300;-3.8600
1387.7660;-62.0900;-58.3200;-3.7700
1387.9650;-62.2500;-58.6100;-3.6400
1388.1640;-62.4200;-58.8200;-3.6000
1388.3630;-62.4700;-58.9300;-3.5400
1388.5620;-62.3000;-58.8600;-3.4400
1388.7610;-62.1000;-58.7100;-3.3900
1388.9600;-62.0000;-58.6600;-3.3400
1389.1590;-61.8900;-58.6000;-3.2900
1389.3580;-61.8200;-58.6300;-3.1900
1389.5580;-61.8500;-58.6900;-3.1600
1389.7570;-61.8700;-58.7700;-3.1000
1389.9560;-61.9700;-58.9200;-3.0500
1390.1550;-62.0400;-58.9700;-3.0700
1390.3540;-62.0200;-59.0100;-3.0100
1390.5530;-62.0500;-59.0400;-3.0100
1390.7520;-62.0000;-59.0500;-2.9500
1390.9510;-62.0400;-59.1100;-2.9300
1391.1500;-62.1200;-59.1700;-2.9500
1391.3500;-62.1600;-59.2200;-2.9400
1391.5490;-62.2300;-59.3000;-2.9300
1391.7480;-62.2500;-59.3600;-2.8900
1391.9470;-62.3300;-59.4400;-2.8900
1392.1460;-62.5200;-59.6100;-2.9100
1392.3450;-62.7200;-59.8200;-2.9000
1392.5440;-63.1500;-60.2300;-2.9200
1392.7430;-63.2900;-60.3800;-2.9100
1392.9430;-63.2800;-60.3000;-2.9800
1393.1420;-63.1900;-60.1400;-3.0500
1393.3410;-62.9600;-59.9200;-3.0400
1393.5400;-62.9500;-59.8900;-3.0600
1393.7390;-63.0300;-59.9500;-3.0800
1393.9380;-63.1600;-59.9800;-3.1800
1394.1370;-63.2800;-60.0800;-3.2000
1394.3360;-63.3500;-60.1300;-3.2200
1394.5350;-63.4900;-60.2100;-3.2800
1394.7350;-63.6500;-60.3200;-3.3300
1394.9340;-63.9600;-60.5900;-3.3700
1395.1330;-64.2700;-60.8200;-3.4500
1395.3320;-64.4200;-60.9100;-3.5100
1395.5310;-64.6500;-61.0300;-3.6200
1395.7300;-64.7100;-61.0200;-3.6900
1395.9290;-64.7100;-60.9400;-3.7700
1396.1280;-64.8200;-60.9300;-3.8900
1396.3270;-65.0000;-61.0800;-3.9200
1396.5270;-65.4000;-61.3300;-4.0700
1396.7260;-65.6600;-61.4800;-4.1800
1396.9250;-65.6900;-61.4200;-4.2700
1397.1240;-65.6400;-61.2700;-4.3700
1397.3230;-65.7000;-61.1900;-4.5100
1397.5220;-65.7700;-61.1500;-4.6200
1397.7210;-65.9400;-61.1700;-4.7700
1397.9200;-66.1000;-61.2200;-4.8800
1398.1200;-66.2800;-61.2600;-5.0200
1398.3190;-66.5100;-61.3300;-5.1800
1398.5180;-66.7600;-61.4100;-5.3500
1398.7170;-66.9400;-61.4700;-5.4700
1398.9160;-67.1400;-61.5200;-5.6200
1399.1150;-67.3200;-61.5800;-5.7400
1399.3140;-67.5600;-61.6800;-5.8800
1399.5130;-68.1000;-61.9700;-6.1300
1399.7120;-68.3100;-62.0800;-6.2300
1399.9120;-68.7600;-62.1600;-6.6000
1400.1110;-68.9800;-62.3100;-6.6700
1400.3100;-69.0600;-62.2800;-6.7800
1400.5090;-69.3700;-62.3300;-7.0400
1400.7080;-69.8800;-62.7300;-7.1500
1400.9070;-70.1500;-62.8000;-7.3500
1401.1060;-70.4200;-62.7600;-7.6600
1401.3050;-70.5500;-62.7600;-7.7900
1401.5040;-70.5500;-62.6400;-7.9100
1401.7040;-70.9900;-62.6600;-8.3300
1401.9030;-71.1200;-62.7100;-8.4100
1402.1020;-71.3500;-62.6800;-8.6700
1402.3010;-71.3700;-62.6500;-8.7200
1402.5000;-71.4100;-62.6600;-8.7500
1402.6990;-71.9900;-62.6900;-9.3000
1402.8980;-71.8600;-62.8200;-9.0400
1403.0970;-72.4400;-62.9200;-9.5200
1403.2970;-72.3300;-62.9800;-9.3500
1403.4960;-72.5800;-63.0300;-9.5500
1403.6950;-73.1000;-63.0800;-10.0200
1403.8940;-73.0400;-63.1800;-9.8600
1404.0930;-72.9000;-63.3000;-9.6000
1404.2920;-73.2200;-63.4300;-9.7900
1404.4910;-73.6800;-63.5100;-10.1700
1404.6900;-73.4900;-63.6100;-9.8800
1404.8890;-73.8200;-64.0700;-9.7500
1405.0890;-73.8800;-64.2300;-9.6500
1405.2880;-74.3700;-64.2500;-10.1200
1405.4870;-74.0300;-64.2300;-9.8000
1405.6860;-73.8600;-63.9400;-9.9200
1405.8850;-73.7100;-63.8800;-9.8300
1406.0840;-73.7500;-63.9400;-9.8100
1406.2830;-73.9300;-63.9700;-9.9600
1406.4820;-73.4100;-64.0200;-9.3900
1406.6810;-73.2400;-64.1900;-9.0500
1406.8810;-73.7200;-64.3500;-9.3700
1407.0800;-73.3600;-64.4900;-8.8700
1407.2790;-73.4800;-64.7300;-8.7500
1407.4780;-73.3200;-64.7900;-8.5300
1407.6770;-73.4000;-64.7800;-8.6200
1407.8760;-73.0500;-64.8000;-8.2500
1408.0750;-72.7900;-64.7600;-8.0300
1408.2740;-72.6000;-64.6700;-7.9300
1408.4740;-72.2000;-64.7400;-7.4600
1408.6730;-72.2900;-64.7900;-7.5000
1408.8720;-72.5300;-64.9000;-7.6300
1409.0710;-72.6700;-65.0400;-7.6300
1409.2700;-72.6300;-65.2600;-7.3700
1409.4690;-72.8300;-65.5900;-7.2400
1409.6680;-72.6000;-65.6500;-6.9500
1409.8670;-72.3400;-65.7100;-6.6300
1410.0660;-72.2800;-65.6000;-6.6800
1410.2660;-72.1000;-65.4500;-6.6500
1410.4650;-71.9200;-65.5300;-6.3900
1410.6640;-71.8600;-65.5700;-6.2900
1410.8630;-71.8000;-65.6500;-6.1500
1411.0620;-71.6500;-65.6400;-6.0100
1411.2610;-71.5700;-65.7700;-5.8000
1411.4600;-71.6800;-65.9300;-5.7500
1411.6590;-71.7600;-65.9500;-5.8100
1411.8580;-71.4300;-66.0700;-5.3600
1412.0580;-71.4500;-66.1100;-5.3400
1412.2570;-71.7200;-66.2200;-5.5000
1412.4560;-71.7200;-66.3500;-5.3700
1412.6550;-71.5900;-66.3800;-5.2100
1412.8540;-71.7200;-66.4500;-5.2700
1413.0530;-71.5600;-66.4900;-5.0700
1413.2520;-71.5300;-66.5200;-5.0100
1413.4510;-71.6200;-66.6400;-4.9800
1413.6500;-71.6300;-66.7600;-4.8700
1413.8500;-71.6400;-66.8200;-4.8200
1414.0490;-71.8300;-67.0900;-4.7400
1414.2480;-71.9600;-67.2000;-4.7600
1414.4470;-72.1700;-67.2300;-4.9400
1414.6460;-72.2000;-67.3600;-4.8400
1414.8450;-71.9600;-67.5100;-4.4500
1415.0440;-71.8800;-67.4100;-4.4700
1415.2430;-72.1100;-67.4900;-4.6200
1415.4430;-72.0900;-67.5300;-4.5600
1415.6420;-71.8500;-67.5200;-4.3300
1415.8410;-72.1700;-67.6500;-4.5200
1416.0400;-72.3600;-67.6900;-4.6700
1416.2390;-72.2600;-67.7300;-4.5300
1416.4380;-72.3900;-67.8100;-4.5800
1416.6370;-72.3800;-67.8200;-4.5600
1416.8360;-72.8600;-68.0000;-4.8600
1417.0350;-72.7500;-68.0200;-4.7300
1417.2350;-72.8500;-68.1700;-4.6800
1417.4340;-72.9100;-68.2800;-4.6300
1417.6330;-73.2800;-68.4700;-4.8100
1417.8320;-73.0200;-68.5400;-4.4800
1418.0310;-73.1600;-68.6700;-4.4900
1418.2300;-73.2400;-68.6700;-4.5700
1418.4290;-73.5000;-68.6000;-4.9000
1418.6280;-73.5100;-68.7000;-4.8100
1418.8270;-74.1800;-68.7800;-5.4000
1419.0270;-74.2900;-69.0600;-5.2300
1419.2260;-74.1700;-69.1200;-5.0500
1419.4250;-74.5800;-69.2900;-5.2900
1419.6240;-74.4900;-69.2900;-5.2000
1419.8230;-74.2500;-69.4200;-4.8300
1420.0220;-74.5800;-69.4600;-5.1200
1420.2210;-74.9900;-69.4500;-5.5400
1420.4200;-74.7100;-69.4600;-5.2500
1420.6200;-75.0800;-69.4900;-5.5900
1420.8190;-75.6200;-69.8400;-5.7800
1421.0180;-75.2600;-69.7700;-5.4900
1421.2170;-75.8000;-69.9900;-5.8100
1421.4160;-75.7700;-69.9100;-5.8600
1421.6150;-76.1500;-70.1300;-6.0200
1421.8140;-75.7200;-70.1100;-5.6100
1422.0130;-76.0800;-70.0200;-6.0600
1422.2120;-77.3900;-70.2400;-7.1500
1422.4120;-76.9000;-70.1800;-6.7200
1422.6110;-76.8600;-70.4900;-6.3700
1422.8100;-76.7000;-70.6000;-6.1000
1423.0090;-76.9500;-70.5900;-6.3600
1423.2080;-77.8200;-70.4200;-7.4000
1423.4070;-77.1900;-70.6400;-6.5500
1423.6060;-77.6000;-70.7900;-6.8100
1423.8050;-78.6200;-70.8600;-7.7600
1424.0040;-78.2500;-70.7900;-7.4600
1424.2040;-78.4100;-71.0800;-7.3300
1424.4030;-78.6800;-71.1400;-7.5400
1424.6020;-78.0300;-71.1100;-6.9200
1424.8010;-78.5400;-71.0700;-7.4700
1425.0000;-77.6600;-71.2100;-6.4500
