Wavelength;Intensity_Meas;Intensity_Ref;Difference_dB
1200.0000;-59.5200;-54.7600;-4.7600
1200.1990;-59.4400;-54.7300;-4.7100
1200.3980;-59.4100;-54.7000;-4.7100
1200.5970;-59.4700;-54.6700;-4.8000
1200.7970;-59.4500;-54.6400;-4.8100
1200.9960;-59.4000;-54.6100;-4.7900
1201.1950;-59.3600;-54.5600;-4.8000
1201.3940;-59.3700;-54.5300;-4.8400
1201.5930;-59.3700;-54.4900;-4.8800
1201.7920;-59.2900;-54.4200;-4.8700
1201.9910;-59.2500;-54.3800;-4.8700
1202.1900;-59.2300;-54.3300;-4.9000
1202.3890;-59.1700;-54.2800;-4.8900
1202.5890;-59.1600;-54.2200;-4.9400
1202.7880;-59.1200;-54.1600;-4.9600
1202.9870;-59.0200;-54.1200;-4.9000
1203.1860;-58.9900;-54.0600;-4.9300
1203.3850;-58.9700;-54.0100;-4.9600
1203.5840;-58.9400;-53.9700;-4.9700
1203.7830;-58.8400;-53.9100;-4.9300
1203.9820;-58.8100;-53.9000;-4.9100
1204.1810;-58.8200;-53.8400;-4.9800
1204.3810;-58.7600;-53.8000;-4.9600
1204.5800;-58.7000;-53.7700;-4.9300
1204.7790;-58.6800;-53.7300;-4.9500
1204.9780;-58.6700;-53.7100;-4.9600
1205.1770;-58.6500;-53.6600;-4.9900
1205.3760;-58.5800;-53.6500;-4.9300
1205.5750;-58.5900;-53.6300;-4.9600
1205.7740;-58.6000;-53.6000;-5.0000
1205.9740;-58.5900;-53.5900;-5.0000
1206.1730;-58.5500;-53.5600;-4.9900
1206.3720;-58.5500;-53.5400;-5.0100
1206.5710;-58.5700;-53.5200;-5.0500
1206.7700;-58.5700;-53.4900;-5.0800
1206.9690;-58.5400;-53.4600;-5.0800
1207.1680;-58.5300;-53.4200;-5.1100
1207.3670;-58.5000;-53.4000;-5.1000
1207.5660;-58.5300;-53.3700;-5.1600
1207.7660;-58.5000;-53.3200;-5.1800
1207.9650;-58.4700;-53.3000;-5.1700
1208.1640;-58.4500;-53.2500;-5.2000
1208.3630;-58.4400;-53.1900;-5.2500
1208.5620;-58.4100;-53.1500;-5.2600
1208.7610;-58.3600;-53.1100;-5.2500
1208.9600;-58.3200;-53.0500;-5.2700
1209.1590;-58.3100;-52.9800;-5.3300
1209.3580;-58.2600;-52.9300;-5.3300
1209.5580;-58.1900;-52.8900;-5.3000
1209.7570;-58.1600;-52.8200;-5.3400
1209.9560;-58.1400;-52.7700;-5.3700
1210.1550;-58.0800;-52.7100;-5.3700
1210.3540;-58.0100;-52.6500;-5.3600
1210.5530;-57.9800;-52.6200;-5.3600
1210.7520;-57.9800;-52.5600;-5.4200
1210.9510;-57.9200;-52.5200;-5.4000
1211.1500;-57.8700;-52.4600;-5.4100
1211.3500;-57.8300;-52.4100;-5.4200
1211.5490;-57.8000;-52.3900;-5.4100
1211.7480;-57.7900;-52.3300;-5.4600
1211.9470;-57.7500;-52.3000;-5.4500
1212.1460;-57.7100;-52.2600;-5.4500
1212.3450;-57.6700;-52.2200;-5.4500
1212.5440;-57.6700;-52.2100;-5.4600
1212.7430;-57.6300;-52.1700;-5.4600
1212.9430;-57.5700;-52.1400;-5.4300
1213.1420;-57.5800;-52.1000;-5.4800
1213.3410;-57.5500;-52.0700;-5.4800
1213.5400;-57.4900;-52.0500;-5.4400
1213.7390;-57.4400;-52.0000;-5.4400
1213.9380;-57.4200;-51.9800;-5.4400
1214.1370;-57.4000;-51.9300;-5.4700
1214.3360;-57.3200;-51.8800;-5.4400
1214.5350;-57.2700;-51.8600;-5.4100
1214.7350;-57.2400;-51.8100;-5.4300
1214.9340;-57.1600;-51.7600;-5.4000
1215.1330;-57.1200;-51.7000;-5.4200
1215.3320;-57.0400;-51.6400;-5.4000
1215.5310;-56.9700;-51.6100;-5.3600
1215.7300;-56.9100;-51.5400;-5.3700
1215.9290;-56.8300;-51.4900;-5.3400
1216.1280;-56.7600;-51.4200;-5.3400
1216.3270;-56.6700;-51.3600;-5.3100
1216.5270;-56.6200;-51.3100;-5.3100
1216.7260;-56.5500;-51.2400;-5.3100
1216.9250;-56.4400;-51.1800;-5.2600
1217.1240;-56.3700;-51.1100;-5.2600
1217.3230;-56.3000;-51.0500;-5.2500
1217.5220;-56.2100;-51.0100;-5.2000
1217.7210;-56.1300;-50.9400;-5.1900
1217.9200;-56.0600;-50.9000;-5.1600
1218.1200;-56.0000;-50.8300;-5.1700
1218.3190;-55.8800;-50.7900;-5.0900
1218.5180;-55.8500;-50.7500;-5.1000
1218.7170;-55.7500;-50.7000;-5.0500
1218.9160;-55.6900;-50.6700;-5.0200
1219.1150;-55.6300;-50.6100;-5.0200
1219.3140;-55.5600;-50.5700;-4.9900
1219.5130;-55.5000;-50.5400;-4.9600
1219.7120;-55.4400;-50.5100;-4.9300
1219.9120;-55.3900;-50.4700;-4.9200
1220.1110;-55.3100;-50.4200;-4.8900
1220.3100;-55.2500;-50.3800;-4.8700
1220.5090;-55.2100;-50.3400;-4.8700
1220.7080;-55.1300;-50.2900;-4.8400
1220.9070;-55.0500;-50.2600;-4.7900
1221.1060;-54.9900;-50.2000;-4.7900
1221.3050;-54.9300;-50.1400;-4.7900
1221.5040;-54.8500;-50.0900;-4.7600
1221.7040;-54.7700;-50.0200;-4.7500
1221.9030;-54.6900;-49.9700;-4.7200
1222.1020;-54.6100;-49.8900;-4.7200
1222.3010;-54.5300;-49.8300;-4.7000
1222.5000;-54.4500;-49.7600;-4.6900
1222.6990;-54.3600;-49.6900;-4.6700
1222.8980;-54.2800;-49.6300;-4.6500
1223.0970;-54.1900;-49.5400;-4.6500
1223.2970;-54.0900;-49.4700;-4.6200
1223.4960;-54.0100;-49.3900;-4.6200
1223.6950;-53.9200;-49.3100;-4.6100
1223.8940;-53.8300;-49.2500;-4.5800
1224.0930;-53.7400;-49.1700;-4.5700
1224.2920;-53.6600;-49.1000;-4.5600
1224.4910;-53.5900;-49.0300;-4.5600
1224.6900;-53.5000;-48.9600;-4.5400
1224.8890;-53.4100;-48.9100;-4.5000
1225.0890;-53.3500;-48.8400;-4.5100
1225.2880;-53.2700;-48.7700;-4.5000
1225.4870;-53.2100;-48.7200;-4.4900
1225.6860;-53.1400;-48.6600;-4.4800
1225.8850;-53.0900;-48.6200;-4.4700
1226.0840;-53.0500;-48.5500;-4.5000
1226.2830;-52.9900;-48.5000;-4.4900
1226.4820;-52.9500;-48.4400;-4.5100
1226.6810;-52.9000;-48.3800;-4.5200
1226.8810;-52.8600;-48.3400;-4.5200
1227.0800;-52.8200;-48.2700;-4.5500
1227.2790;-52.7800;-48.2200;-4.5600
1227.4780;-52.7400;-48.1600;-4.5800
1227.6770;-52.7000;-48.1000;-4.6000
1227.8760;-52.6600;-48.0400;-4.6200
1228.0750;-52.6200;-47.9600;-4.6600
1228.2740;-52.5700;-47.8900;-4.6800
1228.4740;-52.5300;-47.8300;-4.7000
1228.6730;-52.4700;-47.7500;-4.7200
1228.8720;-52.4200;-47.6800;-4.7400
1229.0710;-52.3700;-47.5900;-4.7800
1229.2700;-52.3100;-47.5100;-4.8000
1229.4690;-52.2400;-47.4300;-4.8100
1229.6680;-52.1800;-47.3500;-4.8300
1229.8670;-52.1000;-47.2700;-4.8300
1230.0660;-52.0600;-47.1800;-4.8800
1230.2660;-51.9600;-47.0900;-4.8700
1230.4650;-51.8900;-47.0100;-4.8800
1230.6640;-51.8200;-46.9200;-4.9000
1230.8630;-51.7700;-46.8600;-4.9100
1231.0620;-51.7100;-46.7700;-4.9400
1231.2610;-51.6500;-46.7100;-4.9400
1231.4600;-51.6100;-46.6500;-4.9600
1231.6590;-51.5400;-46.5700;-4.9700
1231.8580;-51.4800;-46.5100;-4.9700
1232.0580;-51.4400;-46.4400;-5.0000
1232.2570;-51.3800;-46.3800;-5.0000
1232.4560;-51.3400;-46.3300;-5.0100
1232.6550;-51.2800;-46.2600;-5.0200
1232.8540;-51.2300;-46.2000;-5.0300
1233.0530;-51.2000;-46.1400;-5.0600
1233.2520;-51.1300;-46.0700;-5.0600
1233.4510;-51.0700;-46.0100;-5.0600
1233.6500;-51.0100;-45.9400;-5.0700
1233.8500;-50.9400;-45.8900;-5.0500
1234.0490;-50.8800;-45.8000;-5.0800
1234.2480;-50.7900;-45.7500;-5.0400
1234.4470;-50.7200;-45.6600;-5.0600
1234.6460;-50.6200;-45.6000;-5.0200
1234.8450;-50.5300;-45.5200;-5.0100
1235.0440;-50.4400;-45.4400;-5.0000
1235.2430;-50.3300;-45.3800;-4.9500
1235.4430;-50.2300;-45.2700;-4.9600
1235.6420;-50.1200;-45.2000;-4.9200
1235.8410;-50.0000;-45.1000;-4.9000
1236.0400;-49.9000;-45.0100;-4.8900
1236.2390;-49.7700;-44.9200;-4.8500
1236.4380;-49.6600;-44.8100;-4.8500
1236.6370;-49.5400;-44.7300;-4.8100
1236.8360;-49.4200;-44.6400;-4.7800
1237.0350;-49.3200;-44.5500;-4.7700
1237.2350;-49.2000;-44.4700;-4.7300
1237.4340;-49.1000;-44.3600;-4.7400
1237.6330;-48.9900;-44.2900;-4.7000
1237.8320;-48.9000;-44.2100;-4.6900
1238.0310;-48.7900;-44.1100;-4.6800
1238.2300;-48.6900;-44.0500;-4.6400
1238.4290;-48.6000;-43.9500;-4.6500
1238.6280;-48.4900;-43.8800;-4.6100
1238.8270;-48.3900;-43.7900;-4.6000
1239.0270;-48.3000;-43.7200;-4.5800
1239.2260;-48.1800;-43.6500;-4.5300
1239.4250;-48.0900;-43.5500;-4.5400
1239.6240;-47.9800;-43.4800;-4.5000
1239.8230;-47.8700;-43.3900;-4.4800
1240.0220;-47.7600;-43.3100;-4.4500
1240.2210;-47.6400;-43.2300;-4.4100
1240.4200;-47.5300;-43.1300;-4.4000
1240.6200;-47.4100;-43.0500;-4.3600
1240.8190;-47.2900;-42.9400;-4.3500
1241.0180;-47.1500;-42.8300;-4.3200
1241.2170;-47.0200;-42.7300;-4.2900
1241.4160;-46.9100;-42.6200;-4.2900
1241.6150;-46.7700;-42.5000;-4.2700
1241.8140;-46.6500;-42.3900;-4.2600
1242.0130;-46.5300;-42.2700;-4.2600
1242.2120;-46.4100;-42.1700;-4.2400
1242.4120;-46.3100;-42.0400;-4.2700
1242.6110;-46.1800;-41.9300;-4.2500
1242.8100;-46.0900;-41.8000;-4.2900
1243.0090;-45.9700;-41.6800;-4.2900
1243.2080;-45.8700;-41.5700;-4.3000
1243.4070;-45.7900;-41.4500;-4.3400
1243.6060;-45.6900;-41.3300;-4.3600
1243.8050;-45.6200;-41.2100;-4.4100
1244.0040;-45.5300;-41.0900;-4.4400
1244.2040;-45.4700;-40.9900;-4.4800
1244.4030;-45.3900;-40.8700;-4.5200
1244.6020;-45.3100;-40.7600;-4.5500
1244.8010;-45.2600;-40.6400;-4.6200
1245.0000;-45.1900;-40.5300;-4.6600
1245.1990;-45.1400;-40.4300;-4.7100
1245.3980;-45.0700;-40.3100;-4.7600
1245.5970;-45.0000;-40.2000;-4.8000
1245.7970;-44.9500;-40.0800;-4.8700
1245.9960;-44.8700;-39.9600;-4.9100
1246.1950;-44.8200;-39.8600;-4.9600
1246.3940;-44.7500;-39.7300;-5.0200
1246.5930;-44.6800;-39.6000;-5.0800
1246.7920;-44.6200;-39.4800;-5.1400
1246.9910;-44.5500;-39.3400;-5.2100
1247.1900;-44.4900;-39.2300;-5.2600
1247.3890;-44.4200;-39.0900;-5.3300
1247.5890;-44.3400;-38.9600;-5.3800
1247.7880;-44.2900;-38.8200;-5.4700
1247.9870;-44.2100;-38.6800;-5.5300
1248.1860;-44.1600;-38.5600;-5.6000
1248.3850;-44.0800;-38.4100;-5.6700
1248.5840;-44.0100;-38.2800;-5.7300
1248.7830;-43.9600;-38.1400;-5.8200
1248.9820;-43.9000;-38.0100;-5.8900
1249.1810;-43.8600;-37.8800;-5.9800
1249.3810;-43.8000;-37.7400;-6.0600
1249.5800;-43.7300;-37.6100;-6.1200
1249.7790;-43.7000;-37.4700;-6.2300
1249.9780;-43.6300;-37.3300;-6.3000
1250.1770;-43.5900;-37.2200;-6.3700
1250.3760;-43.5300;-37.0800;-6.4500
1250.5750;-43.4700;-36.9500;-6.5200
1250.7740;-43.4200;-36.8200;-6.6000
1250.9740;-43.3600;-36.7000;-6.6600
1251.1730;-43.3100;-36.5800;-6.7300
1251.3720;-43.2200;-36.4400;-6.7800
1251.5710;-43.1600;-36.3400;-6.8200
1251.7700;-43.0800;-36.2000;-6.8800
1251.9690;-42.9800;-36.0700;-6.9100
1252.1680;-42.8900;-35.9400;-6.9500
1252.3670;-42.7600;-35.7800;-6.9800
1252.5660;-42.6500;-35.6800;-6.9700
1252.7660;-42.5200;-35.5400;-6.9800
1252.9650;-42.3800;-35.4300;-6.9500
1253.1640;-42.2400;-35.2800;-6.9600
1253.3630;-42.0700;-35.1400;-6.9300
1253.5620;-41.9100;-35.0200;-6.8900
1253.7610;-41.7300;-34.8800;-6.8500
1253.9600;-41.5500;-34.7600;-6.7900
1254.1590;-41.3700;-34.6100;-6.7600
1254.3580;-41.1600;-34.4800;-6.6800
1254.5580;-40.9700;-34.3500;-6.6200
1254.7570;-40.7600;-34.2100;-6.5500
1254.9560;-40.5400;-34.0800;-6.4600
1255.1550;-40.3500;-33.9500;-6.4000
1255.3540;-40.1300;-33.8200;-6.3100
1255.5530;-39.9300;-33.7000;-6.2300
1255.7520;-39.7000;-33.5700;-6.1300
1255.9510;-39.4800;-33.4500;-6.0300
1256.1500;-39.2800;-33.3100;-5.9700
1256.3500;-39.0500;-33.1900;-5.8600
1256.5490;-38.8500;-33.0700;-5.7800
1256.7480;-38.6200;-32.9400;-5.6800
1256.9470;-38.3900;-32.8200;-5.5700
1257.1460;-38.1700;-32.6900;-5.4800
1257.3450;-37.9300;-32.5600;-5.3700
1257.5440;-37.7200;-32.4400;-5.2800
1257.7430;-37.4800;-32.3100;-5.1700
1257.9430;-37.2400;-32.1900;-5.0500
1258.1420;-37.0200;-32.0600;-4.9600
1258.3410;-36.7800;-31.9400;-4.8400
1258.5400;-36.5700;-31.8100;-4.7600
1258.7390;-36.3200;-31.6800;-4.6400
1258.9380;-36.0900;-31.5500;-4.5400
1259.1370;-35.8300;-31.4200;-4.4100
1259.3360;-35.6400;-31.3000;-4.3400
1259.5350;-35.4200;-31.1700;-4.2500
1259.7350;-35.1900;-31.0400;-4.1500
1259.9340;-34.9800;-30.9100;-4.0700
1260.1330;-34.7600;-30.7800;-3.9800
1260.3320;-34.5500;-30.6600;-3.8900
1260.5310;-34.3400;-30.5300;-3.8100
1260.7300;-34.1400;-30.4100;-3.7300
1260.9290;-33.9400;-30.2900;-3.6500
1261.1280;-33.7400;-30.1500;-3.5900
1261.3270;-33.5600;-30.0400;-3.5200
1261.5270;-33.3800;-29.9200;-3.4600
1261.7260;-33.1900;-29.8000;-3.3900
1261.9250;-33.0300;-29.6800;-3.3500
1262.1240;-32.8400;-29.5500;-3.2900
1262.3230;-32.6700;-29.4400;-3.2300
1262.5220;-32.5100;-29.3200;-3.1900
1262.7210;-32.3400;-29.2000;-3.1400
1262.9200;-32.1800;-29.0800;-3.1000
1263.1200;-32.0200;-28.9600;-3.0600
1263.3190;-31.8700;-28.8400;-3.0300
1263.5180;-31.7100;-28.7200;-2.9900
1263.7170;-31.5600;-28.6000;-2.9600
1263.9160;-31.4200;-28.4800;-2.9400
1264.1150;-31.2600;-28.3500;-2.9100
1264.3140;-31.1200;-28.2400;-2.8800
1264.5130;-30.9800;-28.1100;-2.8700
1264.7120;-30.8400;-27.9900;-2.8500
1264.9120;-30.7200;-27.8600;-2.8600
1265.1110;-30.5800;-27.7400;-2.8400
1265.3100;-30.4700;-27.6200;-2.8500
1265.5090;-30.3500;-27.4900;-2.8600
1265.7080;-30.2300;-27.3800;-2.8500
1265.9070;-30.1300;-27.2600;-2.8700
1266.1060;-30.0200;-27.1300;-2.8900
1266.3050;-29.9400;-27.0300;-2.9100
1266.5040;-29.8500;-26.9100;-2.9400
1266.7040;-29.7700;-26.8000;-2.9700
1266.9030;-29.6900;-26.6800;-3.0100
1267.1020;-29.6100;-26.5700;-3.0400
1267.3010;-29.5500;-26.4700;-3.0800
1267.5000;-29.4900;-26.3500;-3.1400
1267.6990;-29.4300;-26.2500;-3.1800
1267.8980;-29.3800;-26.1300;-3.2500
1268.0970;-29.3400;-26.0200;-3.3200
1268.2970;-29.3100;-25.9100;-3.4000
1268.4960;-29.2600;-25.8200;-3.4400
1268.6950;-29.2200;-25.7100;-3.5100
1268.8940;-29.1900;-25.5900;-3.6000
1269.0930;-29.1500;-25.4900;-3.6600
1269.2920;-29.1400;-25.3700;-3.7700
1269.4910;-29.1100;-25.2600;-3.8500
1269.6900;-29.0900;-25.1500;-3.9400
1269.8890;-29.0800;-25.0300;-4.0500
1270.0890;-29.0600;-24.9300;-4.1300
1270.2880;-29.0600;-24.8000;-4.2600
1270.4870;-29.0600;-24.7000;-4.3600
1270.6860;-29.0600;-24.5900;-4.4700
1270.8850;-29.0700;-24.4700;-4.6000
1271.0840;-29.0800;-24.3700;-4.7100
1271.2830;-29.1100;-24.2600;-4.8500
1271.4820;-29.1300;-24.1500;-4.9800
1271.6810;-29.1700;-24.0500;-5.1200
1271.8810;-29.2000;-23.9400;-5.2600
1272.0800;-29.2400;-23.8500;-5.3900
1272.2790;-29.3000;-23.7300;-5.5700
1272.4780;-29.3500;-23.6400;-5.7100
1272.6770;-29.4200;-23.5400;-5.8800
1272.8760;-29.4800;-23.4300;-6.0500
1273.0750;-29.5500;-23.3400;-6.2100
1273.2740;-29.6400;-23.2300;-6.4100
1273.4740;-29.7100;-23.1300;-6.5800
1273.6730;-29.8000;-23.0300;-6.7700
1273.8720;-29.8800;-22.9300;-6.9500
1274.0710;-29.9700;-22.8400;-7.1300
1274.2700;-30.0600;-22.7300;-7.3300
1274.4690;-30.1500;-22.6300;-7.5200
1274.6680;-30.2500;-22.5200;-7.7300
1274.8670;-30.3400;-22.4100;-7.9300
1275.0660;-30.4300;-22.3200;-8.1100
1275.2660;-30.5200;-22.2000;-8.3200
1275.4650;-30.6000;-22.1100;-8.4900
1275.6640;-30.7100;-22.0100;-8.7000
1275.8630;-30.7800;-21.9100;-8.8700
1276.0620;-30.8700;-21.8100;-9.0600
1276.2610;-30.9400;-21.7100;-9.2300
1276.4600;-31.0000;-21.6200;-9.3800
1276.6590;-31.0700;-21.5100;-9.5600
1276.8580;-31.1100;-21.4200;-9.6900
1277.0580;-31.1600;-21.3400;-9.8200
1277.2570;-31.1900;-21.2300;-9.9600
1277.4560;-31.2100;-21.1600;-10.0500
1277.6550;-31.2200;-21.0600;-10.1600
1277.8540;-31.2100;-20.9700;-10.2400
1278.0530;-31.1900;-20.8800;-10.3100
1278.2520;-31.1300;-20.7900;-10.3400
1278.4510;-31.0600;-20.7200;-10.3400
1278.6500;-30.9900;-20.6200;-10.3700
1278.8500;-30.8800;-20.5300;-10.3500
1279.0490;-30.7700;-20.4400;-10.3300
1279.2480;-30.6100;-20.3500;-10.2600
1279.4470;-30.4500;-20.2800;-10.1700
1279.6460;-30.2800;-20.1800;-10.1000
1279.8450;-30.0800;-20.1000;-9.9800
1280.0440;-29.8800;-20.0100;-9.8700
1280.2430;-29.6500;-19.9100;-9.7400
1280.4430;-29.4300;-19.8400;-9.5900
1280.6420;-29.1900;-19.7500;-9.4400
1280.8410;-28.9300;-19.6700;-9.2600
1281.0400;-28.6900;-19.5800;-9.1100
1281.2390;-28.4100;-19.4900;-8.9200
1281.4380;-28.1500;-19.4200;-8.7300
1281.6370;-27.8700;-19.3300;-8.5400
1281.8360;-27.6000;-19.2600;-8.3400
1282.0350;-27.3300;-19.1700;-8.1600
1282.2350;-27.0500;-19.0900;-7.9600
1282.4340;-26.7900;-19.0100;-7.7800
1282.6330;-26.5200;-18.9400;-7.5800
1282.8320;-26.2500;-18.8700;-7.3800
1283.0310;-25.9400;-18.7800;-7.1600
1283.2300;-25.7200;-18.7100;-7.0100
1283.4290;-25.4800;-18.6400;-6.8400
1283.6280;-25.2100;-18.5600;-6.6500
1283.8270;-24.9700;-18.4900;-6.4800
1284.0270;-24.7100;-18.4100;-6.3000
1284.2260;-24.4700;-18.3400;-6.1300
1284.4250;-24.2300;-18.2700;-5.9600
1284.6240;-23.9900;-18.1900;-5.8000
1284.8230;-23.7800;-18.1300;-5.6500
1285.0220;-23.5400;-18.0400;-5.5000
1285.2210;-23.3200;-17.9700;-5.3500
1285.4200;-23.1000;-17.9000;-5.2000
1285.6200;-22.8800;-17.8300;-5.0500
1285.8190;-22.6800;-17.7700;-4.9100
1286.0180;-22.4800;-17.6900;-4.7900
1286.2170;-22.2800;-17.6200;-4.6600
1286.4160;-22.0800;-17.5400;-4.5400
1286.6150;-21.9000;-17.4800;-4.4200
1286.8140;-21.7300;-17.4300;-4.3000
1287.0130;-21.5400;-17.3500;-4.1900
1287.2120;-21.3700;-17.2900;-4.0800
1287.4120;-21.2000;-17.2200;-3.9800
1287.6110;-21.0300;-17.1500;-3.8800
1287.8100;-20.8900;-17.1000;-3.7900
1288.0090;-20.7300;-17.0200;-3.7100
1288.2080;-20.5900;-16.9700;-3.6200
1288.4070;-20.4500;-16.9000;-3.5500
1288.6060;-20.3100;-16.8400;-3.4700
1288.8050;-20.1900;-16.7900;-3.4000
1289.0040;-20.0600;-16.7200;-3.3400
1289.2040;-19.9500;-16.6700;-3.2800
1289.4030;-19.8300;-16.6000;-3.2300
1289.6020;-19.7200;-16.5400;-3.1800
1289.8010;-19.6300;-16.4900;-3.1400
1290.0000;-19.5200;-16.4200;-3.1000
1290.1990;-19.4300;-16.3800;-3.0500
1290.3980;-19.3300;-16.3100;-3.0200
1290.5970;-19.2600;-16.2700;-2.9900
1290.7970;-19.1800;-16.2100;-2.9700
1290.9960;-19.0900;-16.1400;-2.9500
1291.1950;-19.0300;-16.0900;-2.9400
1291.3940;-18.9500;-16.0400;-2.9100
1291.5930;-18.8800;-15.9800;-2.9000
1291.7920;-18.8200;-15.9200;-2.9000
1291.9910;-18.7600;-15.8700;-2.8900
1292.1900;-18.7300;-15.8100;-2.9200
1292.3890;-18.6800;-15.7600;-2.9200
1292.5890;-18.6400;-15.7100;-2.9300
1292.7880;-18.6000;-15.6500;-2.9500
1292.9870;-18.5700;-15.6200;-2.9500
1293.1860;-18.5600;-15.5600;-3.0000
1293.3850;-18.5400;-15.5100;-3.0300
1293.5840;-18.5300;-15.4500;-3.0800
1293.7830;-18.5200;-15.4000;-3.1200
1293.9820;-18.5100;-15.3700;-3.1400
1294.1810;-18.5300;-15.3100;-3.2200
1294.3810;-18.5300;-15.2700;-3.2600
1294.5800;-18.5500;-15.2200;-3.3300
1294.7790;-18.5600;-15.1700;-3.3900
1294.9780;-18.5800;-15.1300;-3.4500
1295.1770;-18.6200;-15.0800;-3.5400
1295.3760;-18.6500;-15.0400;-3.6100
1295.5750;-18.7000;-14.9800;-3.7200
1295.7740;-18.7400;-14.9300;-3.8100
1295.9740;-18.7800;-14.8900;-3.8900
1296.1730;-18.8400;-14.8400;-4.0000
1296.3720;-18.9000;-14.8100;-4.0900
1296.5710;-18.9700;-14.7500;-4.2200
1296.7700;-19.0400;-14.7100;-4.3300
1296.9690;-19.1400;-14.6700;-4.4700
1297.1680;-19.2200;-14.6300;-4.5900
1297.3670;-19.3100;-14.6000;-4.7100
1297.5660;-19.4100;-14.5400;-4.8700
1297.7660;-19.5100;-14.5000;-5.0100
1297.9650;-19.6300;-14.4700;-5.1600
1298.1640;-19.7400;-14.4300;-5.3100
1298.3630;-19.8700;-14.4100;-5.4600
1298.5620;-20.0100;-14.3500;-5.6600
1298.7610;-20.1500;-14.3300;-5.8200
1298.9600;-20.3100;-14.2900;-6.0200
1299.1590;-20.4600;-14.2500;-6.2100
1299.3580;-20.6400;-14.2300;-6.4100
1299.5580;-20.8000;-14.1800;-6.6200
1299.7570;-20.9900;-14.1500;-6.8400
1299.9560;-21.2000;-14.1200;-7.0800
1300.1550;-21.4000;-14.0900;-7.3100
1300.3540;-21.6300;-14.0600;-7.5700
1300.5530;-21.8400;-14.0100;-7.8300
1300.7520;-22.0700;-14.0000;-8.0700
1300.9510;-22.3300;-13.9600;-8.3700
1301.1500;-22.6000;-13.9400;-8.6600
1301.3500;-22.8700;-13.9100;-8.9600
1301.5490;-23.1600;-13.8900;-9.2700
1301.7480;-23.4500;-13.8800;-9.5700
1301.9470;-23.7600;-13.8400;-9.9200
1302.1460;-24.0800;-13.8300;-10.2500
1302.3450;-24.4200;-13.8100;-10.6100
1302.5440;-24.7500;-13.7900;-10.9600
1302.7430;-25.1000;-13.7800;-11.3200
1302.9430;-25.4600;-13.7500;-11.7100
1303.1420;-25.8200;-13.7500;-12.0700
1303.3410;-26.2100;-13.7200;-12.4900
1303.5400;-26.5900;-13.7100;-12.8800
1303.7390;-26.9700;-13.7100;-13.2600
1303.9380;-27.3300;-13.6800;-13.6500
1304.1370;-27.7000;-13.6800;-14.0200
1304.3360;-28.0500;-13.6600;-14.3900
1304.5350;-28.4300;-13.6500;-14.7800
1304.7350;-28.6500;-13.6400;-15.0100
1304.9340;-28.8700;-13.6300;-15.2400
1305.1330;-29.0600;-13.6300;-15.4300
1305.3320;-29.1500;-13.6000;-15.5500
1305.5310;-29.1800;-13.6100;-15.5700
1305.7300;-29.1300;-13.6000;-15.5300
1305.9290;-29.0000;-13.5800;-15.4200
1306.1280;-28.8300;-13.6000;-15.2300
1306.3270;-28.5600;-13.5800;-14.9800
1306.5270;-28.2800;-13.5900;-14.6900
1306.7260;-27.9400;-13.5900;-14.3500
1306.9250;-27.5700;-13.5800;-13.9900
1307.1240;-27.2100;-13.6000;-13.6100
1307.3230;-26.8000;-13.5900;-13.2100
1307.5220;-26.4200;-13.6100;-12.8100
1307.7210;-25.9400;-13.6100;-12.3300
1307.9200;-25.6300;-13.6100;-12.0200
1308.1200;-25.2500;-13.6300;-11.6200
1308.3190;-24.8600;-13.6300;-11.2300
1308.5180;-24.5200;-13.6500;-10.8700
1308.7170;-24.1500;-13.6500;-10.5000
1308.9160;-23.8100;-13.6500;-10.1600
1309.1150;-23.4700;-13.6800;-9.7900
1309.3140;-23.1500;-13.6900;-9.4600
1309.5130;-22.8600;-13.7200;-9.1400
1309.7120;-22.5500;-13.7200;-8.8300
1309.9120;-22.2800;-13.7400;-8.5400
1310.1110;-22.0000;-13.7600;-8.2400
1310.3100;-21.7400;-13.7700;-7.9700
1310.5090;-21.5100;-13.8100;-7.7000
1310.7080;-21.2600;-13.8100;-7.4500
1310.9070;-21.0400;-13.8400;-7.2000
1311.1060;-20.8200;-13.8600;-6.9600
1311.3050;-20.6100;-13.8800;-6.7300
1311.5040;-20.4100;-13.9200;-6.4900
1311.7040;-20.2200;-13.9300;-6.2900
1311.9030;-20.0500;-13.9700;-6.0800
1312.1020;-19.8700;-13.9800;-5.8900
1312.3010;-19.7200;-14.0100;-5.7100
1312.5000;-19.5600;-14.0600;-5.5000
1312.6990;-19.4100;-14.0800;-5.3300
1312.8980;-19.2800;-14.1300;-5.1500
1313.0970;-19.1400;-14.1500;-4.9900
1313.2970;-19.0300;-14.1900;-4.8400
1313.4960;-18.9100;-14.2300;-4.6800
1313.6950;-18.8000;-14.2600;-4.5400
1313.8940;-18.7000;-14.3100;-4.3900
1314.0930;-18.6100;-14.3500;-4.2600
1314.2920;-18.5400;-14.3900;-4.1500
1314.4910;-18.4500;-14.4300;-4.0200
1314.6900;-18.3900;-14.4700;-3.9200
1314.8890;-18.3100;-14.5200;-3.7900
1315.0890;-18.2500;-14.5500;-3.7000
1315.2880;-18.2000;-14.6100;-3.5900
1315.4870;-18.1600;-14.6500;-3.5100
1315.6860;-18.1200;-14.7100;-3.4100
1315.8850;-18.0700;-14.7500;-3.3200
1316.0840;-18.0500;-14.8000;-3.2500
1316.2830;-18.0200;-14.8500;-3.1700
1316.4820;-18.0100;-14.9100;-3.1000
1316.6810;-18.0100;-14.9700;-3.0400
1316.8810;-17.9900;-15.0200;-2.9700
1317.0800;-18.0100;-15.0800;-2.9300
1317.2790;-18.0100;-15.1500;-2.8600
1317.4780;-18.0200;-15.2000;-2.8200
1317.6770;-18.0500;-15.2700;-2.7800
1317.8760;-18.0600;-15.3200;-2.7400
1318.0750;-18.0900;-15.3800;-2.7100
1318.2740;-18.1100;-15.4400;-2.6700
1318.4740;-18.1500;-15.5000;-2.6500
1318.6730;-18.2000;-15.5900;-2.6100
1318.8720;-18.2400;-15.6500;-2.5900
1319.0710;-18.3200;-15.7400;-2.5800
1319.2700;-18.3600;-15.7900;-2.5700
1319.4690;-18.4200;-15.8600;-2.5600
1319.6680;-18.4900;-15.9500;-2.5400
1319.8670;-18.5600;-16.0100;-2.5500
1320.0660;-18.6500;-16.1000;-2.5500
1320.2660;-18.7200;-16.1700;-2.5500
1320.4650;-18.8100;-16.2500;-2.5600
1320.6640;-18.8900;-16.3300;-2.5600
1320.8630;-18.9800;-16.4000;-2.5800
1321.0620;-19.0800;-16.4900;-2.5900
1321.2610;-19.1800;-16.5600;-2.6200
1321.4600;-19.3000;-16.6600;-2.6400
1321.6590;-19.3900;-16.7300;-2.6600
1321.8580;-19.5100;-16.8200;-2.6900
1322.0580;-19.6200;-16.9100;-2.7100
1322.2570;-19.7400;-16.9900;-2.7500
1322.4560;-19.8700;-17.0900;-2.7800
1322.6550;-19.9900;-17.1700;-2.8200
1322.8540;-20.1300;-17.2700;-2.8600
1323.0530;-20.2600;-17.3600;-2.9000
1323.2520;-20.3900;-17.4500;-2.9400
1323.4510;-20.5400;-17.5600;-2.9800
1323.6500;-20.6800;-17.6400;-3.0400
1323.8500;-20.8400;-17.7500;-3.0900
1324.0490;-20.9700;-17.8400;-3.1300
1324.2480;-21.1300;-17.9500;-3.1800
1324.4470;-21.2800;-18.0500;-3.2300
1324.6460;-21.4400;-18.1400;-3.3000
1324.8450;-21.6100;-18.2600;-3.3500
1325.0440;-21.7600;-18.3600;-3.4000
1325.2430;-21.9300;-18.5000;-3.4300
1325.4430;-22.0900;-18.5800;-3.5100
1325.6420;-22.2600;-18.7000;-3.5600
1325.8410;-22.4300;-18.8200;-3.6100
1326.0400;-22.5900;-18.9200;-3.6700
1326.2390;-22.7700;-19.0500;-3.7200
1326.4380;-22.9300;-19.1500;-3.7800
1326.6370;-23.1000;-19.2700;-3.8300
1326.8360;-23.2700;-19.3900;-3.8800
1327.0350;-23.4300;-19.5100;-3.9200
1327.2350;-23.6100;-19.6400;-3.9700
1327.4340;-23.7700;-19.7500;-4.0200
1327.6330;-23.9400;-19.8700;-4.0700
1327.8320;-24.1000;-19.9900;-4.1100
1328.0310;-24.2600;-20.1100;-4.1500
1328.2300;-24.4300;-20.2500;-4.1800
1328.4290;-24.5900;-20.3700;-4.2200
1328.6280;-24.7500;-20.5100;-4.2400
1328.8270;-24.9000;-20.6300;-4.2700
1329.0270;-25.0600;-20.7600;-4.3000
1329.2260;-25.2100;-20.9000;-4.3100
1329.4250;-25.3600;-21.0200;-4.3400
1329.6240;-25.5100;-21.1700;-4.3400
1329.8230;-25.6400;-21.2900;-4.3500
1330.0220;-25.7900;-21.4300;-4.3600
1330.2210;-25.9200;-21.5600;-4.3600
1330.4200;-26.0500;-21.6900;-4.3600
1330.6200;-26.1900;-21.8400;-4.3500
1330.8190;-26.3100;-21.9700;-4.3400
1331.0180;-26.4500;-22.1100;-4.3400
1331.2170;-26.5700;-22.2600;-4.3100
1331.4160;-26.6900;-22.3900;-4.3000
1331.6150;-26.8100;-22.5500;-4.2600
1331.8140;-26.9200;-22.6800;-4.2400
1332.0130;-27.0400;-22.8400;-4.2000
1332.2120;-27.1500;-22.9700;-4.1800
1332.4120;-27.2600;-23.1200;-4.1400
1332.6110;-27.3700;-23.2800;-4.0900
1332.8100;-27.4800;-23.4200;-4.0600
1333.0090;-27.5800;-23.5800;-4.0000
1333.2080;-27.6800;-23.7200;-3.9600
1333.4070;-27.7900;-23.8800;-3.9100
1333.6060;-27.8800;-24.0200;-3.8600
1333.8050;-27.9900;-24.1800;-3.8100
1334.0040;-28.0800;-24.3300;-3.7500
1334.2040;-28.1800;-24.4800;-3.7000
1334.4030;-28.2800;-24.6500;-3.6300
1334.6020;-28.3700;-24.7900;-3.5800
1334.8010;-28.5000;-24.9500;-3.5500
1335.0000;-28.5800;-25.1100;-3.4700
1335.1990;-28.6900;-25.2600;-3.4300
1335.3980;-28.7800;-25.4300;-3.3500
1335.5970;-28.8800;-25.5700;-3.3100
1335.7970;-28.9900;-25.7400;-3.2500
1335.9960;-29.1000;-25.9000;-3.2000
1336.1950;-29.2100;-26.0600;-3.1500
1336.3940;-29.3100;-26.2200;-3.0900
1336.5930;-29.4300;-26.3700;-3.0600
1336.7920;-29.5200;-26.5400;-2.9800
1336.9910;-29.6300;-26.6900;-2.9400
1337.1900;-29.7500;-26.8600;-2.8900
1337.3890;-29.8700;-27.0200;-2.8500
1337.5890;-30.0000;-27.1800;-2.8200
1337.7880;-30.1100;-27.3500;-2.7600
1337.9870;-30.2400;-27.5100;-2.7300
1338.1860;-30.3600;-27.6800;-2.6800
1338.3850;-30.4800;-27.8300;-2.6500
1338.5840;-30.6300;-28.0000;-2.6300
1338.7830;-30.7500;-28.1600;-2.5900
1338.9820;-30.9000;-28.3200;-2.5800
1339.1810;-31.0400;-28.5300;-2.5100
1339.3810;-31.1800;-28.6700;-2.5100
1339.5800;-31.3300;-28.8400;-2.4900
1339.7790;-31.4700;-29.0000;-2.4700
1339.9780;-31.6400;-29.1800;-2.4600
1340.1770;-31.7900;-29.3500;-2.4400
1340.3760;-31.9600;-29.5200;-2.4400
1340.5750;-32.1300;-29.7100;-2.4200
1340.7740;-32.2900;-29.8700;-2.4200
1340.9740;-32.4600;-30.0400;-2.4200
1341.1730;-32.6300;-30.2000;-2.4300
1341.3720;-32.8100;-30.3700;-2.4400
1341.5710;-32.9800;-30.5400;-2.4400
1341.7700;-33.1700;-30.7100;-2.4600
1341.9690;-33.3600;-30.8900;-2.4700
1342.1680;-33.5400;-31.0500;-2.4900
1342.3670;-33.7500;-31.2300;-2.5200
1342.5660;-33.9300;-31.3900;-2.5400
1342.7660;-34.1300;-31.5600;-2.5700
1342.9650;-34.3300;-31.7400;-2.5900
1343.1640;-34.5400;-31.9100;-2.6300
1343.3630;-34.7600;-32.0900;-2.6700
1343.5620;-34.9600;-32.2500;-2.7100
1343.7610;-35.1900;-32.4200;-2.7700
1343.9600;-35.4000;-32.6000;-2.8000
1344.1590;-35.6300;-32.7800;-2.8500
1344.3580;-35.8700;-32.9600;-2.9100
1344.5580;-36.1000;-33.1300;-2.9700
1344.7570;-36.3500;-33.3000;-3.0500
1344.9560;-36.5700;-33.4700;-3.1000
1345.1550;-36.8100;-33.6300;-3.1800
1345.3540;-37.0400;-33.8000;-3.2400
1345.5530;-37.2800;-33.9600;-3.3200
1345.7520;-37.5400;-34.1400;-3.4000
1345.9510;-37.7900;-34.3000;-3.4900
1346.1500;-38.0500;-34.4600;-3.5900
1346.3500;-38.3100;-34.6500;-3.6600
1346.5490;-38.6500;-34.8200;-3.8300
1346.7480;-38.8700;-35.0000;-3.8700
1346.9470;-39.1200;-35.1500;-3.9700
1347.1460;-39.4100;-35.3100;-4.1000
1347.3450;-39.6600;-35.4700;-4.1900
1347.5440;-39.9800;-35.6700;-4.3100
1347.7430;-40.3100;-35.9000;-4.4100
1347.9430;-40.6300;-36.0800;-4.5500
1348.1420;-40.9300;-36.2400;-4.6900
1348.3410;-41.2300;-36.4200;-4.8100
1348.5400;-41.4900;-36.5500;-4.9400
1348.7390;-41.7700;-36.7100;-5.0600
1348.9380;-42.0600;-36.8400;-5.2200
1349.1370;-42.3600;-37.0000;-5.3600
1349.3360;-42.6300;-37.1300;-5.5000
1349.5350;-42.9400;-37.2700;-5.6700
1349.7350;-43.2300;-37.4200;-5.8100
1349.9340;-43.5400;-37.5800;-5.9600
1350.1330;-43.8900;-37.7700;-6.1200
1350.3320;-44.2600;-37.9900;-6.2700
1350.5310;-44.6300;-38.1800;-6.4500
1350.7300;-44.9400;-38.3400;-6.6000
1350.9290;-45.2500;-38.4800;-6.7700
1351.1280;-45.5200;-38.5800;-6.9400
1351.3270;-45.8200;-38.7100;-7.1100
1351.5270;-46.1600;-38.8800;-7.2800
1351.7260;-46.5300;-39.0900;-7.4400
1351.9250;-46.8700;-39.2700;-7.6000
1352.1240;-47.1800;-39.4100;-7.7700
1352.3230;-47.5000;-39.5700;-7.9300
1352.5220;-47.8400;-39.7600;-8.0800
1352.7210;-48.1200;-39.8800;-8.2400
1352.9200;-48.4600;-40.0400;-8.4200
1353.1200;-48.7800;-40.2600;-8.5200
1353.3190;-49.0000;-40.3500;-8.6500
1353.5180;-49.2600;-40.5000;-8.7600
1353.7170;-49.5400;-40.6500;-8.8900
1353.9160;-49.7000;-40.7400;-8.9600
1354.1150;-49.9000;-40.8700;-9.0300
1354.3140;-50.1800;-41.0800;-9.1000
1354.5130;-50.3900;-41.2400;-9.1500
1354.7120;-50.7200;-41.5400;-9.1800
1354.9120;-51.0000;-41.8000;-9.2000
1355.1110;-51.1500;-41.9500;-9.2000
1355.3100;-51.2500;-42.0600;-9.1900
1355.5090;-51.1800;-42.0300;-9.1500
1355.7080;-51.3900;-42.2800;-9.1100
1355.9070;-51.5700;-42.5200;-9.0500
1356.1060;-51.6300;-42.6600;-8.9700
1356.3050;-51.5700;-42.7200;-8.8500
1356.5040;-51.5500;-42.7900;-8.7600
1356.7040;-51.3400;-42.7000;-8.6400
1356.9030;-51.3400;-42.8200;-8.5200
1357.1020;-51.5700;-43.1700;-8.4000
1357.3010;-51.6100;-43.3700;-8.2400
1357.5000;-51.6100;-43.5200;-8.0900
1357.6990;-51.6000;-43.6800;-7.9200
1357.8980;-51.4700;-43.7000;-7.7700
1358.0970;-51.3500;-43.7400;-7.6100
1358.2970;-51.3300;-43.8900;-7.4400
1358.4960;-51.3900;-44.0900;-7.3000
1358.6950;-51.3200;-44.2100;-7.1100
1358.8940;-51.2700;-44.3300;-6.9400
1359.0930;-51.2300;-44.4600;-6.7700
1359.2920;-51.0700;-44.4700;-6.6000
1359.4910;-51.2900;-44.8200;-6.4700
1359.6900;-51.3900;-45.0900;-6.3000
1359.8890;-51.3800;-45.2600;-6.1200
1360.0890;-51.2500;-45.2900;-5.9600
1360.2880;-51.0900;-45.2800;-5.8100
1360.4870;-50.9200;-45.2600;-5.6600
1360.6860;-50.9000;-45.3900;-5.5100
1360.8850;-51.0900;-45.7100;-5.3800
1361.0840;-51.2100;-45.9800;-5.2300
1361.2830;-51.2000;-46.1200;-5.0800
1361.4820;-51.2000;-46.2600;-4.9400
1361.6810;-51.2800;-46.4400;-4.8400
1361.8810;-51.2700;-46.5600;-4.7100
1362.0800;-51.3400;-46.7500;-4.5900
1362.2790;-51.6400;-47.1500;-4.4900
1362.4780;-51.7300;-47.3600;-4.3700
1362.6770;-51.7300;-47.4700;-4.2600
1362.8760;-51.4700;-47.3400;-4.1300
1363.0750;-51.3000;-47.2400;-4.0600
1363.2740;-50.9600;-46.9900;-3.9700
1363.4740;-50.9200;-47.0400;-3.8800
1363.6730;-50.9200;-47.1100;-3.8100
1363.8720;-50.9600;-47.2400;-3.7200
1364.0710;-51.0800;-47.4300;-3.6500
1364.2700;-51.1900;-47.6100;-3.5800
1364.4690;-51.4100;-47.9000;-3.5100
1364.6680;-51.8600;-48.3900;-3.4700
1364.8670;-51.9900;-48.6100;-3.3800
1365.0660;-51.8900;-48.5600;-3.3300
1365.2660;-52.0100;-48.6900;-3.3200
1365.4650;-51.8800;-48.6100;-3.2700
1365.6640;-51.8900;-48.6700;-3.2200
1365.8630;-51.8800;-48.6900;-3.1900
1366.0620;-51.8400;-48.6700;-3.1700
1366.2610;-51.7800;-48.6400;-3.1400
1366.4600;-51.8100;-48.6900;-3.1200
1366.6590;-51.9400;-48.8400;-3.1000
1366.8580;-52.1500;-49.0600;-3.0900
1367.0580;-52.2700;-49.1800;-3.0900
1367.2570;-52.3400;-49.2700;-3.0700
1367.4560;-52.6100;-49.5200;-3.0900
1367.6550;-52.7700;-49.6800;-3.0900
1367.8540;-53.0300;-49.9300;-3.1000
1368.0530;-53.1500;-50.0400;-3.1100
1368.2520;-53.1200;-49.9900;-3.1300
1368.4510;-53.4800;-50.3200;-3.1600
1368.6500;-53.5600;-50.3800;-3.1800
1368.8500;-53.6900;-50.4700;-3.2200
1369.0490;-53.6800;-50.4200;-3.2600
1369.2480;-53.6600;-50.3600;-3.3000
1369.4470;-53.6000;-50.2800;-3.3200
1369.6460;-53.7300;-50.3600;-3.3700
1369.8450;-54.1000;-50.6900;-3.4100
1370.0440;-54.3200;-50.8500;-3.4700
1370.2430;-54.4900;-50.9600;-3.5300
1370.4430;-54.5900;-50.9800;-3.6100
1370.6420;-54.6400;-50.9700;-3.6700
1370.8410;-55.0100;-51.2900;-3.7200
1371.0400;-55.3200;-51.5300;-3.7900
1371.2390;-55.5800;-51.7000;-3.8800
1371.4380;-55.6600;-51.6700;-3.9900
1371.6370;-55.6900;-51.6200;-4.0700
1371.8360;-55.7200;-51.5700;-4.1500
1372.0350;-55.9800;-51.7400;-4.2400
1372.2350;-56.2600;-51.9400;-4.3200
1372.4340;-56.4400;-52.0000;-4.4400
1372.6330;-56.6200;-52.0600;-4.5600
1372.8320;-56.7200;-52.0600;-4.6600
1373.0310;-56.8500;-52.0700;-4.7800
1373.2300;-57.0700;-52.1800;-4.8900
1373.4290;-57.3200;-52.3100;-5.0100
1373.6280;-57.5400;-52.3900;-5.1500
1373.8270;-57.7300;-52.4500;-5.2800
1374.0270;-57.9700;-52.5400;-5.4300
1374.2260;-58.1600;-52.6100;-5.5500
1374.4250;-58.5100;-52.7300;-5.7800
1374.6240;-58.7100;-52.8400;-5.8700
1374.8230;-59.0300;-53.0000;-6.0300
1375.0220;-59.3300;-53.1600;-6.1700
1375.2210;-59.5500;-53.2100;-6.3400
1375.4200;-59.7900;-53.2500;-6.5400
1375.6200;-59.9900;-53.3000;-6.6900
1375.8190;-60.2500;-53.3900;-6.8600
1376.0180;-60.5400;-53.5200;-7.0200
1376.2170;-60.8200;-53.6200;-7.2000
1376.4160;-61.1000;-53.7100;-7.3900
1376.6150;-61.3600;-53.7700;-7.5900
1376.8140;-61.6800;-53.9100;-7.7700
1377.0130;-61.9900;-54.1300;-7.8600
1377.2120;-62.3800;-54.2700;-8.1100
1377.4120;-62.6100;-54.3300;-8.2800
1377.6110;-62.8600;-54.3600;-8.5000
1377.8100;-62.9800;-54.3000;-8.6800
1378.0090;-63.1800;-54.3400;-8.8400
1378.2080;-63.4000;-54.4200;-8.9800
1378.4070;-63.6800;-54.5700;-9.1100
1378.6060;-64.0700;-54.8000;-9.2700
1378.8050;-64.4700;-55.0800;-9.3900
1379.0040;-64.7000;-55.1800;-9.5200
1379.2040;-64.8500;-55.2200;-9.6300
1379.4030;-64.8900;-55.1600;-9.7300
1379.6020;-64.9100;-55.1100;-9.8000
1379.8010;-64.9900;-55.1400;-9.8500
1380.0000;-65.1400;-55.2600;-9.8800
1380.1990;-65.3100;-55.4100;-9.9000
1380.3980;-65.4600;-55.5900;-9.8700
1380.5970;-66.0500;-56.1300;-9.9200
1380.7970;-66.3400;-56.5600;-9.7800
1380.9960;-66.4400;-56.7000;-9.7400
1381.1950;-66.3600;-56.6700;-9.6900
1381.3940;-65.9600;-56.3700;-9.5900
1381.5930;-65.5700;-56.1000;-9.4700
1381.7920;-65.4500;-56.1200;-9.3300
1381.9910;-65.3600;-56.1400;-9.2200
1382.1900;-65.3000;-56.2400;-9.0600
1382.3890;-65.4100;-56.5300;-8.8800
1382.5890;-65.8000;-57.0600;-8.7400
1382.7880;-66.0700;-57.5100;-8.5600
1382.9870;-66.0500;-57.7200;-8.3300
1383.1860;-65.6000;-57.4500;-8.1500
1383.3850;-65.0800;-57.1600;-7.9200
1383.5840;-64.7200;-56.9600;-7.7600
1383.7830;-64.6800;-57.0600;-7.6200
1383.9820;-64.5900;-57.1800;-7.4100
1384.1810;-64.4000;-57.2000;-7.2000
1384.3810;-64.2400;-57.1900;-7.0500
1384.5800;-63.9400;-57.1400;-6.8000
1384.7790;-63.8600;-57.2100;-6.6500
1384.9780;-63.9500;-57.5000;-6.4500
1385.1770;-64.0000;-57.6900;-6.3100
1385.3760;-63.9100;-57.7900;-6.1200
1385.5750;-63.6800;-57.7100;-5.9700
1385.7740;-63.5400;-57.7400;-5.8000
1385.9740;-63.3700;-57.7100;-5.6600
1386.1730;-63.2600;-57.7300;-5.5300
1386.3720;-63.2100;-57.8700;-5.3400
1386.5710;-63.1000;-57.8800;-5.2200
1386.7700;-62.9900;-57.8900;-5.1000
1386.9690;-62.8600;-57.9200;-4.9400
1387.1680;-62.7700;-57.9300;-4.8400
1387.3670;-62.6700;-57.9700;-4.7000
1387.5660;-62.6100;-58.0300;-4.5800
1387.7660;-62.7800;-58.3200;-4.4600
1387.9650;-62.8600;-58.6100;-4.2500
1388.1640;-63.0200;-58.8200;-4.2000
1388.3630;-63.0800;-58.9300;-4.1500
1388.5620;-62.9000;-58.8600;-4.0400
1388.7610;-62.6700;-58.7100;-3.9600
1388.9600;-62.5100;-58.6600;-3.8500
1389.1590;-62.3800;-58.6000;-3.7800
1389.3580;-62.3100;-58.6300;-3.6800
1389.5580;-62.2900;-58.6900;-3.6000
1389.7570;-62.3100;-58.7700;-3.5400
1389.9560;-62.3800;-58.9200;-3.4600
1390.1550;-62.3800;-58.9700;-3.4100
1390.3540;-62.3300;-59.0100;-3.3200
1390.5530;-62.3000;-59.0400;-3.2600
1390.7520;-62.2400;-59.0500;-3.1900
1390.9510;-62.3100;-59.1100;-3.2000
1391.1500;-62.3200;-59.1700;-3.1500
1391.3500;-62.3200;-59.2200;-3.1000
1391.5490;-62.3500;-59.3000;-3.0500
1391.7480;-62.4000;-59.3600;-3.0400
1391.9470;-62.4100;-59.4400;-2.9700
1392.1460;-62.5600;-59.6100;-2.9500
1392.3450;-62.7600;-59.8200;-2.9400
1392.5440;-63.1400;-60.2300;-2.9100
1392.7430;-63.2600;-60.3800;-2.8800
1392.9430;-63.1800;-60.3000;-2.8800
1393.1420;-63.0600;-60.1400;-2.9200
1393.3410;-62.8000;-59.9200;-2.8800
1393.5400;-62.7400;-59.8900;-2.8500
1393.7390;-62.8100;-59.9500;-2.8600
1393.9380;-62.9100;-59.9800;-2.9300
1394.1370;-62.9700;-60.0800;-2.8900
1394.3360;-63.0400;-60.1300;-2.9100
1394.5350;-63.1500;-60.2100;-2.9400
1394.7350;-63.2800;-60.3200;-2.9600
1394.9340;-63.5500;-60.5900;-2.9600
1395.1330;-63.8000;-60.8200;-2.9800
1395.3320;-63.9300;-60.9100;-3.0200
1395.5310;-64.0700;-61.0300;-3.0400
1395.7300;-64.1400;-61.0200;-3.1200
1395.9290;-64.0800;-60.9400;-3.1400
1396.1280;-64.2300;-60.9300;-3.3000
1396.3270;-64.3200;-61.0800;-3.2400
1396.5270;-64.6700;-61.3300;-3.3400
1396.7260;-64.8300;-61.4800;-3.3500
1396.9250;-64.9100;-61.4200;-3.4900
1397.1240;-64.7900;-61.2700;-3.5200
1397.3230;-64.8300;-61.1900;-3.6400
1397.5220;-64.8200;-61.1500;-3.6700
1397.7210;-64.9200;-61.1700;-3.7500
1397.9200;-65.0500;-61.2200;-3.8300
1398.1200;-65.1900;-61.2600;-3.9300
1398.3190;-65.3900;-61.3300;-4.0600
1398.5180;-65.4800;-61.4100;-4.0700
1398.7170;-65.7500;-61.4700;-4.2800
1398.9160;-65.9000;-61.5200;-4.3800
1399.1150;-66.0100;-61.5800;-4.4300
1399.3140;-66.2600;-61.6800;-4.5800
1399.5130;-66.6700;-61.9700;-4.7000
1399.7120;-66.9000;-62.0800;-4.8200
1399.9120;-67.1800;-62.1600;-5.0200
1400.1110;-67.5000;-62.3100;-5.1900
1400.3100;-67.6400;-62.2800;-5.3600
1400.5090;-67.7900;-62.3300;-5.4600
1400.7080;-68.2700;-62.7300;-5.5400
1400.9070;-68.4200;-62.8000;-5.6200
1401.1060;-68.6200;-62.7600;-5.8600
1401.3050;-68.7700;-62.7600;-6.0100
1401.5040;-68.7400;-62.6400;-6.1000
1401.7040;-69.1300;-62.6600;-6.4700
1401.9030;-69.4400;-62.7100;-6.7300
1402.1020;-69.4800;-62.6800;-6.8000
1402.3010;-69.6600;-62.6500;-7.0100
1402.5000;-69.7400;-62.6600;-7.0800
1402.6990;-70.1200;-62.6900;-7.4300
1402.8980;-70.2700;-62.8200;-7.4500
1403.0970;-70.5100;-62.9200;-7.5900
1403.2970;-70.8200;-62.9800;-7.8400
1403.4960;-71.1600;-63.0300;-8.1300
1403.6950;-71.3500;-63.0800;-8.2700
1403.8940;-71.5600;-63.1800;-8.3800
1404.0930;-71.6900;-63.3000;-8.3900
1404.2920;-72.1800;-63.4300;-8.7500
1404.4910;-72.2900;-63.5100;-8.7800
1404.6900;-73.0500;-63.6100;-9.4400
1404.8890;-73.5700;-64.0700;-9.5000
1405.0890;-74.2500;-64.2300;-10.0200
1405.2880;-73.9900;-64.2500;-9.7400
1405.4870;-74.6700;-64.2300;-10.4400
1405.6860;-74.0300;-63.9400;-10.0900
1405.8850;-73.9300;-63.8800;-10.0500
1406.0840;-74.0500;-63.9400;-10.1100
1406.2830;-74.8300;-63.9700;-10.8600
1406.4820;-74.2500;-64.0200;-10.2300
1406.6810;-75.0400;-64.1900;-10.8500
1406.8810;-75.2600;-64.3500;-10.9100
1407.0800;-75.2900;-64.4900;-10.8000
1407.2790;-75.3800;-64.7300;-10.6500
1407.4780;-75.4800;-64.7900;-10.6900
1407.6770;-75.7500;-64.7800;-10.9700
1407.8760;-75.1000;-64.8000;-10.3000
1408.0750;-75.3600;-64.7600;-10.6000
1408.2740;-74.7000;-64.6700;-10.0300
1408.4740;-74.9500;-64.7400;-10.2100
1408.6730;-75.0900;-64.7900;-10.3000
1408.8720;-74.9900;-64.9000;-10.0900
1409.0710;-75.1700;-65.0400;-10.1300
1409.2700;-74.9400;-65.2600;-9.6800
1409.4690;-75.5400;-65.5900;-9.9500
1409.6680;-75.3300;-65.6500;-9.6800
1409.8670;-75.2700;-65.7100;-9.5600
1410.0660;-75.3500;-65.6000;-9.7500
1410.2660;-74.9300;-65.4500;-9.4800
1410.4650;-75.0500;-65.5300;-9.5200
1410.6640;-74.4900;-65.5700;-8.9200
1410.8630;-74.5600;-65.6500;-8.9100
1411.0620;-74.3800;-65.6400;-8.7400
1411.2610;-74.0100;-65.7700;-8.2400
1411.4600;-74.1700;-65.9300;-8.2400
1411.6590;-74.2900;-65.9500;-8.3400
1411.8580;-73.9800;-66.0700;-7.9100
1412.0580;-74.1500;-66.1100;-8.0400
1412.2570;-74.1000;-66.2200;-7.8800
1412.4560;-74.0300;-66.3500;-7.6800
1412.6550;-73.8600;-66.3800;-7.4800
1412.8540;-73.7800;-66.4500;-7.3300
1413.0530;-73.4800;-66.4900;-6.9900
1413.2520;-73.8400;-66.5200;-7.3200
1413.4510;-73.6100;-66.6400;-6.9700
1413.6500;-73.6600;-66.7600;-6.9000
1413.8500;-73.4500;-66.8200;-6.6300
1414.0490;-73.8600;-67.0900;-6.7700
1414.2480;-73.9200;-67.2000;-6.7200
1414.4470;-74.1500;-67.2300;-6.9200
1414.6460;-73.6800;-67.3600;-6.3200
1414.8450;-73.9100;-67.5100;-6.4000
1415.0440;-73.3700;-67.4100;-5.9600
1415.2430;-73.5900;-67.4900;-6.1000
1415.4430;-73.5000;-67.5300;-5.9700
1415.6420;-73.4600;-67.5200;-5.9400
1415.8410;-73.3600;-67.6500;-5.7100
1416.0400;-73.1700;-67.6900;-5.4800
1416.2390;-73.3700;-67.7300;-5.6400
1416.4380;-73.5600;-67.8100;-5.7500
1416.6370;-73.2600;-67.8200;-5.4400
1416.8360;-73.2400;-68.0000;-5.2400
1417.0350;-73.5600;-68.0200;-5.5400
1417.2350;-73.8800;-68.1700;-5.7100
1417.4340;-73.5800;-68.2800;-5.3000
1417.6330;-73.6000;-68.4700;-5.1300
1417.8320;-73.9700;-68.5400;-5.4300
1418.0310;-73.6100;-68.6700;-4.9400
1418.2300;-73.7500;-68.6700;-5.0800
1418.4290;-74.1900;-68.6000;-5.5900
1418.6280;-74.0300;-68.7000;-5.3300
1418.8270;-74.3900;-68.7800;-5.6100
1419.0270;-74.5100;-69.0600;-5.4500
1419.2260;-74.5600;-69.1200;-5.4400
1419.4250;-74.4700;-69.2900;-5.1800
1419.6240;-75.0400;-69.2900;-5.7500
1419.8230;-74.6400;-69.4200;-5.2200
1420.0220;-74.7600;-69.4600;-5.3000
1420.2210;-74.3500;-69.4500;-4.9000
1420.4200;-74.8000;-69.4600;-5.3400
1420.6200;-74.5200;-69.4900;-5.0300
1420.8190;-74.7600;-69.8400;-4.9200
1421.0180;-74.7400;-69.7700;-4.9700
1421.2170;-74.9400;-69.9900;-4.9500
1421.4160;-75.6300;-69.9100;-5.7200
1421.6150;-75.2200;-70.1300;-5.0900
1421.8140;-75.5400;-70.1100;-5.4300
1422.0130;-75.9000;-70.0200;-5.8800
1422.2120;-75.3700;-70.2400;-5.1300
1422.4120;-75.8400;-70.1800;-5.6600
1422.6110;-75.7000;-70.4900;-5.2100
1422.8100;-75.8800;-70.6000;-5.2800
1423.0090;-76.0200;-70.5900;-5.4300
1423.2080;-75.6100;-70.4200;-5.1900
1423.4070;-76.6500;-70.6400;-6.0100
1423.6060;-77.1700;-70.7900;-6.3800
1423.8050;-76.4900;-70.8600;-5.6300
1424.0040;-76.7400;-70.7900;-5.9500
1424.2040;-76.9200;-71.0800;-5.8400
1424.4030;-76.3900;-71.1400;-5.2500
1424.6020;-76.9700;-71.1100;-5.8600
1424.8010;-76.9200;-71.0700;-5.8500
1425.0000;-77.1500;-71.2100;-5.9400
