Wavelength;Intensity_Meas;Intensity_Ref;Difference_dB
1200.0000;-57.3500;-54.7600;-2.5900
1200.1990;-57.2700;-54.7300;-2.5400
1200.3980;-57.2300;-54.7000;-2.5300
1200.5970;-57.2700;-54.6700;-2.6000
1200.7970;-57.2800;-54.6400;-2.6400
1200.9960;-57.2300;-54.6100;-2.6200
1201.1950;-57.1900;-54.5600;-2.6300
1201.3940;-57.1700;-54.5300;-2.6400
1201.5930;-57.1700;-54.4900;-2.6800
1201.7920;-57.1200;-54.4200;-2.7000
1201.9910;-57.0800;-54.3800;-2.7000
1202.1900;-57.0200;-54.3300;-2.6900
1202.3890;-56.9500;-54.2800;-2.6700
1202.5890;-56.9600;-54.2200;-2.7400
1202.7880;-56.9100;-54.1600;-2.7500
1202.9870;-56.8000;-54.1200;-2.6800
1203.1860;-56.7600;-54.0600;-2.7000
1203.3850;-56.7400;-54.0100;-2.7300
1203.5840;-56.7000;-53.9700;-2.7300
1203.7830;-56.6000;-53.9100;-2.6900
1203.9820;-56.5700;-53.9000;-2.6700
1204.1810;-56.5400;-53.8400;-2.7000
1204.3810;-56.5000;-53.8000;-2.7000
1204.5800;-56.4500;-53.7700;-2.6800
1204.7790;-56.3900;-53.7300;-2.6600
1204.9780;-56.3800;-53.7100;-2.6700
1205.1770;-56.3500;-53.6600;-2.6900
1205.3760;-56.2800;-53.6500;-2.6300
1205.5750;-56.2700;-53.6300;-2.6400
1205.7740;-56.2600;-53.6000;-2.6600
1205.9740;-56.2600;-53.5900;-2.6700
1206.1730;-56.2300;-53.5600;-2.6700
1206.3720;-56.1900;-53.5400;-2.6500
1206.5710;-56.2200;-53.5200;-2.7000
1206.7700;-56.2100;-53.4900;-2.7200
1206.9690;-56.1700;-53.4600;-2.7100
1207.1680;-56.1600;-53.4200;-2.7400
1207.3670;-56.1400;-53.4000;-2.7400
1207.5660;-56.1500;-53.3700;-2.7800
1207.7660;-56.1200;-53.3200;-2.8000
1207.9650;-56.1100;-53.3000;-2.8100
1208.1640;-56.0800;-53.2500;-2.8300
1208.3630;-56.0700;-53.1900;-2.8800
1208.5620;-56.0700;-53.1500;-2.9200
1208.7610;-55.9900;-53.1100;-2.8800
1208.9600;-55.9500;-53.0500;-2.9000
1209.1590;-55.9500;-52.9800;-2.9700
1209.3580;-55.9200;-52.9300;-2.9900
1209.5580;-55.8400;-52.8900;-2.9500
1209.7570;-55.8000;-52.8200;-2.9800
1209.9560;-55.7900;-52.7700;-3.0200
1210.1550;-55.7500;-52.7100;-3.0400
1210.3540;-55.6600;-52.6500;-3.0100
1210.5530;-55.6300;-52.6200;-3.0100
1210.7520;-55.6000;-52.5600;-3.0400
1210.9510;-55.5500;-52.5200;-3.0300
1211.1500;-55.5100;-52.4600;-3.0500
1211.3500;-55.4500;-52.4100;-3.0400
1211.5490;-55.4200;-52.3900;-3.0300
1211.7480;-55.3900;-52.3300;-3.0600
1211.9470;-55.3600;-52.3000;-3.0600
1212.1460;-55.3000;-52.2600;-3.0400
1212.3450;-55.2500;-52.2200;-3.0300
1212.5440;-55.2600;-52.2100;-3.0500
1212.7430;-55.2100;-52.1700;-3.0400
1212.9430;-55.1500;-52.1400;-3.0100
1213.1420;-55.1300;-52.1000;-3.0300
1213.3410;-55.1100;-52.0700;-3.0400
1213.5400;-55.0800;-52.0500;-3.0300
1213.7390;-55.0100;-52.0000;-3.0100
1213.9380;-54.9800;-51.9800;-3.0000
1214.1370;-54.9700;-51.9300;-3.0400
1214.3360;-54.9000;-51.8800;-3.0200
1214.5350;-54.8600;-51.8600;-3.0000
1214.7350;-54.8200;-51.8100;-3.0100
1214.9340;-54.7700;-51.7600;-3.0100
1215.1330;-54.7200;-51.7000;-3.0200
1215.3320;-54.6600;-51.6400;-3.0200
1215.5310;-54.6100;-51.6100;-3.0000
1215.7300;-54.5500;-51.5400;-3.0100
1215.9290;-54.4900;-51.4900;-3.0000
1216.1280;-54.4200;-51.4200;-3.0000
1216.3270;-54.3300;-51.3600;-2.9700
1216.5270;-54.3000;-51.3100;-2.9900
1216.7260;-54.2200;-51.2400;-2.9800
1216.9250;-54.1200;-51.1800;-2.9400
1217.1240;-54.0500;-51.1100;-2.9400
1217.3230;-53.9900;-51.0500;-2.9400
1217.5220;-53.9200;-51.0100;-2.9100
1217.7210;-53.8200;-50.9400;-2.8800
1217.9200;-53.7400;-50.9000;-2.8400
1218.1200;-53.6800;-50.8300;-2.8500
1218.3190;-53.6000;-50.7900;-2.8100
1218.5180;-53.5400;-50.7500;-2.7900
1218.7170;-53.4500;-50.7000;-2.7500
1218.9160;-53.3800;-50.6700;-2.7100
1219.1150;-53.3300;-50.6100;-2.7200
1219.3140;-53.2500;-50.5700;-2.6800
1219.5130;-53.2000;-50.5400;-2.6600
1219.7120;-53.1400;-50.5100;-2.6300
1219.9120;-53.0800;-50.4700;-2.6100
1220.1110;-53.0200;-50.4200;-2.6000
1220.3100;-52.9400;-50.3800;-2.5600
1220.5090;-52.9200;-50.3400;-2.5800
1220.7080;-52.8500;-50.2900;-2.5600
1220.9070;-52.7900;-50.2600;-2.5300
1221.1060;-52.7300;-50.2000;-2.5300
1221.3050;-52.6800;-50.1400;-2.5400
1221.5040;-52.6300;-50.0900;-2.5400
1221.7040;-52.5600;-50.0200;-2.5400
1221.9030;-52.4900;-49.9700;-2.5200
1222.1020;-52.4200;-49.8900;-2.5300
1222.3010;-52.3600;-49.8300;-2.5300
1222.5000;-52.3000;-49.7600;-2.5400
1222.6990;-52.2100;-49.6900;-2.5200
1222.8980;-52.1400;-49.6300;-2.5100
1223.0970;-52.0700;-49.5400;-2.5300
1223.2970;-51.9800;-49.4700;-2.5100
1223.4960;-51.9000;-49.3900;-2.5100
1223.6950;-51.8200;-49.3100;-2.5100
1223.8940;-51.7300;-49.2500;-2.4800
1224.0930;-51.6500;-49.1700;-2.4800
1224.2920;-51.5700;-49.1000;-2.4700
1224.4910;-51.4900;-49.0300;-2.4600
1224.6900;-51.4100;-48.9600;-2.4500
1224.8890;-51.3200;-48.9100;-2.4100
1225.0890;-51.2600;-48.8400;-2.4200
1225.2880;-51.1800;-48.7700;-2.4100
1225.4870;-51.1200;-48.7200;-2.4000
1225.6860;-51.0400;-48.6600;-2.3800
1225.8850;-50.9800;-48.6200;-2.3600
1226.0840;-50.9400;-48.5500;-2.3900
1226.2830;-50.8800;-48.5000;-2.3800
1226.4820;-50.8300;-48.4400;-2.3900
1226.6810;-50.7800;-48.3800;-2.4000
1226.8810;-50.7400;-48.3400;-2.4000
1227.0800;-50.7100;-48.2700;-2.4400
1227.2790;-50.6600;-48.2200;-2.4400
1227.4780;-50.6200;-48.1600;-2.4600
1227.6770;-50.5800;-48.1000;-2.4800
1227.8760;-50.5400;-48.0400;-2.5000
1228.0750;-50.5100;-47.9600;-2.5500
1228.2740;-50.4600;-47.8900;-2.5700
1228.4740;-50.4200;-47.8300;-2.5900
1228.6730;-50.3600;-47.7500;-2.6100
1228.8720;-50.3100;-47.6800;-2.6300
1229.0710;-50.2600;-47.5900;-2.6700
1229.2700;-50.2000;-47.5100;-2.6900
1229.4690;-50.1400;-47.4300;-2.7100
1229.6680;-50.0800;-47.3500;-2.7300
1229.8670;-50.0000;-47.2700;-2.7300
1230.0660;-49.9500;-47.1800;-2.7700
1230.2660;-49.8600;-47.0900;-2.7700
1230.4650;-49.7900;-47.0100;-2.7800
1230.6640;-49.7100;-46.9200;-2.7900
1230.8630;-49.6600;-46.8600;-2.8000
1231.0620;-49.5900;-46.7700;-2.8200
1231.2610;-49.5200;-46.7100;-2.8100
1231.4600;-49.4800;-46.6500;-2.8300
1231.6590;-49.4000;-46.5700;-2.8300
1231.8580;-49.3300;-46.5100;-2.8200
1232.0580;-49.2800;-46.4400;-2.8400
1232.2570;-49.2100;-46.3800;-2.8300
1232.4560;-49.1700;-46.3300;-2.8400
1232.6550;-49.0800;-46.2600;-2.8200
1232.8540;-49.0100;-46.2000;-2.8100
1233.0530;-48.9600;-46.1400;-2.8200
1233.2520;-48.8900;-46.0700;-2.8200
1233.4510;-48.8200;-46.0100;-2.8100
1233.6500;-48.7300;-45.9400;-2.7900
1233.8500;-48.6600;-45.8900;-2.7700
1234.0490;-48.5800;-45.8000;-2.7800
1234.2480;-48.4800;-45.7500;-2.7300
1234.4470;-48.3900;-45.6600;-2.7300
1234.6460;-48.3000;-45.6000;-2.7000
1234.8450;-48.2000;-45.5200;-2.6800
1235.0440;-48.0900;-45.4400;-2.6500
1235.2430;-47.9800;-45.3800;-2.6000
1235.4430;-47.8800;-45.2700;-2.6100
1235.6420;-47.7600;-45.2000;-2.5600
1235.8410;-47.6500;-45.1000;-2.5500
1236.0400;-47.5300;-45.0100;-2.5200
1236.2390;-47.4100;-44.9200;-2.4900
1236.4380;-47.3000;-44.8100;-2.4900
1236.6370;-47.1800;-44.7300;-2.4500
1236.8360;-47.0700;-44.6400;-2.4300
1237.0350;-46.9600;-44.5500;-2.4100
1237.2350;-46.8400;-44.4700;-2.3700
1237.4340;-46.7400;-44.3600;-2.3800
1237.6330;-46.6400;-44.2900;-2.3500
1237.8320;-46.5500;-44.2100;-2.3400
1238.0310;-46.4300;-44.1100;-2.3200
1238.2300;-46.3400;-44.0500;-2.2900
1238.4290;-46.2300;-43.9500;-2.2800
1238.6280;-46.1300;-43.8800;-2.2500
1238.8270;-46.0300;-43.7900;-2.2400
1239.0270;-45.9000;-43.7200;-2.1800
1239.2260;-45.8300;-43.6500;-2.1800
1239.4250;-45.7000;-43.5500;-2.1500
1239.6240;-45.6000;-43.4800;-2.1200
1239.8230;-45.4800;-43.3900;-2.0900
1240.0220;-45.3700;-43.3100;-2.0600
1240.2210;-45.2600;-43.2300;-2.0300
1240.4200;-45.1300;-43.1300;-2.0000
1240.6200;-45.0200;-43.0500;-1.9700
1240.8190;-44.8900;-42.9400;-1.9500
1241.0180;-44.7500;-42.8300;-1.9200
1241.2170;-44.6400;-42.7300;-1.9100
1241.4160;-44.5000;-42.6200;-1.8800
1241.6150;-44.3600;-42.5000;-1.8600
1241.8140;-44.2400;-42.3900;-1.8500
1242.0130;-44.1100;-42.2700;-1.8400
1242.2120;-44.0100;-42.1700;-1.8400
1242.4120;-43.8700;-42.0400;-1.8300
1242.6110;-43.7500;-41.9300;-1.8200
1242.8100;-43.6300;-41.8000;-1.8300
1243.0090;-43.5100;-41.6800;-1.8300
1243.2080;-43.4200;-41.5700;-1.8500
1243.4070;-43.3000;-41.4500;-1.8500
1243.6060;-43.1900;-41.3300;-1.8600
1243.8050;-43.0900;-41.2100;-1.8800
1244.0040;-42.9900;-41.0900;-1.9000
1244.2040;-42.9100;-40.9900;-1.9200
1244.4030;-42.8100;-40.8700;-1.9400
1244.6020;-42.7100;-40.7600;-1.9500
1244.8010;-42.6300;-40.6400;-1.9900
1245.0000;-42.5500;-40.5300;-2.0200
1245.1990;-42.4800;-40.4300;-2.0500
1245.3980;-42.4000;-40.3100;-2.0900
1245.5970;-42.3100;-40.2000;-2.1100
1245.7970;-42.2300;-40.0800;-2.1500
1245.9960;-42.1500;-39.9600;-2.1900
1246.1950;-42.0800;-39.8600;-2.2200
1246.3940;-42.0000;-39.7300;-2.2700
1246.5930;-41.9100;-39.6000;-2.3100
1246.7920;-41.8400;-39.4800;-2.3600
1246.9910;-41.7500;-39.3400;-2.4100
1247.1900;-41.6900;-39.2300;-2.4600
1247.3890;-41.6000;-39.0900;-2.5100
1247.5890;-41.5200;-38.9600;-2.5600
1247.7880;-41.4400;-38.8200;-2.6200
1247.9870;-41.3500;-38.6800;-2.6700
1248.1860;-41.2900;-38.5600;-2.7300
1248.3850;-41.2000;-38.4100;-2.7900
1248.5840;-41.1200;-38.2800;-2.8400
1248.7830;-41.0500;-38.1400;-2.9100
1248.9820;-40.9700;-38.0100;-2.9600
1249.1810;-40.9200;-37.8800;-3.0400
1249.3810;-40.8300;-37.7400;-3.0900
1249.5800;-40.7600;-37.6100;-3.1500
1249.7790;-40.7000;-37.4700;-3.2300
1249.9780;-40.6200;-37.3300;-3.2900
1250.1770;-40.5700;-37.2200;-3.3500
1250.3760;-40.5100;-37.0800;-3.4300
1250.5750;-40.4500;-36.9500;-3.5000
1250.7740;-40.3900;-36.8200;-3.5700
1250.9740;-40.3500;-36.7000;-3.6500
1251.1730;-40.3100;-36.5800;-3.7300
1251.3720;-40.2500;-36.4400;-3.8100
1251.5710;-40.2200;-36.3400;-3.8800
1251.7700;-40.1700;-36.2000;-3.9700
1251.9690;-40.1200;-36.0700;-4.0500
1252.1680;-40.0900;-35.9400;-4.1500
1252.3670;-40.0300;-35.7800;-4.2500
1252.5660;-40.0000;-35.6800;-4.3200
1252.7660;-39.9400;-35.5400;-4.4000
1252.9650;-39.8900;-35.4300;-4.4600
1253.1640;-39.8500;-35.2800;-4.5700
1253.3630;-39.7900;-35.1400;-4.6500
1253.5620;-39.7400;-35.0200;-4.7200
1253.7610;-39.6700;-34.8800;-4.7900
1253.9600;-39.6200;-34.7600;-4.8600
1254.1590;-39.5600;-34.6100;-4.9500
1254.3580;-39.4800;-34.4800;-5.0000
1254.5580;-39.4200;-34.3500;-5.0700
1254.7570;-39.3400;-34.2100;-5.1300
1254.9560;-39.2500;-34.0800;-5.1700
1255.1550;-39.1800;-33.9500;-5.2300
1255.3540;-39.0900;-33.8200;-5.2700
1255.5530;-39.0300;-33.7000;-5.3300
1255.7520;-38.9200;-33.5700;-5.3500
1255.9510;-38.8300;-33.4500;-5.3800
1256.1500;-38.7500;-33.3100;-5.4400
1256.3500;-38.6400;-33.1900;-5.4500
1256.5490;-38.5600;-33.0700;-5.4900
1256.7480;-38.4400;-32.9400;-5.5000
1256.9470;-38.3400;-32.8200;-5.5200
1257.1460;-38.2300;-32.6900;-5.5400
1257.3450;-38.1100;-32.5600;-5.5500
1257.5440;-38.0100;-32.4400;-5.5700
1257.7430;-37.8800;-32.3100;-5.5700
1257.9430;-37.7600;-32.1900;-5.5700
1258.1420;-37.6400;-32.0600;-5.5800
1258.3410;-37.5100;-31.9400;-5.5700
1258.5400;-37.4000;-31.8100;-5.5900
1258.7390;-37.2500;-31.6800;-5.5700
1258.9380;-37.1300;-31.5500;-5.5800
1259.1370;-36.9900;-31.4200;-5.5700
1259.3360;-36.8500;-31.3000;-5.5500
1259.5350;-36.7200;-31.1700;-5.5500
1259.7350;-36.5700;-31.0400;-5.5300
1259.9340;-36.4300;-30.9100;-5.5200
1260.1330;-36.2900;-30.7800;-5.5100
1260.3320;-36.1400;-30.6600;-5.4800
1260.5310;-36.0100;-30.5300;-5.4800
1260.7300;-35.8300;-30.4100;-5.4200
1260.9290;-35.7100;-30.2900;-5.4200
1261.1280;-35.5600;-30.1500;-5.4100
1261.3270;-35.4200;-30.0400;-5.3800
1261.5270;-35.2800;-29.9200;-5.3600
1261.7260;-35.1300;-29.8000;-5.3300
1261.9250;-34.9800;-29.6800;-5.3000
1262.1240;-34.8300;-29.5500;-5.2800
1262.3230;-34.6900;-29.4400;-5.2500
1262.5220;-34.5400;-29.3200;-5.2200
1262.7210;-34.4000;-29.2000;-5.2000
1262.9200;-34.2500;-29.0800;-5.1700
1263.1200;-34.0900;-28.9600;-5.1300
1263.3190;-33.9600;-28.8400;-5.1200
1263.5180;-33.8100;-28.7200;-5.0900
1263.7170;-33.6600;-28.6000;-5.0600
1263.9160;-33.5100;-28.4800;-5.0300
1264.1150;-33.3600;-28.3500;-5.0100
1264.3140;-33.2300;-28.2400;-4.9900
1264.5130;-33.0800;-28.1100;-4.9700
1264.7120;-32.9500;-27.9900;-4.9600
1264.9120;-32.8000;-27.8600;-4.9400
1265.1110;-32.6600;-27.7400;-4.9200
1265.3100;-32.5300;-27.6200;-4.9100
1265.5090;-32.4000;-27.4900;-4.9100
1265.7080;-32.2700;-27.3800;-4.8900
1265.9070;-32.1400;-27.2600;-4.8800
1266.1060;-32.0100;-27.1300;-4.8800
1266.3050;-31.9000;-27.0300;-4.8700
1266.5040;-31.7800;-26.9100;-4.8700
1266.7040;-31.6800;-26.8000;-4.8800
1266.9030;-31.5600;-26.6800;-4.8800
1267.1020;-31.4500;-26.5700;-4.8800
1267.3010;-31.3500;-26.4700;-4.8800
1267.5000;-31.2500;-26.3500;-4.9000
1267.6990;-31.1700;-26.2500;-4.9200
1267.8980;-31.0600;-26.1300;-4.9300
1268.0970;-30.9800;-26.0200;-4.9600
1268.2970;-30.9000;-25.9100;-4.9900
1268.4960;-30.8100;-25.8200;-4.9900
1268.6950;-30.7300;-25.7100;-5.0200
1268.8940;-30.6400;-25.5900;-5.0500
1269.0930;-30.5600;-25.4900;-5.0700
1269.2920;-30.4900;-25.3700;-5.1200
1269.4910;-30.4200;-25.2600;-5.1600
1269.6900;-30.3500;-25.1500;-5.2000
1269.8890;-30.2700;-25.0300;-5.2400
1270.0890;-30.1900;-24.9300;-5.2600
1270.2880;-30.1300;-24.8000;-5.3300
1270.4870;-30.0700;-24.7000;-5.3700
1270.6860;-30.0100;-24.5900;-5.4200
1270.8850;-29.9400;-24.4700;-5.4700
1271.0840;-29.8700;-24.3700;-5.5000
1271.2830;-29.8200;-24.2600;-5.5600
1271.4820;-29.7600;-24.1500;-5.6100
1271.6810;-29.7200;-24.0500;-5.6700
1271.8810;-29.6500;-23.9400;-5.7100
1272.0800;-29.6100;-23.8500;-5.7600
1272.2790;-29.5700;-23.7300;-5.8400
1272.4780;-29.5300;-23.6400;-5.8900
1272.6770;-29.5100;-23.5400;-5.9700
1272.8760;-29.4700;-23.4300;-6.0400
1273.0750;-29.4400;-23.3400;-6.1000
1273.2740;-29.4200;-23.2300;-6.1900
1273.4740;-29.4000;-23.1300;-6.2700
1273.6730;-29.3900;-23.0300;-6.3600
1273.8720;-29.3700;-22.9300;-6.4400
1274.0710;-29.3700;-22.8400;-6.5300
1274.2700;-29.3500;-22.7300;-6.6200
1274.4690;-29.3400;-22.6300;-6.7100
1274.6680;-29.3500;-22.5200;-6.8300
1274.8670;-29.3400;-22.4100;-6.9300
1275.0660;-29.3400;-22.3200;-7.0200
1275.2660;-29.3300;-22.2000;-7.1300
1275.4650;-29.3300;-22.1100;-7.2200
1275.6640;-29.3300;-22.0100;-7.3200
1275.8630;-29.3200;-21.9100;-7.4100
1276.0620;-29.3300;-21.8100;-7.5200
1276.2610;-29.3200;-21.7100;-7.6100
1276.4600;-29.3100;-21.6200;-7.6900
1276.6590;-29.3000;-21.5100;-7.7900
1276.8580;-29.2900;-21.4200;-7.8700
1277.0580;-29.3100;-21.3400;-7.9700
1277.2570;-29.2900;-21.2300;-8.0600
1277.4560;-29.3000;-21.1600;-8.1400
1277.6550;-29.3000;-21.0600;-8.2400
1277.8540;-29.3000;-20.9700;-8.3300
1278.0530;-29.3100;-20.8800;-8.4300
1278.2520;-29.3000;-20.7900;-8.5100
1278.4510;-29.3100;-20.7200;-8.5900
1278.6500;-29.3100;-20.6200;-8.6900
1278.8500;-29.3100;-20.5300;-8.7800
1279.0490;-29.3200;-20.4400;-8.8800
1279.2480;-29.3100;-20.3500;-8.9600
1279.4470;-29.3100;-20.2800;-9.0300
1279.6460;-29.3000;-20.1800;-9.1200
1279.8450;-29.2900;-20.1000;-9.1900
1280.0440;-29.2800;-20.0100;-9.2700
1280.2430;-29.2600;-19.9100;-9.3500
1280.4430;-29.2600;-19.8400;-9.4200
1280.6420;-29.2200;-19.7500;-9.4700
1280.8410;-29.1900;-19.6700;-9.5200
1281.0400;-29.1600;-19.5800;-9.5800
1281.2390;-29.1200;-19.4900;-9.6300
1281.4380;-29.0800;-19.4200;-9.6600
1281.6370;-29.0100;-19.3300;-9.6800
1281.8360;-28.9600;-19.2600;-9.7000
1282.0350;-28.8900;-19.1700;-9.7200
1282.2350;-28.8100;-19.0900;-9.7200
1282.4340;-28.7500;-19.0100;-9.7400
1282.6330;-28.6600;-18.9400;-9.7200
1282.8320;-28.5800;-18.8700;-9.7100
1283.0310;-28.4800;-18.7800;-9.7000
1283.2300;-28.3800;-18.7100;-9.6700
1283.4290;-28.2800;-18.6400;-9.6400
1283.6280;-28.1600;-18.5600;-9.6000
1283.8270;-28.0600;-18.4900;-9.5700
1284.0270;-27.9300;-18.4100;-9.5200
1284.2260;-27.8000;-18.3400;-9.4600
1284.4250;-27.6800;-18.2700;-9.4100
1284.6240;-27.5500;-18.1900;-9.3600
1284.8230;-27.4200;-18.1300;-9.2900
1285.0220;-27.2700;-18.0400;-9.2300
1285.2210;-27.1300;-17.9700;-9.1600
1285.4200;-26.9800;-17.9000;-9.0800
1285.6200;-26.8300;-17.8300;-9.0000
1285.8190;-26.7000;-17.7700;-8.9300
1286.0180;-26.5300;-17.6900;-8.8400
1286.2170;-26.3800;-17.6200;-8.7600
1286.4160;-26.2300;-17.5400;-8.6900
1286.6150;-26.0500;-17.4800;-8.5700
1286.8140;-25.9200;-17.4300;-8.4900
1287.0130;-25.7600;-17.3500;-8.4100
1287.2120;-25.6200;-17.2900;-8.3300
1287.4120;-25.4500;-17.2200;-8.2300
1287.6110;-25.3000;-17.1500;-8.1500
1287.8100;-25.1400;-17.1000;-8.0400
1288.0090;-24.9800;-17.0200;-7.9600
1288.2080;-24.8400;-16.9700;-7.8700
1288.4070;-24.6900;-16.9000;-7.7900
1288.6060;-24.5400;-16.8400;-7.7000
1288.8050;-24.3900;-16.7900;-7.6000
1289.0040;-24.2500;-16.7200;-7.5300
1289.2040;-24.1200;-16.6700;-7.4500
1289.4030;-23.9700;-16.6000;-7.3700
1289.6020;-23.8400;-16.5400;-7.3000
1289.8010;-23.7000;-16.4900;-7.2100
1290.0000;-23.5600;-16.4200;-7.1400
1290.1990;-23.4500;-16.3800;-7.0700
1290.3980;-23.3100;-16.3100;-7.0000
1290.5970;-23.2000;-16.2700;-6.9300
1290.7970;-23.0700;-16.2100;-6.8600
1290.9960;-22.9400;-16.1400;-6.8000
1291.1950;-22.8300;-16.0900;-6.7400
1291.3940;-22.7100;-16.0400;-6.6700
1291.5930;-22.6000;-15.9800;-6.6200
1291.7920;-22.4800;-15.9200;-6.5600
1291.9910;-22.3800;-15.8700;-6.5100
1292.1900;-22.2800;-15.8100;-6.4700
1292.3890;-22.1700;-15.7600;-6.4100
1292.5890;-22.0800;-15.7100;-6.3700
1292.7880;-21.9800;-15.6500;-6.3300
1292.9870;-21.9100;-15.6200;-6.2900
1293.1860;-21.8200;-15.5600;-6.2600
1293.3850;-21.7300;-15.5100;-6.2200
1293.5840;-21.6600;-15.4500;-6.2100
1293.7830;-21.5800;-15.4000;-6.1800
1293.9820;-21.5300;-15.3700;-6.1600
1294.1810;-21.4500;-15.3100;-6.1400
1294.3810;-21.3900;-15.2700;-6.1200
1294.5800;-21.3300;-15.2200;-6.1100
1294.7790;-21.2700;-15.1700;-6.1000
1294.9780;-21.2400;-15.1300;-6.1100
1295.1770;-21.1800;-15.0800;-6.1000
1295.3760;-21.1400;-15.0400;-6.1000
1295.5750;-21.0900;-14.9800;-6.1100
1295.7740;-21.0500;-14.9300;-6.1200
1295.9740;-21.0200;-14.8900;-6.1300
1296.1730;-20.9800;-14.8400;-6.1400
1296.3720;-20.9600;-14.8100;-6.1500
1296.5710;-20.9200;-14.7500;-6.1700
1296.7700;-20.9000;-14.7100;-6.1900
1296.9690;-20.9000;-14.6700;-6.2300
1297.1680;-20.8800;-14.6300;-6.2500
1297.3670;-20.8800;-14.6000;-6.2800
1297.5660;-20.8600;-14.5400;-6.3200
1297.7660;-20.8500;-14.5000;-6.3500
1297.9650;-20.8600;-14.4700;-6.3900
1298.1640;-20.8600;-14.4300;-6.4300
1298.3630;-20.8900;-14.4100;-6.4800
1298.5620;-20.8800;-14.3500;-6.5300
1298.7610;-20.9000;-14.3300;-6.5700
1298.9600;-20.9200;-14.2900;-6.6300
1299.1590;-20.9500;-14.2500;-6.7000
1299.3580;-20.9900;-14.2300;-6.7600
1299.5580;-21.0100;-14.1800;-6.8300
1299.7570;-21.0500;-14.1500;-6.9000
1299.9560;-21.0900;-14.1200;-6.9700
1300.1550;-21.1400;-14.0900;-7.0500
1300.3540;-21.2100;-14.0600;-7.1500
1300.5530;-21.2400;-14.0100;-7.2300
1300.7520;-21.3100;-14.0000;-7.3100
1300.9510;-21.3700;-13.9600;-7.4100
1301.1500;-21.4500;-13.9400;-7.5100
1301.3500;-21.5200;-13.9100;-7.6100
1301.5490;-21.6000;-13.8900;-7.7100
1301.7480;-21.7000;-13.8800;-7.8200
1301.9470;-21.7700;-13.8400;-7.9300
1302.1460;-21.8700;-13.8300;-8.0400
1302.3450;-21.9700;-13.8100;-8.1600
1302.5440;-22.0700;-13.7900;-8.2800
1302.7430;-22.1800;-13.7800;-8.4000
1302.9430;-22.2800;-13.7500;-8.5300
1303.1420;-22.4100;-13.7500;-8.6600
1303.3410;-22.5200;-13.7200;-8.8000
1303.5400;-22.6400;-13.7100;-8.9300
1303.7390;-22.7800;-13.7100;-9.0700
1303.9380;-22.9000;-13.6800;-9.2200
1304.1370;-23.0500;-13.6800;-9.3700
1304.3360;-23.1700;-13.6600;-9.5100
1304.5350;-23.3300;-13.6500;-9.6800
1304.7350;-23.4900;-13.6400;-9.8500
1304.9340;-23.6300;-13.6300;-10.0000
1305.1330;-23.8100;-13.6300;-10.1800
1305.3320;-23.9500;-13.6000;-10.3500
1305.5310;-24.1300;-13.6100;-10.5200
1305.7300;-24.3000;-13.6000;-10.7000
1305.9290;-24.4600;-13.5800;-10.8800
1306.1280;-24.6500;-13.6000;-11.0500
1306.3270;-24.8200;-13.5800;-11.2400
1306.5270;-25.0100;-13.5900;-11.4200
1306.7260;-25.1800;-13.5900;-11.5900
1306.9250;-25.3400;-13.5800;-11.7600
1307.1240;-25.5400;-13.6000;-11.9400
1307.3230;-25.7000;-13.5900;-12.1100
1307.5220;-25.8800;-13.6100;-12.2700
1307.7210;-26.0300;-13.6100;-12.4200
1307.9200;-26.1800;-13.6100;-12.5700
1308.1200;-26.3500;-13.6300;-12.7200
1308.3190;-26.4800;-13.6300;-12.8500
1308.5180;-26.6300;-13.6500;-12.9800
1308.7170;-26.7400;-13.6500;-13.0900
1308.9160;-26.8400;-13.6500;-13.1900
1309.1150;-26.9400;-13.6800;-13.2600
1309.3140;-27.0100;-13.6900;-13.3200
1309.5130;-27.0900;-13.7200;-13.3700
1309.7120;-27.1200;-13.7200;-13.4000
1309.9120;-27.1500;-13.7400;-13.4100
1310.1110;-27.1600;-13.7600;-13.4000
1310.3100;-27.1400;-13.7700;-13.3700
1310.5090;-27.1400;-13.8100;-13.3300
1310.7080;-27.0800;-13.8100;-13.2700
1310.9070;-27.0200;-13.8400;-13.1800
1311.1060;-26.9400;-13.8600;-13.0800
1311.3050;-26.8400;-13.8800;-12.9600
1311.5040;-26.7400;-13.9200;-12.8200
1311.7040;-26.6000;-13.9300;-12.6700
1311.9030;-26.4900;-13.9700;-12.5200
1312.1020;-26.3300;-13.9800;-12.3500
1312.3010;-26.1900;-14.0100;-12.1800
1312.5000;-26.0300;-14.0600;-11.9700
1312.6990;-25.8700;-14.0800;-11.7900
1312.8980;-25.7100;-14.1300;-11.5800
1313.0970;-25.5300;-14.1500;-11.3800
1313.2970;-25.3700;-14.1900;-11.1800
1313.4960;-25.2000;-14.2300;-10.9700
1313.6950;-25.0300;-14.2600;-10.7700
1313.8940;-24.8700;-14.3100;-10.5600
1314.0930;-24.7000;-14.3500;-10.3500
1314.2920;-24.5600;-14.3900;-10.1700
1314.4910;-24.3900;-14.4300;-9.9600
1314.6900;-24.2400;-14.4700;-9.7700
1314.8890;-24.0800;-14.5200;-9.5600
1315.0890;-23.9300;-14.5500;-9.3800
1315.2880;-23.7900;-14.6100;-9.1800
1315.4870;-23.6500;-14.6500;-9.0000
1315.6860;-23.5300;-14.7100;-8.8200
1315.8850;-23.3900;-14.7500;-8.6400
1316.0840;-23.2700;-14.8000;-8.4700
1316.2830;-23.1500;-14.8500;-8.3000
1316.4820;-23.0400;-14.9100;-8.1300
1316.6810;-22.9400;-14.9700;-7.9700
1316.8810;-22.8300;-15.0200;-7.8100
1317.0800;-22.7500;-15.0800;-7.6700
1317.2790;-22.6500;-15.1500;-7.5000
1317.4780;-22.5700;-15.2000;-7.3700
1317.6770;-22.5000;-15.2700;-7.2300
1317.8760;-22.4100;-15.3200;-7.0900
1318.0750;-22.3600;-15.3800;-6.9800
1318.2740;-22.2800;-15.4400;-6.8400
1318.4740;-22.2200;-15.5000;-6.7200
1318.6730;-22.1700;-15.5900;-6.5800
1318.8720;-22.1200;-15.6500;-6.4700
1319.0710;-22.0900;-15.7400;-6.3500
1319.2700;-22.0500;-15.7900;-6.2600
1319.4690;-22.0200;-15.8600;-6.1600
1319.6680;-21.9900;-15.9500;-6.0400
1319.8670;-21.9600;-16.0100;-5.9500
1320.0660;-21.9500;-16.1000;-5.8500
1320.2660;-21.9300;-16.1700;-5.7600
1320.4650;-21.9300;-16.2500;-5.6800
1320.6640;-21.9200;-16.3300;-5.5900
1320.8630;-21.9200;-16.4000;-5.5200
1321.0620;-21.9200;-16.4900;-5.4300
1321.2610;-21.9200;-16.5600;-5.3600
1321.4600;-21.9500;-16.6600;-5.2900
1321.6590;-21.9500;-16.7300;-5.2200
1321.8580;-21.9900;-16.8200;-5.1700
1322.0580;-22.0000;-16.9100;-5.0900
1322.2570;-22.0300;-16.9900;-5.0400
1322.4560;-22.0600;-17.0900;-4.9700
1322.6550;-22.1000;-17.1700;-4.9300
1322.8540;-22.1600;-17.2700;-4.8900
1323.0530;-22.1900;-17.3600;-4.8300
1323.2520;-22.2500;-17.4500;-4.8000
1323.4510;-22.3000;-17.5600;-4.7400
1323.6500;-22.3500;-17.6400;-4.7100
1323.8500;-22.4200;-17.7500;-4.6700
1324.0490;-22.4800;-17.8400;-4.6400
1324.2480;-22.5600;-17.9500;-4.6100
1324.4470;-22.6300;-18.0500;-4.5800
1324.6460;-22.7000;-18.1400;-4.5600
1324.8450;-22.7800;-18.2600;-4.5200
1325.0440;-22.8600;-18.3600;-4.5000
1325.2430;-22.9600;-18.5000;-4.4600
1325.4430;-23.0400;-18.5800;-4.4600
1325.6420;-23.1600;-18.7000;-4.4600
1325.8410;-23.2400;-18.8200;-4.4200
1326.0400;-23.3400;-18.9200;-4.4200
1326.2390;-23.4500;-19.0500;-4.4000
1326.4380;-23.5400;-19.1500;-4.3900
1326.6370;-23.6600;-19.2700;-4.3900
1326.8360;-23.7700;-19.3900;-4.3800
1327.0350;-23.8900;-19.5100;-4.3800
1327.2350;-24.0100;-19.6400;-4.3700
1327.4340;-24.1200;-19.7500;-4.3700
1327.6330;-24.2600;-19.8700;-4.3900
1327.8320;-24.3700;-19.9900;-4.3800
1328.0310;-24.5100;-20.1100;-4.4000
1328.2300;-24.6300;-20.2500;-4.3800
1328.4290;-24.7700;-20.3700;-4.4000
1328.6280;-24.9100;-20.5100;-4.4000
1328.8270;-25.0500;-20.6300;-4.4200
1329.0270;-25.2000;-20.7600;-4.4400
1329.2260;-25.3300;-20.9000;-4.4300
1329.4250;-25.4800;-21.0200;-4.4600
1329.6240;-25.6100;-21.1700;-4.4400
1329.8230;-25.7600;-21.2900;-4.4700
1330.0220;-25.9200;-21.4300;-4.4900
1330.2210;-26.0600;-21.5600;-4.5000
1330.4200;-26.2300;-21.6900;-4.5400
1330.6200;-26.3700;-21.8400;-4.5300
1330.8190;-26.5300;-21.9700;-4.5600
1331.0180;-26.6900;-22.1100;-4.5800
1331.2170;-26.8500;-22.2600;-4.5900
1331.4160;-27.0300;-22.3900;-4.6400
1331.6150;-27.1800;-22.5500;-4.6300
1331.8140;-27.3600;-22.6800;-4.6800
1332.0130;-27.5200;-22.8400;-4.6800
1332.2120;-27.6900;-22.9700;-4.7200
1332.4120;-27.8600;-23.1200;-4.7400
1332.6110;-28.0300;-23.2800;-4.7500
1332.8100;-28.2100;-23.4200;-4.7900
1333.0090;-28.3700;-23.5800;-4.7900
1333.2080;-28.5900;-23.7200;-4.8700
1333.4070;-28.7300;-23.8800;-4.8500
1333.6060;-28.9100;-24.0200;-4.8900
1333.8050;-29.0800;-24.1800;-4.9000
1334.0040;-29.2700;-24.3300;-4.9400
1334.2040;-29.4400;-24.4800;-4.9600
1334.4030;-29.6200;-24.6500;-4.9700
1334.6020;-29.8000;-24.7900;-5.0100
1334.8010;-29.9800;-24.9500;-5.0300
1335.0000;-30.1700;-25.1100;-5.0600
1335.1990;-30.3400;-25.2600;-5.0800
1335.3980;-30.5200;-25.4300;-5.0900
1335.5970;-30.7000;-25.5700;-5.1300
1335.7970;-30.8800;-25.7400;-5.1400
1335.9960;-31.0800;-25.9000;-5.1800
1336.1950;-31.2500;-26.0600;-5.1900
1336.3940;-31.4300;-26.2200;-5.2100
1336.5930;-31.6000;-26.3700;-5.2300
1336.7920;-31.7700;-26.5400;-5.2300
1336.9910;-31.9500;-26.6900;-5.2600
1337.1900;-32.1300;-26.8600;-5.2700
1337.3890;-32.3200;-27.0200;-5.3000
1337.5890;-32.4800;-27.1800;-5.3000
1337.7880;-32.6600;-27.3500;-5.3100
1337.9870;-32.8400;-27.5100;-5.3300
1338.1860;-33.0100;-27.6800;-5.3300
1338.3850;-33.2000;-27.8300;-5.3700
1338.5840;-33.3600;-28.0000;-5.3600
1338.7830;-33.5400;-28.1600;-5.3800
1338.9820;-33.7100;-28.3200;-5.3900
1339.1810;-33.8800;-28.5300;-5.3500
1339.3810;-34.0600;-28.6700;-5.3900
1339.5800;-34.2300;-28.8400;-5.3900
1339.7790;-34.4100;-29.0000;-5.4100
1339.9780;-34.5700;-29.1800;-5.3900
1340.1770;-34.7400;-29.3500;-5.3900
1340.3760;-34.9200;-29.5200;-5.4000
1340.5750;-35.1000;-29.7100;-5.3900
1340.7740;-35.2700;-29.8700;-5.4000
1340.9740;-35.4300;-30.0400;-5.3900
1341.1730;-35.6000;-30.2000;-5.4000
1341.3720;-35.7600;-30.3700;-5.3900
1341.5710;-35.9200;-30.5400;-5.3800
1341.7700;-36.1000;-30.7100;-5.3900
1341.9690;-36.2500;-30.8900;-5.3600
1342.1680;-36.4200;-31.0500;-5.3700
1342.3670;-36.5800;-31.2300;-5.3500
1342.5660;-36.7400;-31.3900;-5.3500
1342.7660;-36.9100;-31.5600;-5.3500
1342.9650;-37.0600;-31.7400;-5.3200
1343.1640;-37.2400;-31.9100;-5.3300
1343.3630;-37.3900;-32.0900;-5.3000
1343.5620;-37.5600;-32.2500;-5.3100
1343.7610;-37.7200;-32.4200;-5.3000
1343.9600;-37.8800;-32.6000;-5.2800
1344.1590;-38.0600;-32.7800;-5.2800
1344.3580;-38.2200;-32.9600;-5.2600
1344.5580;-38.3900;-33.1300;-5.2600
1344.7570;-38.5800;-33.3000;-5.2800
1344.9560;-38.7100;-33.4700;-5.2400
1345.1550;-38.8600;-33.6300;-5.2300
1345.3540;-39.0100;-33.8000;-5.2100
1345.5530;-39.1700;-33.9600;-5.2100
1345.7520;-39.3200;-34.1400;-5.1800
1345.9510;-39.5000;-34.3000;-5.2000
1346.1500;-39.6500;-34.4600;-5.1900
1346.3500;-39.8200;-34.6500;-5.1700
1346.5490;-39.9900;-34.8200;-5.1700
1346.7480;-40.1400;-35.0000;-5.1400
1346.9470;-40.3100;-35.1500;-5.1600
1347.1460;-40.4600;-35.3100;-5.1500
1347.3450;-40.6000;-35.4700;-5.1300
1347.5440;-40.8000;-35.6700;-5.1300
1347.7430;-41.0000;-35.9000;-5.1000
1347.9430;-41.1900;-36.0800;-5.1100
1348.1420;-41.3400;-36.2400;-5.1000
1348.3410;-41.5200;-36.4200;-5.1000
1348.5400;-41.6400;-36.5500;-5.0900
1348.7390;-41.7800;-36.7100;-5.0700
1348.9380;-41.9300;-36.8400;-5.0900
1349.1370;-42.0700;-37.0000;-5.0700
1349.3360;-42.2100;-37.1300;-5.0800
1349.5350;-42.3400;-37.2700;-5.0700
1349.7350;-42.4800;-37.4200;-5.0600
1349.9340;-42.6300;-37.5800;-5.0500
1350.1330;-42.8100;-37.7700;-5.0400
1350.3320;-43.0500;-37.9900;-5.0600
1350.5310;-43.2200;-38.1800;-5.0400
1350.7300;-43.3800;-38.3400;-5.0400
1350.9290;-43.5000;-38.4800;-5.0200
1351.1280;-43.6000;-38.5800;-5.0200
1351.3270;-43.7400;-38.7100;-5.0300
1351.5270;-43.8900;-38.8800;-5.0100
1351.7260;-44.1100;-39.0900;-5.0200
1351.9250;-44.2700;-39.2700;-5.0000
1352.1240;-44.4200;-39.4100;-5.0100
1352.3230;-44.5600;-39.5700;-4.9900
1352.5220;-44.7400;-39.7600;-4.9800
1352.7210;-44.8700;-39.8800;-4.9900
1352.9200;-45.0000;-40.0400;-4.9600
1353.1200;-45.2500;-40.2600;-4.9900
1353.3190;-45.3100;-40.3500;-4.9600
1353.5180;-45.4600;-40.5000;-4.9600
1353.7170;-45.6200;-40.6500;-4.9700
1353.9160;-45.6800;-40.7400;-4.9400
1354.1150;-45.8100;-40.8700;-4.9400
1354.3140;-45.9900;-41.0800;-4.9100
1354.5130;-46.1600;-41.2400;-4.9200
1354.7120;-46.4300;-41.5400;-4.8900
1354.9120;-46.6800;-41.8000;-4.8800
1355.1110;-46.8300;-41.9500;-4.8800
1355.3100;-46.9200;-42.0600;-4.8600
1355.5090;-46.8900;-42.0300;-4.8600
1355.7080;-47.1100;-42.2800;-4.8300
1355.9070;-47.3400;-42.5200;-4.8200
1356.1060;-47.4500;-42.6600;-4.7900
1356.3050;-47.4900;-42.7200;-4.7700
1356.5040;-47.5700;-42.7900;-4.7800
1356.7040;-47.4400;-42.7000;-4.7400
1356.9030;-47.5500;-42.8200;-4.7300
1357.1020;-47.8700;-43.1700;-4.7000
1357.3010;-48.0500;-43.3700;-4.6800
1357.5000;-48.1800;-43.5200;-4.6600
1357.6990;-48.3100;-43.6800;-4.6300
1357.8980;-48.3200;-43.7000;-4.6200
1358.0970;-48.3200;-43.7400;-4.5800
1358.2970;-48.4800;-43.8900;-4.5900
1358.4960;-48.6400;-44.0900;-4.5500
1358.6950;-48.7200;-44.2100;-4.5100
1358.8940;-48.8100;-44.3300;-4.4800
1359.0930;-48.9100;-44.4600;-4.4500
1359.2920;-48.9000;-44.4700;-4.4300
1359.4910;-49.2100;-44.8200;-4.3900
1359.6900;-49.4700;-45.0900;-4.3800
1359.8890;-49.5800;-45.2600;-4.3200
1360.0890;-49.6000;-45.2900;-4.3100
1360.2880;-49.5600;-45.2800;-4.2800
1360.4870;-49.4800;-45.2600;-4.2200
1360.6860;-49.5900;-45.3900;-4.2000
1360.8850;-49.8700;-45.7100;-4.1600
1361.0840;-50.1100;-45.9800;-4.1300
1361.2830;-50.2000;-46.1200;-4.0800
1361.4820;-50.3100;-46.2600;-4.0500
1361.6810;-50.4700;-46.4400;-4.0300
1361.8810;-50.5300;-46.5600;-3.9700
1362.0800;-50.7000;-46.7500;-3.9500
1362.2790;-51.0700;-47.1500;-3.9200
1362.4780;-51.2500;-47.3600;-3.8900
1362.6770;-51.3100;-47.4700;-3.8400
1362.8760;-51.1300;-47.3400;-3.7900
1363.0750;-51.0200;-47.2400;-3.7800
1363.2740;-50.7100;-46.9900;-3.7200
1363.4740;-50.7500;-47.0400;-3.7100
1363.6730;-50.7700;-47.1100;-3.6600
1363.8720;-50.8700;-47.2400;-3.6300
1364.0710;-51.0200;-47.4300;-3.5900
1364.2700;-51.1600;-47.6100;-3.5500
1364.4690;-51.4300;-47.9000;-3.5300
1364.6680;-51.8800;-48.3900;-3.4900
1364.8670;-52.0700;-48.6100;-3.4600
1365.0660;-51.9700;-48.5600;-3.4100
1365.2660;-52.1100;-48.6900;-3.4200
1365.4650;-52.0000;-48.6100;-3.3900
1365.6640;-52.0100;-48.6700;-3.3400
1365.8630;-52.0200;-48.6900;-3.3300
1366.0620;-51.9700;-48.6700;-3.3000
1366.2610;-51.9200;-48.6400;-3.2800
1366.4600;-51.9400;-48.6900;-3.2500
1366.6590;-52.0600;-48.8400;-3.2200
1366.8580;-52.2600;-49.0600;-3.2000
1367.0580;-52.3600;-49.1800;-3.1800
1367.2570;-52.4400;-49.2700;-3.1700
1367.4560;-52.6700;-49.5200;-3.1500
1367.6550;-52.8200;-49.6800;-3.1400
1367.8540;-53.0500;-49.9300;-3.1200
1368.0530;-53.1400;-50.0400;-3.1000
1368.2520;-53.0900;-49.9900;-3.1000
1368.4510;-53.4000;-50.3200;-3.0800
1368.6500;-53.4700;-50.3800;-3.0900
1368.8500;-53.5300;-50.4700;-3.0600
1369.0490;-53.5000;-50.4200;-3.0800
1369.2480;-53.4300;-50.3600;-3.0700
1369.4470;-53.3300;-50.2800;-3.0500
1369.6460;-53.4200;-50.3600;-3.0600
1369.8450;-53.7200;-50.6900;-3.0300
1370.0440;-53.9100;-50.8500;-3.0600
1370.2430;-54.0100;-50.9600;-3.0500
1370.4430;-54.0500;-50.9800;-3.0700
1370.6420;-54.0400;-50.9700;-3.0700
1370.8410;-54.3400;-51.2900;-3.0500
1371.0400;-54.6100;-51.5300;-3.0800
1371.2390;-54.7700;-51.7000;-3.0700
1371.4380;-54.7900;-51.6700;-3.1200
1371.6370;-54.7300;-51.6200;-3.1100
1371.8360;-54.7000;-51.5700;-3.1300
1372.0350;-54.8800;-51.7400;-3.1400
1372.2350;-55.0700;-51.9400;-3.1300
1372.4340;-55.1800;-52.0000;-3.1800
1372.6330;-55.2400;-52.0600;-3.1800
1372.8320;-55.2900;-52.0600;-3.2300
1373.0310;-55.3100;-52.0700;-3.2400
1373.2300;-55.4400;-52.1800;-3.2600
1373.4290;-55.6000;-52.3100;-3.2900
1373.6280;-55.7100;-52.3900;-3.3200
1373.8270;-55.8100;-52.4500;-3.3600
1374.0270;-55.9200;-52.5400;-3.3800
1374.2260;-56.0200;-52.6100;-3.4100
1374.4250;-56.1700;-52.7300;-3.4400
1374.6240;-56.3100;-52.8400;-3.4700
1374.8230;-56.5100;-53.0000;-3.5100
1375.0220;-56.7000;-53.1600;-3.5400
1375.2210;-56.8200;-53.2100;-3.6100
1375.4200;-56.8900;-53.2500;-3.6400
1375.6200;-56.9800;-53.3000;-3.6800
1375.8190;-57.1100;-53.3900;-3.7200
1376.0180;-57.2800;-53.5200;-3.7600
1376.2170;-57.4400;-53.6200;-3.8200
1376.4160;-57.5700;-53.7100;-3.8600
1376.6150;-57.7100;-53.7700;-3.9400
1376.8140;-57.8700;-53.9100;-3.9600
1377.0130;-58.1300;-54.1300;-4.0000
1377.2120;-58.3300;-54.2700;-4.0600
1377.4120;-58.4600;-54.3300;-4.1300
1377.6110;-58.5700;-54.3600;-4.2100
1377.8100;-58.5700;-54.3000;-4.2700
1378.0090;-58.6700;-54.3400;-4.3300
1378.2080;-58.8000;-54.4200;-4.3800
1378.4070;-59.0200;-54.5700;-4.4500
1378.6060;-59.3100;-54.8000;-4.5100
1378.8050;-59.6300;-55.0800;-4.5500
1379.0040;-59.8100;-55.1800;-4.6300
1379.2040;-59.9200;-55.2200;-4.7000
1379.4030;-59.9400;-55.1600;-4.7800
1379.6020;-59.9400;-55.1100;-4.8300
1379.8010;-60.0400;-55.1400;-4.9000
1380.0000;-60.2100;-55.2600;-4.9500
1380.1990;-60.4400;-55.4100;-5.0300
1380.3980;-60.6900;-55.5900;-5.1000
1380.5970;-61.2800;-56.1300;-5.1500
1380.7970;-61.7800;-56.5600;-5.2200
1380.9960;-61.9900;-56.7000;-5.2900
1381.1950;-62.0500;-56.6700;-5.3800
1381.3940;-61.7900;-56.3700;-5.4200
1381.5930;-61.5600;-56.1000;-5.4600
1381.7920;-61.6600;-56.1200;-5.5400
1381.9910;-61.7300;-56.1400;-5.5900
1382.1900;-61.9200;-56.2400;-5.6800
1382.3890;-62.2400;-56.5300;-5.7100
1382.5890;-62.8200;-57.0600;-5.7600
1382.7880;-63.3100;-57.5100;-5.8000
1382.9870;-63.5600;-57.7200;-5.8400
1383.1860;-63.3700;-57.4500;-5.9200
1383.3850;-63.1100;-57.1600;-5.9500
1383.5840;-62.9600;-56.9600;-6.0000
1383.7830;-63.0800;-57.0600;-6.0200
1383.9820;-63.2400;-57.1800;-6.0600
1384.1810;-63.2800;-57.2000;-6.0800
1384.3810;-63.3000;-57.1900;-6.1100
1384.5800;-63.2400;-57.1400;-6.1000
1384.7790;-63.3500;-57.2100;-6.1400
1384.9780;-63.6700;-57.5000;-6.1700
1385.1770;-63.8600;-57.6900;-6.1700
1385.3760;-63.9500;-57.7900;-6.1600
1385.5750;-63.9200;-57.7100;-6.2100
1385.7740;-63.8600;-57.7400;-6.1200
1385.9740;-63.8900;-57.7100;-6.1800
1386.1730;-63.8900;-57.7300;-6.1600
1386.3720;-64.0100;-57.8700;-6.1400
1386.5710;-64.0000;-57.8800;-6.1200
1386.7700;-63.9500;-57.8900;-6.0600
1386.9690;-63.9900;-57.9200;-6.0700
1387.1680;-63.9600;-57.9300;-6.0300
1387.3670;-63.9700;-57.9700;-6.0000
1387.5660;-64.0400;-58.0300;-6.0100
1387.7660;-64.3000;-58.3200;-5.9800
1387.9650;-64.5000;-58.6100;-5.8900
1388.1640;-64.6700;-58.8200;-5.8500
1388.3630;-64.7700;-58.9300;-5.8400
1388.5620;-64.6400;-58.8600;-5.7800
1388.7610;-64.4300;-58.7100;-5.7200
1388.9600;-64.3300;-58.6600;-5.6700
1389.1590;-64.2200;-58.6000;-5.6200
1389.3580;-64.1600;-58.6300;-5.5300
1389.5580;-64.1700;-58.6900;-5.4800
1389.7570;-64.2300;-58.7700;-5.4600
1389.9560;-64.2800;-58.9200;-5.3600
1390.1550;-64.3400;-58.9700;-5.3700
1390.3540;-64.2900;-59.0100;-5.2800
1390.5530;-64.3000;-59.0400;-5.2600
1390.7520;-64.2500;-59.0500;-5.2000
1390.9510;-64.2600;-59.1100;-5.1500
1391.1500;-64.2200;-59.1700;-5.0500
1391.3500;-64.2100;-59.2200;-4.9900
1391.5490;-64.2700;-59.3000;-4.9700
1391.7480;-64.2500;-59.3600;-4.8900
1391.9470;-64.2800;-59.4400;-4.8400
1392.1460;-64.4000;-59.6100;-4.7900
1392.3450;-64.5600;-59.8200;-4.7400
1392.5440;-64.9400;-60.2300;-4.7100
1392.7430;-65.0300;-60.3800;-4.6500
1392.9430;-64.8800;-60.3000;-4.5800
1393.1420;-64.7500;-60.1400;-4.6100
1393.3410;-64.4200;-59.9200;-4.5000
1393.5400;-64.3600;-59.8900;-4.4700
1393.7390;-64.3700;-59.9500;-4.4200
1393.9380;-64.4200;-59.9800;-4.4400
1394.1370;-64.3900;-60.0800;-4.3100
1394.3360;-64.4200;-60.1300;-4.2900
1394.5350;-64.4700;-60.2100;-4.2600
1394.7350;-64.5600;-60.3200;-4.2400
1394.9340;-64.8100;-60.5900;-4.2200
1395.1330;-64.9900;-60.8200;-4.1700
1395.3320;-65.0800;-60.9100;-4.1700
1395.5310;-65.1400;-61.0300;-4.1100
1395.7300;-65.1600;-61.0200;-4.1400
1395.9290;-65.0100;-60.9400;-4.0700
1396.1280;-65.0100;-60.9300;-4.0800
1396.3270;-65.1300;-61.0800;-4.0500
1396.5270;-65.3700;-61.3300;-4.0400
1396.7260;-65.4700;-61.4800;-3.9900
1396.9250;-65.4400;-61.4200;-4.0200
1397.1240;-65.3200;-61.2700;-4.0500
1397.3230;-65.2200;-61.1900;-4.0300
1397.5220;-65.1400;-61.1500;-3.9900
1397.7210;-65.1900;-61.1700;-4.0200
1397.9200;-65.2400;-61.2200;-4.0200
1398.1200;-65.2900;-61.2600;-4.0300
1398.3190;-65.3000;-61.3300;-3.9700
1398.5180;-65.4200;-61.4100;-4.0100
1398.7170;-65.4200;-61.4700;-3.9500
1398.9160;-65.5800;-61.5200;-4.0600
1399.1150;-65.7200;-61.5800;-4.1400
1399.3140;-65.7800;-61.6800;-4.1000
1399.5130;-66.0400;-61.9700;-4.0700
1399.7120;-66.2000;-62.0800;-4.1200
1399.9120;-66.3900;-62.1600;-4.2300
1400.1110;-66.5200;-62.3100;-4.2100
1400.3100;-66.5100;-62.2800;-4.2300
1400.5090;-66.6800;-62.3300;-4.3500
1400.7080;-67.0500;-62.7300;-4.3200
1400.9070;-67.1200;-62.8000;-4.3200
1401.1060;-67.1200;-62.7600;-4.3600
1401.3050;-67.2600;-62.7600;-4.5000
1401.5040;-67.2200;-62.6400;-4.5800
1401.7040;-67.3400;-62.6600;-4.6800
1401.9030;-67.4000;-62.7100;-4.6900
1402.1020;-67.5000;-62.6800;-4.8200
1402.3010;-67.5500;-62.6500;-4.9000
1402.5000;-67.5900;-62.6600;-4.9300
1402.6990;-67.8100;-62.6900;-5.1200
1402.8980;-67.9500;-62.8200;-5.1300
1403.0970;-68.1400;-62.9200;-5.2200
1403.2970;-68.3000;-62.9800;-5.3200
1403.4960;-68.4000;-63.0300;-5.3700
1403.6950;-68.5400;-63.0800;-5.4600
1403.8940;-68.6400;-63.1800;-5.4600
1404.0930;-68.8600;-63.3000;-5.5600
1404.2920;-69.1600;-63.4300;-5.7300
1404.4910;-69.3800;-63.5100;-5.8700
1404.6900;-69.5200;-63.6100;-5.9100
1404.8890;-70.0500;-64.0700;-5.9800
1405.0890;-70.4800;-64.2300;-6.2500
1405.2880;-70.6800;-64.2500;-6.4300
1405.4870;-70.7000;-64.2300;-6.4700
1405.6860;-70.7100;-63.9400;-6.7700
1405.8850;-70.7000;-63.8800;-6.8200
1406.0840;-70.8300;-63.9400;-6.8900
1406.2830;-71.1000;-63.9700;-7.1300
1406.4820;-71.0500;-64.0200;-7.0300
1406.6810;-71.5600;-64.1900;-7.3700
1406.8810;-71.5000;-64.3500;-7.1500
1407.0800;-71.9000;-64.4900;-7.4100
1407.2790;-72.2500;-64.7300;-7.5200
1407.4780;-72.7400;-64.7900;-7.9500
1407.6770;-73.0900;-64.7800;-8.3100
1407.8760;-72.9600;-64.8000;-8.1600
1408.0750;-73.0100;-64.7600;-8.2500
1408.2740;-73.2200;-64.6700;-8.5500
1408.4740;-73.5000;-64.7400;-8.7600
1408.6730;-73.8300;-64.7900;-9.0400
1408.8720;-73.7300;-64.9000;-8.8300
1409.0710;-74.0700;-65.0400;-9.0300
1409.2700;-74.5700;-65.2600;-9.3100
1409.4690;-75.0700;-65.5900;-9.4800
1409.6680;-75.0700;-65.6500;-9.4200
1409.8670;-75.2900;-65.7100;-9.5800
1410.0660;-75.5100;-65.6000;-9.9100
1410.2660;-75.4000;-65.4500;-9.9500
1410.4650;-75.3900;-65.5300;-9.8600
1410.6640;-75.9200;-65.5700;-10.3500
1410.8630;-76.1200;-65.6500;-10.4700
1411.0620;-76.3700;-65.6400;-10.7300
1411.2610;-76.6800;-65.7700;-10.9100
1411.4600;-77.2000;-65.9300;-11.2700
1411.6590;-77.1700;-65.9500;-11.2200
1411.8580;-77.1500;-66.0700;-11.0800
1412.0580;-76.8200;-66.1100;-10.7100
1412.2570;-76.7900;-66.2200;-10.5700
1412.4560;-77.6200;-66.3500;-11.2700
1412.6550;-77.5400;-66.3800;-11.1600
1412.8540;-77.8900;-66.4500;-11.4400
1413.0530;-77.3900;-66.4900;-10.9000
1413.2520;-77.3300;-66.5200;-10.8100
1413.4510;-76.9300;-66.6400;-10.2900
1413.6500;-77.6300;-66.7600;-10.8700
1413.8500;-77.5200;-66.8200;-10.7000
1414.0490;-78.1400;-67.0900;-11.0500
1414.2480;-78.1200;-67.2000;-10.9200
1414.4470;-78.7800;-67.2300;-11.5500
1414.6460;-78.3500;-67.3600;-10.9900
1414.8450;-78.5000;-67.5100;-10.9900
1415.0440;-77.7000;-67.4100;-10.2900
1415.2430;-78.0500;-67.4900;-10.5600
1415.4430;-77.5900;-67.5300;-10.0600
1415.6420;-77.9000;-67.5200;-10.3800
1415.8410;-77.5700;-67.6500;-9.9200
1416.0400;-77.6800;-67.6900;-9.9900
1416.2390;-77.0200;-67.7300;-9.2900
1416.4380;-77.6300;-67.8100;-9.8200
1416.6370;-77.2300;-67.8200;-9.4100
1416.8360;-77.0800;-68.0000;-9.0800
1417.0350;-76.7100;-68.0200;-8.6900
1417.2350;-77.2100;-68.1700;-9.0400
1417.4340;-76.7800;-68.2800;-8.5000
1417.6330;-76.5200;-68.4700;-8.0500
1417.8320;-76.9400;-68.5400;-8.4000
1418.0310;-76.7800;-68.6700;-8.1100
1418.2300;-76.2900;-68.6700;-7.6200
1418.4290;-76.8000;-68.6000;-8.2000
1418.6280;-77.1800;-68.7000;-8.4800
1418.8270;-76.5200;-68.7800;-7.7400
1419.0270;-76.7300;-69.0600;-7.6700
1419.2260;-76.7800;-69.1200;-7.6600
1419.4250;-76.7100;-69.2900;-7.4200
1419.6240;-77.3000;-69.2900;-8.0100
1419.8230;-76.9800;-69.4200;-7.5600
1420.0220;-76.1700;-69.4600;-6.7100
1420.2210;-76.6400;-69.4500;-7.1900
1420.4200;-76.1000;-69.4600;-6.6400
1420.6200;-76.2100;-69.4900;-6.7200
1420.8190;-76.6000;-69.8400;-6.7600
1421.0180;-77.0800;-69.7700;-7.3100
1421.2170;-76.7300;-69.9900;-6.7400
1421.4160;-76.4200;-69.9100;-6.5100
1421.6150;-76.0500;-70.1300;-5.9200
1421.8140;-76.2500;-70.1100;-6.1400
1422.0130;-76.9900;-70.0200;-6.9700
1422.2120;-76.0000;-70.2400;-5.7600
1422.4120;-77.0300;-70.1800;-6.8500
1422.6110;-76.6500;-70.4900;-6.1600
1422.8100;-77.0500;-70.6000;-6.4500
1423.0090;-76.0600;-70.5900;-5.4700
1423.2080;-77.0300;-70.4200;-6.6100
1423.4070;-76.2300;-70.6400;-5.5900
1423.6060;-76.7900;-70.7900;-6.0000
1423.8050;-76.7400;-70.8600;-5.8800
1424.0040;-76.9500;-70.7900;-6.1600
1424.2040;-76.2000;-71.0800;-5.1200
1424.4030;-77.2200;-71.1400;-6.0800
1424.6020;-77.2600;-71.1100;-6.1500
1424.8010;-76.8100;-71.0700;-5.7400
1425.0000;-77.2900;-71.2100;-6.0800
