Wavelength;Intensity_Meas;Intensity_Ref;Difference_dB
1200.0000;-57.3400;-54.7600;-2.5800
1200.1990;-57.2500;-54.7300;-2.5200
1200.3980;-57.2300;-54.7000;-2.5300
1200.5970;-57.2800;-54.6700;-2.6100
1200.7970;-57.2700;-54.6400;-2.6300
1200.9960;-57.2100;-54.6100;-2.6000
1201.1950;-57.2000;-54.5600;-2.6400
1201.3940;-57.1900;-54.5300;-2.6600
1201.5930;-57.1800;-54.4900;-2.6900
1201.7920;-57.1400;-54.4200;-2.7200
1201.9910;-57.1100;-54.3800;-2.7300
1202.1900;-57.0500;-54.3300;-2.7200
1202.3890;-57.0100;-54.2800;-2.7300
1202.5890;-57.0000;-54.2200;-2.7800
1202.7880;-56.9400;-54.1600;-2.7800
1202.9870;-56.8700;-54.1200;-2.7500
1203.1860;-56.8200;-54.0600;-2.7600
1203.3850;-56.8000;-54.0100;-2.7900
1203.5840;-56.7500;-53.9700;-2.7800
1203.7830;-56.6600;-53.9100;-2.7500
1203.9820;-56.6500;-53.9000;-2.7500
1204.1810;-56.6400;-53.8400;-2.8000
1204.3810;-56.5800;-53.8000;-2.7800
1204.5800;-56.5000;-53.7700;-2.7300
1204.7790;-56.4700;-53.7300;-2.7400
1204.9780;-56.4800;-53.7100;-2.7700
1205.1770;-56.4300;-53.6600;-2.7700
1205.3760;-56.3700;-53.6500;-2.7200
1205.5750;-56.3600;-53.6300;-2.7300
1205.7740;-56.3700;-53.6000;-2.7700
1205.9740;-56.3600;-53.5900;-2.7700
1206.1730;-56.3100;-53.5600;-2.7500
1206.3720;-56.2900;-53.5400;-2.7500
1206.5710;-56.3200;-53.5200;-2.8000
1206.7700;-56.3100;-53.4900;-2.8200
1206.9690;-56.2800;-53.4600;-2.8200
1207.1680;-56.2600;-53.4200;-2.8400
1207.3670;-56.2400;-53.4000;-2.8400
1207.5660;-56.2600;-53.3700;-2.8900
1207.7660;-56.2300;-53.3200;-2.9100
1207.9650;-56.2200;-53.3000;-2.9200
1208.1640;-56.1800;-53.2500;-2.9300
1208.3630;-56.1700;-53.1900;-2.9800
1208.5620;-56.1700;-53.1500;-3.0200
1208.7610;-56.1000;-53.1100;-2.9900
1208.9600;-56.0700;-53.0500;-3.0200
1209.1590;-56.0500;-52.9800;-3.0700
1209.3580;-56.0100;-52.9300;-3.0800
1209.5580;-55.9400;-52.8900;-3.0500
1209.7570;-55.9000;-52.8200;-3.0800
1209.9560;-55.8900;-52.7700;-3.1200
1210.1550;-55.8400;-52.7100;-3.1300
1210.3540;-55.7600;-52.6500;-3.1100
1210.5530;-55.7400;-52.6200;-3.1200
1210.7520;-55.7000;-52.5600;-3.1400
1210.9510;-55.6400;-52.5200;-3.1200
1211.1500;-55.5900;-52.4600;-3.1300
1211.3500;-55.5400;-52.4100;-3.1300
1211.5490;-55.5200;-52.3900;-3.1300
1211.7480;-55.4700;-52.3300;-3.1400
1211.9470;-55.4300;-52.3000;-3.1300
1212.1460;-55.3600;-52.2600;-3.1000
1212.3450;-55.3300;-52.2200;-3.1100
1212.5440;-55.3300;-52.2100;-3.1200
1212.7430;-55.2600;-52.1700;-3.0900
1212.9430;-55.2100;-52.1400;-3.0700
1213.1420;-55.1700;-52.1000;-3.0700
1213.3410;-55.1600;-52.0700;-3.0900
1213.5400;-55.1100;-52.0500;-3.0600
1213.7390;-55.0400;-52.0000;-3.0400
1213.9380;-55.0400;-51.9800;-3.0600
1214.1370;-54.9900;-51.9300;-3.0600
1214.3360;-54.9200;-51.8800;-3.0400
1214.5350;-54.8900;-51.8600;-3.0300
1214.7350;-54.8400;-51.8100;-3.0300
1214.9340;-54.7900;-51.7600;-3.0300
1215.1330;-54.7300;-51.7000;-3.0300
1215.3320;-54.6500;-51.6400;-3.0100
1215.5310;-54.6100;-51.6100;-3.0000
1215.7300;-54.5500;-51.5400;-3.0100
1215.9290;-54.5000;-51.4900;-3.0100
1216.1280;-54.4000;-51.4200;-2.9800
1216.3270;-54.3100;-51.3600;-2.9500
1216.5270;-54.2900;-51.3100;-2.9800
1216.7260;-54.2000;-51.2400;-2.9600
1216.9250;-54.1100;-51.1800;-2.9300
1217.1240;-54.0300;-51.1100;-2.9200
1217.3230;-53.9600;-51.0500;-2.9100
1217.5220;-53.8900;-51.0100;-2.8800
1217.7210;-53.7900;-50.9400;-2.8500
1217.9200;-53.7300;-50.9000;-2.8300
1218.1200;-53.6500;-50.8300;-2.8200
1218.3190;-53.5600;-50.7900;-2.7700
1218.5180;-53.5000;-50.7500;-2.7500
1218.7170;-53.4200;-50.7000;-2.7200
1218.9160;-53.3600;-50.6700;-2.6900
1219.1150;-53.2900;-50.6100;-2.6800
1219.3140;-53.2200;-50.5700;-2.6500
1219.5130;-53.1700;-50.5400;-2.6300
1219.7120;-53.1000;-50.5100;-2.5900
1219.9120;-53.0500;-50.4700;-2.5800
1220.1110;-52.9800;-50.4200;-2.5600
1220.3100;-52.9200;-50.3800;-2.5400
1220.5090;-52.8800;-50.3400;-2.5400
1220.7080;-52.8300;-50.2900;-2.5400
1220.9070;-52.7700;-50.2600;-2.5100
1221.1060;-52.7000;-50.2000;-2.5000
1221.3050;-52.6500;-50.1400;-2.5100
1221.5040;-52.5900;-50.0900;-2.5000
1221.7040;-52.5200;-50.0200;-2.5000
1221.9030;-52.4800;-49.9700;-2.5100
1222.1020;-52.4000;-49.8900;-2.5100
1222.3010;-52.3300;-49.8300;-2.5000
1222.5000;-52.2700;-49.7600;-2.5100
1222.6990;-52.1900;-49.6900;-2.5000
1222.8980;-52.1300;-49.6300;-2.5000
1223.0970;-52.0400;-49.5400;-2.5000
1223.2970;-51.9600;-49.4700;-2.4900
1223.4960;-51.8800;-49.3900;-2.4900
1223.6950;-51.8000;-49.3100;-2.4900
1223.8940;-51.7300;-49.2500;-2.4800
1224.0930;-51.6300;-49.1700;-2.4600
1224.2920;-51.5500;-49.1000;-2.4500
1224.4910;-51.4800;-49.0300;-2.4500
1224.6900;-51.3900;-48.9600;-2.4300
1224.8890;-51.3200;-48.9100;-2.4100
1225.0890;-51.2400;-48.8400;-2.4000
1225.2880;-51.1600;-48.7700;-2.3900
1225.4870;-51.1000;-48.7200;-2.3800
1225.6860;-51.0300;-48.6600;-2.3700
1225.8850;-50.9800;-48.6200;-2.3600
1226.0840;-50.9100;-48.5500;-2.3600
1226.2830;-50.8500;-48.5000;-2.3500
1226.4820;-50.8000;-48.4400;-2.3600
1226.6810;-50.7500;-48.3800;-2.3700
1226.8810;-50.7200;-48.3400;-2.3800
1227.0800;-50.6600;-48.2700;-2.3900
1227.2790;-50.6100;-48.2200;-2.3900
1227.4780;-50.5700;-48.1600;-2.4100
1227.6770;-50.5300;-48.1000;-2.4300
1227.8760;-50.4900;-48.0400;-2.4500
1228.0750;-50.4300;-47.9600;-2.4700
1228.2740;-50.3800;-47.8900;-2.4900
1228.4740;-50.3400;-47.8300;-2.5100
1228.6730;-50.2700;-47.7500;-2.5200
1228.8720;-50.2200;-47.6800;-2.5400
1229.0710;-50.1500;-47.5900;-2.5600
1229.2700;-50.0900;-47.5100;-2.5800
1229.4690;-50.0300;-47.4300;-2.6000
1229.6680;-49.9500;-47.3500;-2.6000
1229.8670;-49.8700;-47.2700;-2.6000
1230.0660;-49.8000;-47.1800;-2.6200
1230.2660;-49.7100;-47.0900;-2.6200
1230.4650;-49.6300;-47.0100;-2.6200
1230.6640;-49.5400;-46.9200;-2.6200
1230.8630;-49.4900;-46.8600;-2.6300
1231.0620;-49.4000;-46.7700;-2.6300
1231.2610;-49.3200;-46.7100;-2.6100
1231.4600;-49.2700;-46.6500;-2.6200
1231.6590;-49.1800;-46.5700;-2.6100
1231.8580;-49.1100;-46.5100;-2.6000
1232.0580;-49.0400;-46.4400;-2.6000
1232.2570;-48.9600;-46.3800;-2.5800
1232.4560;-48.9100;-46.3300;-2.5800
1232.6550;-48.8300;-46.2600;-2.5700
1232.8540;-48.7600;-46.2000;-2.5600
1233.0530;-48.6800;-46.1400;-2.5400
1233.2520;-48.6000;-46.0700;-2.5300
1233.4510;-48.5200;-46.0100;-2.5100
1233.6500;-48.4400;-45.9400;-2.5000
1233.8500;-48.3700;-45.8900;-2.4800
1234.0490;-48.2800;-45.8000;-2.4800
1234.2480;-48.1800;-45.7500;-2.4300
1234.4470;-48.0800;-45.6600;-2.4200
1234.6460;-47.9800;-45.6000;-2.3800
1234.8450;-47.9000;-45.5200;-2.3800
1235.0440;-47.7700;-45.4400;-2.3300
1235.2430;-47.6800;-45.3800;-2.3000
1235.4430;-47.5600;-45.2700;-2.2900
1235.6420;-47.4500;-45.2000;-2.2500
1235.8410;-47.3400;-45.1000;-2.2400
1236.0400;-47.2300;-45.0100;-2.2200
1236.2390;-47.1200;-44.9200;-2.2000
1236.4380;-46.9900;-44.8100;-2.1800
1236.6370;-46.8900;-44.7300;-2.1600
1236.8360;-46.7900;-44.6400;-2.1500
1237.0350;-46.6800;-44.5500;-2.1300
1237.2350;-46.5800;-44.4700;-2.1100
1237.4340;-46.4700;-44.3600;-2.1100
1237.6330;-46.3700;-44.2900;-2.0800
1237.8320;-46.2900;-44.2100;-2.0800
1238.0310;-46.1800;-44.1100;-2.0700
1238.2300;-46.1100;-44.0500;-2.0600
1238.4290;-46.0000;-43.9500;-2.0500
1238.6280;-45.9000;-43.8800;-2.0200
1238.8270;-45.8200;-43.7900;-2.0300
1239.0270;-45.7300;-43.7200;-2.0100
1239.2260;-45.6500;-43.6500;-2.0000
1239.4250;-45.5300;-43.5500;-1.9800
1239.6240;-45.4500;-43.4800;-1.9700
1239.8230;-45.3500;-43.3900;-1.9600
1240.0220;-45.2400;-43.3100;-1.9300
1240.2210;-45.1500;-43.2300;-1.9200
1240.4200;-45.0300;-43.1300;-1.9000
1240.6200;-44.9300;-43.0500;-1.8800
1240.8190;-44.8100;-42.9400;-1.8700
1241.0180;-44.6900;-42.8300;-1.8600
1241.2170;-44.5900;-42.7300;-1.8600
1241.4160;-44.4600;-42.6200;-1.8400
1241.6150;-44.3400;-42.5000;-1.8400
1241.8140;-44.2200;-42.3900;-1.8300
1242.0130;-44.1100;-42.2700;-1.8400
1242.2120;-44.0100;-42.1700;-1.8400
1242.4120;-43.8900;-42.0400;-1.8500
1242.6110;-43.7800;-41.9300;-1.8500
1242.8100;-43.6700;-41.8000;-1.8700
1243.0090;-43.5500;-41.6800;-1.8700
1243.2080;-43.4700;-41.5700;-1.9000
1243.4070;-43.3700;-41.4500;-1.9200
1243.6060;-43.2700;-41.3300;-1.9400
1243.8050;-43.1800;-41.2100;-1.9700
1244.0040;-43.0800;-41.0900;-1.9900
1244.2040;-43.0200;-40.9900;-2.0300
1244.4030;-42.9300;-40.8700;-2.0600
1244.6020;-42.8400;-40.7600;-2.0800
1244.8010;-42.7700;-40.6400;-2.1300
1245.0000;-42.6900;-40.5300;-2.1600
1245.1990;-42.6300;-40.4300;-2.2000
1245.3980;-42.5500;-40.3100;-2.2400
1245.5970;-42.4700;-40.2000;-2.2700
1245.7970;-42.4000;-40.0800;-2.3200
1245.9960;-42.3200;-39.9600;-2.3600
1246.1950;-42.2600;-39.8600;-2.4000
1246.3940;-42.1800;-39.7300;-2.4500
1246.5930;-42.1000;-39.6000;-2.5000
1246.7920;-42.0200;-39.4800;-2.5400
1246.9910;-41.9400;-39.3400;-2.6000
1247.1900;-41.8700;-39.2300;-2.6400
1247.3890;-41.7800;-39.0900;-2.6900
1247.5890;-41.7000;-38.9600;-2.7400
1247.7880;-41.6200;-38.8200;-2.8000
1247.9870;-41.5200;-38.6800;-2.8400
1248.1860;-41.4600;-38.5600;-2.9000
1248.3850;-41.3600;-38.4100;-2.9500
1248.5840;-41.2800;-38.2800;-3.0000
1248.7830;-41.1900;-38.1400;-3.0500
1248.9820;-41.1100;-38.0100;-3.1000
1249.1810;-41.0400;-37.8800;-3.1600
1249.3810;-40.9500;-37.7400;-3.2100
1249.5800;-40.8700;-37.6100;-3.2600
1249.7790;-40.7900;-37.4700;-3.3200
1249.9780;-40.7000;-37.3300;-3.3700
1250.1770;-40.6400;-37.2200;-3.4200
1250.3760;-40.5600;-37.0800;-3.4800
1250.5750;-40.4900;-36.9500;-3.5400
1250.7740;-40.4100;-36.8200;-3.5900
1250.9740;-40.3500;-36.7000;-3.6500
1251.1730;-40.3000;-36.5800;-3.7200
1251.3720;-40.2200;-36.4400;-3.7800
1251.5710;-40.1700;-36.3400;-3.8300
1251.7700;-40.0900;-36.2000;-3.8900
1251.9690;-40.0200;-36.0700;-3.9500
1252.1680;-39.9600;-35.9400;-4.0200
1252.3670;-39.8800;-35.7800;-4.1000
1252.5660;-39.8200;-35.6800;-4.1400
1252.7660;-39.7300;-35.5400;-4.1900
1252.9650;-39.6600;-35.4300;-4.2300
1253.1640;-39.5900;-35.2800;-4.3100
1253.3630;-39.4900;-35.1400;-4.3500
1253.5620;-39.4200;-35.0200;-4.4000
1253.7610;-39.3200;-34.8800;-4.4400
1253.9600;-39.2300;-34.7600;-4.4700
1254.1590;-39.1400;-34.6100;-4.5300
1254.3580;-39.0300;-34.4800;-4.5500
1254.5580;-38.9500;-34.3500;-4.6000
1254.7570;-38.8400;-34.2100;-4.6300
1254.9560;-38.7300;-34.0800;-4.6500
1255.1550;-38.6300;-33.9500;-4.6800
1255.3540;-38.5200;-33.8200;-4.7000
1255.5530;-38.4200;-33.7000;-4.7200
1255.7520;-38.3000;-33.5700;-4.7300
1255.9510;-38.1800;-33.4500;-4.7300
1256.1500;-38.0800;-33.3100;-4.7700
1256.3500;-37.9500;-33.1900;-4.7600
1256.5490;-37.8600;-33.0700;-4.7900
1256.7480;-37.7300;-32.9400;-4.7900
1256.9470;-37.6100;-32.8200;-4.7900
1257.1460;-37.4800;-32.6900;-4.7900
1257.3450;-37.3500;-32.5600;-4.7900
1257.5440;-37.2500;-32.4400;-4.8100
1257.7430;-37.1100;-32.3100;-4.8000
1257.9430;-36.9900;-32.1900;-4.8000
1258.1420;-36.8600;-32.0600;-4.8000
1258.3410;-36.7300;-31.9400;-4.7900
1258.5400;-36.6100;-31.8100;-4.8000
1258.7390;-36.4700;-31.6800;-4.7900
1258.9380;-36.3400;-31.5500;-4.7900
1259.1370;-36.2100;-31.4200;-4.7900
1259.3360;-36.0700;-31.3000;-4.7700
1259.5350;-35.9200;-31.1700;-4.7500
1259.7350;-35.8100;-31.0400;-4.7700
1259.9340;-35.6800;-30.9100;-4.7700
1260.1330;-35.5400;-30.7800;-4.7600
1260.3320;-35.4200;-30.6600;-4.7600
1260.5310;-35.2800;-30.5300;-4.7500
1260.7300;-35.1500;-30.4100;-4.7400
1260.9290;-35.0200;-30.2900;-4.7300
1261.1280;-34.8900;-30.1500;-4.7400
1261.3270;-34.7700;-30.0400;-4.7300
1261.5270;-34.6400;-29.9200;-4.7200
1261.7260;-34.5100;-29.8000;-4.7100
1261.9250;-34.3800;-29.6800;-4.7000
1262.1240;-34.2500;-29.5500;-4.7000
1262.3230;-34.1400;-29.4400;-4.7000
1262.5220;-34.0100;-29.3200;-4.6900
1262.7210;-33.8800;-29.2000;-4.6800
1262.9200;-33.7700;-29.0800;-4.6900
1263.1200;-33.6300;-28.9600;-4.6700
1263.3190;-33.5200;-28.8400;-4.6800
1263.5180;-33.3900;-28.7200;-4.6700
1263.7170;-33.2700;-28.6000;-4.6700
1263.9160;-33.1500;-28.4800;-4.6700
1264.1150;-33.0300;-28.3500;-4.6800
1264.3140;-32.9100;-28.2400;-4.6700
1264.5130;-32.7900;-28.1100;-4.6800
1264.7120;-32.6700;-27.9900;-4.6800
1264.9120;-32.5600;-27.8600;-4.7000
1265.1110;-32.4300;-27.7400;-4.6900
1265.3100;-32.3300;-27.6200;-4.7100
1265.5090;-32.2200;-27.4900;-4.7300
1265.7080;-32.1100;-27.3800;-4.7300
1265.9070;-32.0100;-27.2600;-4.7500
1266.1060;-31.9100;-27.1300;-4.7800
1266.3050;-31.8200;-27.0300;-4.7900
1266.5040;-31.7200;-26.9100;-4.8100
1266.7040;-31.6300;-26.8000;-4.8300
1266.9030;-31.5400;-26.6800;-4.8600
1267.1020;-31.4500;-26.5700;-4.8800
1267.3010;-31.3800;-26.4700;-4.9100
1267.5000;-31.3000;-26.3500;-4.9500
1267.6990;-31.2300;-26.2500;-4.9800
1267.8980;-31.1500;-26.1300;-5.0200
1268.0970;-31.0900;-26.0200;-5.0700
1268.2970;-31.0300;-25.9100;-5.1200
1268.4960;-30.9600;-25.8200;-5.1400
1268.6950;-30.9000;-25.7100;-5.1900
1268.8940;-30.8400;-25.5900;-5.2500
1269.0930;-30.7700;-25.4900;-5.2800
1269.2920;-30.7200;-25.3700;-5.3500
1269.4910;-30.6600;-25.2600;-5.4000
1269.6900;-30.6100;-25.1500;-5.4600
1269.8890;-30.5400;-25.0300;-5.5100
1270.0890;-30.4800;-24.9300;-5.5500
1270.2880;-30.4400;-24.8000;-5.6400
1270.4870;-30.3800;-24.7000;-5.6800
1270.6860;-30.3300;-24.5900;-5.7400
1270.8850;-30.2700;-24.4700;-5.8000
1271.0840;-30.2200;-24.3700;-5.8500
1271.2830;-30.1800;-24.2600;-5.9200
1271.4820;-30.1200;-24.1500;-5.9700
1271.6810;-30.0900;-24.0500;-6.0400
1271.8810;-30.0400;-23.9400;-6.1000
1272.0800;-30.0000;-23.8500;-6.1500
1272.2790;-29.9700;-23.7300;-6.2400
1272.4780;-29.9300;-23.6400;-6.2900
1272.6770;-29.9100;-23.5400;-6.3700
1272.8760;-29.8800;-23.4300;-6.4500
1273.0750;-29.8600;-23.3400;-6.5200
1273.2740;-29.8400;-23.2300;-6.6100
1273.4740;-29.8200;-23.1300;-6.6900
1273.6730;-29.8200;-23.0300;-6.7900
1273.8720;-29.7900;-22.9300;-6.8600
1274.0710;-29.7800;-22.8400;-6.9400
1274.2700;-29.7700;-22.7300;-7.0400
1274.4690;-29.7600;-22.6300;-7.1300
1274.6680;-29.7600;-22.5200;-7.2400
1274.8670;-29.7300;-22.4100;-7.3200
1275.0660;-29.7300;-22.3200;-7.4100
1275.2660;-29.7100;-22.2000;-7.5100
1275.4650;-29.6900;-22.1100;-7.5800
1275.6640;-29.6800;-22.0100;-7.6700
1275.8630;-29.6600;-21.9100;-7.7500
1276.0620;-29.6500;-21.8100;-7.8400
1276.2610;-29.6100;-21.7100;-7.9000
1276.4600;-29.5900;-21.6200;-7.9700
1276.6590;-29.5600;-21.5100;-8.0500
1276.8580;-29.5300;-21.4200;-8.1100
1277.0580;-29.5100;-21.3400;-8.1700
1277.2570;-29.4700;-21.2300;-8.2400
1277.4560;-29.4400;-21.1600;-8.2800
1277.6550;-29.4200;-21.0600;-8.3600
1277.8540;-29.3800;-20.9700;-8.4100
1278.0530;-29.3600;-20.8800;-8.4800
1278.2520;-29.3200;-20.7900;-8.5300
1278.4510;-29.2800;-20.7200;-8.5600
1278.6500;-29.2500;-20.6200;-8.6300
1278.8500;-29.2000;-20.5300;-8.6700
1279.0490;-29.1800;-20.4400;-8.7400
1279.2480;-29.1200;-20.3500;-8.7700
1279.4470;-29.0800;-20.2800;-8.8000
1279.6460;-29.0300;-20.1800;-8.8500
1279.8450;-28.9700;-20.1000;-8.8700
1280.0440;-28.9300;-20.0100;-8.9200
1280.2430;-28.8600;-19.9100;-8.9500
1280.4430;-28.8000;-19.8400;-8.9600
1280.6420;-28.7200;-19.7500;-8.9700
1280.8410;-28.6500;-19.6700;-8.9800
1281.0400;-28.5800;-19.5800;-9.0000
1281.2390;-28.4900;-19.4900;-9.0000
1281.4380;-28.4100;-19.4200;-8.9900
1281.6370;-28.3100;-19.3300;-8.9800
1281.8360;-28.2100;-19.2600;-8.9500
1282.0350;-28.1200;-19.1700;-8.9500
1282.2350;-28.0100;-19.0900;-8.9200
1282.4340;-27.9100;-19.0100;-8.9000
1282.6330;-27.8000;-18.9400;-8.8600
1282.8320;-27.6900;-18.8700;-8.8200
1283.0310;-27.5700;-18.7800;-8.7900
1283.2300;-27.4500;-18.7100;-8.7400
1283.4290;-27.3400;-18.6400;-8.7000
1283.6280;-27.2100;-18.5600;-8.6500
1283.8270;-27.0900;-18.4900;-8.6000
1284.0270;-26.9600;-18.4100;-8.5500
1284.2260;-26.8200;-18.3400;-8.4800
1284.4250;-26.7100;-18.2700;-8.4400
1284.6240;-26.5600;-18.1900;-8.3700
1284.8230;-26.4400;-18.1300;-8.3100
1285.0220;-26.3100;-18.0400;-8.2700
1285.2210;-26.1700;-17.9700;-8.2000
1285.4200;-26.0100;-17.9000;-8.1100
1285.6200;-25.9000;-17.8300;-8.0700
1285.8190;-25.7800;-17.7700;-8.0100
1286.0180;-25.6300;-17.6900;-7.9400
1286.2170;-25.5100;-17.6200;-7.8900
1286.4160;-25.3600;-17.5400;-7.8200
1286.6150;-25.2400;-17.4800;-7.7600
1286.8140;-25.1100;-17.4300;-7.6800
1287.0130;-24.9700;-17.3500;-7.6200
1287.2120;-24.8500;-17.2900;-7.5600
1287.4120;-24.7100;-17.2200;-7.4900
1287.6110;-24.5800;-17.1500;-7.4300
1287.8100;-24.4500;-17.1000;-7.3500
1288.0090;-24.3300;-17.0200;-7.3100
1288.2080;-24.2200;-16.9700;-7.2500
1288.4070;-24.0800;-16.9000;-7.1800
1288.6060;-23.9700;-16.8400;-7.1300
1288.8050;-23.8500;-16.7900;-7.0600
1289.0040;-23.7300;-16.7200;-7.0100
1289.2040;-23.6400;-16.6700;-6.9700
1289.4030;-23.5100;-16.6000;-6.9100
1289.6020;-23.4100;-16.5400;-6.8700
1289.8010;-23.3100;-16.4900;-6.8200
1290.0000;-23.2000;-16.4200;-6.7800
1290.1990;-23.1200;-16.3800;-6.7400
1290.3980;-23.0100;-16.3100;-6.7000
1290.5970;-22.9300;-16.2700;-6.6600
1290.7970;-22.8200;-16.2100;-6.6100
1290.9960;-22.7200;-16.1400;-6.5800
1291.1950;-22.6400;-16.0900;-6.5500
1291.3940;-22.5500;-16.0400;-6.5100
1291.5930;-22.4600;-15.9800;-6.4800
1291.7920;-22.3700;-15.9200;-6.4500
1291.9910;-22.2900;-15.8700;-6.4200
1292.1900;-22.2200;-15.8100;-6.4100
1292.3890;-22.1400;-15.7600;-6.3800
1292.5890;-22.0800;-15.7100;-6.3700
1292.7880;-22.0000;-15.6500;-6.3500
1292.9870;-21.9500;-15.6200;-6.3300
1293.1860;-21.8900;-15.5600;-6.3300
1293.3850;-21.8300;-15.5100;-6.3200
1293.5840;-21.7800;-15.4500;-6.3300
1293.7830;-21.7200;-15.4000;-6.3200
1293.9820;-21.6900;-15.3700;-6.3200
1294.1810;-21.6400;-15.3100;-6.3300
1294.3810;-21.6000;-15.2700;-6.3300
1294.5800;-21.5600;-15.2200;-6.3400
1294.7790;-21.5200;-15.1700;-6.3500
1294.9780;-21.5000;-15.1300;-6.3700
1295.1770;-21.4700;-15.0800;-6.3900
1295.3760;-21.4400;-15.0400;-6.4000
1295.5750;-21.4200;-14.9800;-6.4400
1295.7740;-21.3900;-14.9300;-6.4600
1295.9740;-21.3800;-14.8900;-6.4900
1296.1730;-21.3600;-14.8400;-6.5200
1296.3720;-21.3500;-14.8100;-6.5400
1296.5710;-21.3300;-14.7500;-6.5800
1296.7700;-21.3300;-14.7100;-6.6200
1296.9690;-21.3400;-14.6700;-6.6700
1297.1680;-21.3300;-14.6300;-6.7000
1297.3670;-21.3400;-14.6000;-6.7400
1297.5660;-21.3400;-14.5400;-6.8000
1297.7660;-21.3400;-14.5000;-6.8400
1297.9650;-21.3700;-14.4700;-6.9000
1298.1640;-21.3800;-14.4300;-6.9500
1298.3630;-21.4100;-14.4100;-7.0000
1298.5620;-21.4100;-14.3500;-7.0600
1298.7610;-21.4400;-14.3300;-7.1100
1298.9600;-21.4800;-14.2900;-7.1900
1299.1590;-21.5100;-14.2500;-7.2600
1299.3580;-21.5600;-14.2300;-7.3300
1299.5580;-21.5800;-14.1800;-7.4000
1299.7570;-21.6300;-14.1500;-7.4800
1299.9560;-21.6800;-14.1200;-7.5600
1300.1550;-21.7300;-14.0900;-7.6400
1300.3540;-21.7900;-14.0600;-7.7300
1300.5530;-21.8300;-14.0100;-7.8200
1300.7520;-21.9000;-14.0000;-7.9000
1300.9510;-21.9600;-13.9600;-8.0000
1301.1500;-22.0300;-13.9400;-8.0900
1301.3500;-22.1100;-13.9100;-8.2000
1301.5490;-22.1800;-13.8900;-8.2900
1301.7480;-22.2700;-13.8800;-8.3900
1301.9470;-22.3400;-13.8400;-8.5000
1302.1460;-22.4200;-13.8300;-8.5900
1302.3450;-22.5100;-13.8100;-8.7000
1302.5440;-22.6000;-13.7900;-8.8100
1302.7430;-22.7000;-13.7800;-8.9200
1302.9430;-22.7800;-13.7500;-9.0300
1303.1420;-22.8800;-13.7500;-9.1300
1303.3410;-22.9700;-13.7200;-9.2500
1303.5400;-23.0700;-13.7100;-9.3600
1303.7390;-23.1800;-13.7100;-9.4700
1303.9380;-23.2700;-13.6800;-9.5900
1304.1370;-23.3800;-13.6800;-9.7000
1304.3360;-23.4800;-13.6600;-9.8200
1304.5350;-23.5900;-13.6500;-9.9400
1304.7350;-23.7000;-13.6400;-10.0600
1304.9340;-23.8000;-13.6300;-10.1700
1305.1330;-23.9200;-13.6300;-10.2900
1305.3320;-24.0200;-13.6000;-10.4200
1305.5310;-24.1300;-13.6100;-10.5200
1305.7300;-24.2400;-13.6000;-10.6400
1305.9290;-24.3400;-13.5800;-10.7600
1306.1280;-24.4600;-13.6000;-10.8600
1306.3270;-24.5500;-13.5800;-10.9700
1306.5270;-24.6600;-13.5900;-11.0700
1306.7260;-24.7500;-13.5900;-11.1600
1306.9250;-24.8300;-13.5800;-11.2500
1307.1240;-24.9400;-13.6000;-11.3400
1307.3230;-25.0000;-13.5900;-11.4100
1307.5220;-25.0800;-13.6100;-11.4700
1307.7210;-25.1500;-13.6100;-11.5400
1307.9200;-25.2000;-13.6100;-11.5900
1308.1200;-25.2700;-13.6300;-11.6400
1308.3190;-25.3000;-13.6300;-11.6700
1308.5180;-25.3600;-13.6500;-11.7100
1308.7170;-25.3700;-13.6500;-11.7200
1308.9160;-25.3900;-13.6500;-11.7400
1309.1150;-25.4100;-13.6800;-11.7300
1309.3140;-25.4000;-13.6900;-11.7100
1309.5130;-25.4100;-13.7200;-11.6900
1309.7120;-25.3900;-13.7200;-11.6700
1309.9120;-25.3600;-13.7400;-11.6200
1310.1110;-25.3400;-13.7600;-11.5800
1310.3100;-25.2900;-13.7700;-11.5200
1310.5090;-25.2600;-13.8100;-11.4500
1310.7080;-25.2000;-13.8100;-11.3900
1310.9070;-25.1400;-13.8400;-11.3000
1311.1060;-25.0700;-13.8600;-11.2100
1311.3050;-24.9900;-13.8800;-11.1100
1311.5040;-24.9300;-13.9200;-11.0100
1311.7040;-24.8300;-13.9300;-10.9000
1311.9030;-24.7600;-13.9700;-10.7900
1312.1020;-24.6500;-13.9800;-10.6700
1312.3010;-24.5600;-14.0100;-10.5500
1312.5000;-24.4600;-14.0600;-10.4000
1312.6990;-24.3600;-14.0800;-10.2800
1312.8980;-24.2700;-14.1300;-10.1400
1313.0970;-24.1500;-14.1500;-10.0000
1313.2970;-24.0600;-14.1900;-9.8700
1313.4960;-23.9600;-14.2300;-9.7300
1313.6950;-23.8500;-14.2600;-9.5900
1313.8940;-23.7500;-14.3100;-9.4400
1314.0930;-23.6500;-14.3500;-9.3000
1314.2920;-23.5600;-14.3900;-9.1700
1314.4910;-23.4600;-14.4300;-9.0300
1314.6900;-23.3600;-14.4700;-8.8900
1314.8890;-23.2600;-14.5200;-8.7400
1315.0890;-23.1600;-14.5500;-8.6100
1315.2880;-23.0900;-14.6100;-8.4800
1315.4870;-23.0000;-14.6500;-8.3500
1315.6860;-22.9200;-14.7100;-8.2100
1315.8850;-22.8300;-14.7500;-8.0800
1316.0840;-22.7500;-14.8000;-7.9500
1316.2830;-22.6800;-14.8500;-7.8300
1316.4820;-22.6100;-14.9100;-7.7000
1316.6810;-22.5600;-14.9700;-7.5900
1316.8810;-22.4800;-15.0200;-7.4600
1317.0800;-22.4400;-15.0800;-7.3600
1317.2790;-22.3800;-15.1500;-7.2300
1317.4780;-22.3300;-15.2000;-7.1300
1317.6770;-22.2900;-15.2700;-7.0200
1317.8760;-22.2300;-15.3200;-6.9100
1318.0750;-22.2000;-15.3800;-6.8200
1318.2740;-22.1600;-15.4400;-6.7200
1318.4740;-22.1200;-15.5000;-6.6200
1318.6730;-22.1000;-15.5900;-6.5100
1318.8720;-22.0700;-15.6500;-6.4200
1319.0710;-22.0700;-15.7400;-6.3300
1319.2700;-22.0400;-15.7900;-6.2500
1319.4690;-22.0300;-15.8600;-6.1700
1319.6680;-22.0200;-15.9500;-6.0700
1319.8670;-22.0100;-16.0100;-6.0000
1320.0660;-22.0200;-16.1000;-5.9200
1320.2660;-22.0100;-16.1700;-5.8400
1320.4650;-22.0200;-16.2500;-5.7700
1320.6640;-22.0200;-16.3300;-5.6900
1320.8630;-22.0400;-16.4000;-5.6400
1321.0620;-22.0500;-16.4900;-5.5600
1321.2610;-22.0600;-16.5600;-5.5000
1321.4600;-22.0900;-16.6600;-5.4300
1321.6590;-22.1100;-16.7300;-5.3800
1321.8580;-22.1400;-16.8200;-5.3200
1322.0580;-22.1700;-16.9100;-5.2600
1322.2570;-22.2000;-16.9900;-5.2100
1322.4560;-22.2400;-17.0900;-5.1500
1322.6550;-22.2800;-17.1700;-5.1100
1322.8540;-22.3400;-17.2700;-5.0700
1323.0530;-22.3700;-17.3600;-5.0100
1323.2520;-22.4300;-17.4500;-4.9800
1323.4510;-22.4800;-17.5600;-4.9200
1323.6500;-22.5300;-17.6400;-4.8900
1323.8500;-22.6100;-17.7500;-4.8600
1324.0490;-22.6600;-17.8400;-4.8200
1324.2480;-22.7400;-17.9500;-4.7900
1324.4470;-22.8000;-18.0500;-4.7500
1324.6460;-22.8700;-18.1400;-4.7300
1324.8450;-22.9500;-18.2600;-4.6900
1325.0440;-23.0200;-18.3600;-4.6600
1325.2430;-23.1200;-18.5000;-4.6200
1325.4430;-23.1900;-18.5800;-4.6100
1325.6420;-23.2900;-18.7000;-4.5900
1325.8410;-23.3800;-18.8200;-4.5600
1326.0400;-23.4600;-18.9200;-4.5400
1326.2390;-23.5700;-19.0500;-4.5200
1326.4380;-23.6500;-19.1500;-4.5000
1326.6370;-23.7700;-19.2700;-4.5000
1326.8360;-23.8600;-19.3900;-4.4700
1327.0350;-23.9600;-19.5100;-4.4500
1327.2350;-24.0700;-19.6400;-4.4300
1327.4340;-24.1800;-19.7500;-4.4300
1327.6330;-24.3000;-19.8700;-4.4300
1327.8320;-24.4000;-19.9900;-4.4100
1328.0310;-24.5300;-20.1100;-4.4200
1328.2300;-24.6400;-20.2500;-4.3900
1328.4290;-24.7600;-20.3700;-4.3900
1328.6280;-24.8900;-20.5100;-4.3800
1328.8270;-25.0100;-20.6300;-4.3800
1329.0270;-25.1500;-20.7600;-4.3900
1329.2260;-25.2600;-20.9000;-4.3600
1329.4250;-25.4000;-21.0200;-4.3800
1329.6240;-25.5200;-21.1700;-4.3500
1329.8230;-25.6500;-21.2900;-4.3600
1330.0220;-25.8000;-21.4300;-4.3700
1330.2210;-25.9300;-21.5600;-4.3700
1330.4200;-26.0700;-21.6900;-4.3800
1330.6200;-26.2000;-21.8400;-4.3600
1330.8190;-26.3500;-21.9700;-4.3800
1331.0180;-26.4900;-22.1100;-4.3800
1331.2170;-26.6400;-22.2600;-4.3800
1331.4160;-26.8000;-22.3900;-4.4100
1331.6150;-26.9400;-22.5500;-4.3900
1331.8140;-27.1000;-22.6800;-4.4200
1332.0130;-27.2400;-22.8400;-4.4000
1332.2120;-27.3900;-22.9700;-4.4200
1332.4120;-27.5600;-23.1200;-4.4400
1332.6110;-27.7200;-23.2800;-4.4400
1332.8100;-27.8900;-23.4200;-4.4700
1333.0090;-28.0400;-23.5800;-4.4600
1333.2080;-28.2100;-23.7200;-4.4900
1333.4070;-28.3600;-23.8800;-4.4800
1333.6060;-28.5700;-24.0200;-4.5500
1333.8050;-28.7000;-24.1800;-4.5200
1334.0040;-28.8700;-24.3300;-4.5400
1334.2040;-29.0400;-24.4800;-4.5600
1334.4030;-29.2000;-24.6500;-4.5500
1334.6020;-29.3900;-24.7900;-4.6000
1334.8010;-29.5500;-24.9500;-4.6000
1335.0000;-29.7400;-25.1100;-4.6300
1335.1990;-29.9000;-25.2600;-4.6400
1335.3980;-30.0800;-25.4300;-4.6500
1335.5970;-30.2600;-25.5700;-4.6900
1335.7970;-30.4400;-25.7400;-4.7000
1335.9960;-30.6400;-25.9000;-4.7400
1336.1950;-30.8100;-26.0600;-4.7500
1336.3940;-30.9900;-26.2200;-4.7700
1336.5930;-31.1700;-26.3700;-4.8000
1336.7920;-31.3400;-26.5400;-4.8000
1336.9910;-31.5300;-26.6900;-4.8400
1337.1900;-31.7100;-26.8600;-4.8500
1337.3890;-31.9100;-27.0200;-4.8900
1337.5890;-32.0900;-27.1800;-4.9100
1337.7880;-32.2700;-27.3500;-4.9200
1337.9870;-32.4700;-27.5100;-4.9600
1338.1860;-32.6500;-27.6800;-4.9700
1338.3850;-32.8500;-27.8300;-5.0200
1338.5840;-33.0300;-28.0000;-5.0300
1338.7830;-33.2200;-28.1600;-5.0600
1338.9820;-33.4100;-28.3200;-5.0900
1339.1810;-33.6000;-28.5300;-5.0700
1339.3810;-33.8000;-28.6700;-5.1300
1339.5800;-33.9800;-28.8400;-5.1400
1339.7790;-34.1800;-29.0000;-5.1800
1339.9780;-34.3700;-29.1800;-5.1900
1340.1770;-34.5700;-29.3500;-5.2200
1340.3760;-34.7700;-29.5200;-5.2500
1340.5750;-34.9700;-29.7100;-5.2600
1340.7740;-35.1700;-29.8700;-5.3000
1340.9740;-35.3500;-30.0400;-5.3100
1341.1730;-35.5400;-30.2000;-5.3400
1341.3720;-35.7300;-30.3700;-5.3600
1341.5710;-35.9200;-30.5400;-5.3800
1341.7700;-36.1200;-30.7100;-5.4100
1341.9690;-36.3100;-30.8900;-5.4200
1342.1680;-36.5100;-31.0500;-5.4600
1342.3670;-36.6900;-31.2300;-5.4600
1342.5660;-36.8800;-31.3900;-5.4900
1342.7660;-37.0800;-31.5600;-5.5200
1342.9650;-37.2600;-31.7400;-5.5200
1343.1640;-37.4700;-31.9100;-5.5600
1343.3630;-37.6500;-32.0900;-5.5600
1343.5620;-37.8400;-32.2500;-5.5900
1343.7610;-38.0200;-32.4200;-5.6000
1343.9600;-38.2200;-32.6000;-5.6200
1344.1590;-38.4500;-32.7800;-5.6700
1344.3580;-38.6000;-32.9600;-5.6400
1344.5580;-38.8000;-33.1300;-5.6700
1344.7570;-38.9800;-33.3000;-5.6800
1344.9560;-39.1700;-33.4700;-5.7000
1345.1550;-39.3400;-33.6300;-5.7100
1345.3540;-39.5100;-33.8000;-5.7100
1345.5530;-39.6900;-33.9600;-5.7300
1345.7520;-39.8600;-34.1400;-5.7200
1345.9510;-40.0500;-34.3000;-5.7500
1346.1500;-40.2200;-34.4600;-5.7600
1346.3500;-40.4000;-34.6500;-5.7500
1346.5490;-40.5900;-34.8200;-5.7700
1346.7480;-40.7600;-35.0000;-5.7600
1346.9470;-40.9300;-35.1500;-5.7800
1347.1460;-41.0900;-35.3100;-5.7800
1347.3450;-41.2400;-35.4700;-5.7700
1347.5440;-41.4500;-35.6700;-5.7800
1347.7430;-41.6600;-35.9000;-5.7600
1347.9430;-41.8600;-36.0800;-5.7800
1348.1420;-42.0100;-36.2400;-5.7700
1348.3410;-42.1900;-36.4200;-5.7700
1348.5400;-42.3100;-36.5500;-5.7600
1348.7390;-42.4500;-36.7100;-5.7400
1348.9380;-42.5900;-36.8400;-5.7500
1349.1370;-42.7200;-37.0000;-5.7200
1349.3360;-42.8600;-37.1300;-5.7300
1349.5350;-42.9900;-37.2700;-5.7200
1349.7350;-43.1200;-37.4200;-5.7000
1349.9340;-43.2700;-37.5800;-5.6900
1350.1330;-43.4300;-37.7700;-5.6600
1350.3320;-43.6600;-37.9900;-5.6700
1350.5310;-43.8200;-38.1800;-5.6400
1350.7300;-43.9600;-38.3400;-5.6200
1350.9290;-44.0700;-38.4800;-5.5900
1351.1280;-44.1400;-38.5800;-5.5600
1351.3270;-44.2700;-38.7100;-5.5600
1351.5270;-44.4000;-38.8800;-5.5200
1351.7260;-44.6000;-39.0900;-5.5100
1351.9250;-44.7300;-39.2700;-5.4600
1352.1240;-44.8600;-39.4100;-5.4500
1352.3230;-44.9900;-39.5700;-5.4200
1352.5220;-45.1500;-39.7600;-5.3900
1352.7210;-45.2500;-39.8800;-5.3700
1352.9200;-45.3500;-40.0400;-5.3100
1353.1200;-45.5700;-40.2600;-5.3100
1353.3190;-45.6100;-40.3500;-5.2600
1353.5180;-45.7300;-40.5000;-5.2300
1353.7170;-45.8600;-40.6500;-5.2100
1353.9160;-45.9000;-40.7400;-5.1600
1354.1150;-46.0100;-40.8700;-5.1400
1354.3140;-46.1600;-41.0800;-5.0800
1354.5130;-46.3000;-41.2400;-5.0600
1354.7120;-46.5500;-41.5400;-5.0100
1354.9120;-46.7700;-41.8000;-4.9700
1355.1110;-46.8900;-41.9500;-4.9400
1355.3100;-46.9500;-42.0600;-4.8900
1355.5090;-46.9000;-42.0300;-4.8700
1355.7080;-47.0900;-42.2800;-4.8100
1355.9070;-47.2900;-42.5200;-4.7700
1356.1060;-47.4000;-42.6600;-4.7400
1356.3050;-47.4000;-42.7200;-4.6800
1356.5040;-47.4500;-42.7900;-4.6600
1356.7040;-47.3000;-42.7000;-4.6000
1356.9030;-47.4000;-42.8200;-4.5800
1357.1020;-47.6900;-43.1700;-4.5200
1357.3010;-47.8500;-43.3700;-4.4800
1357.5000;-47.9700;-43.5200;-4.4500
1357.6990;-48.0700;-43.6800;-4.3900
1357.8980;-48.0700;-43.7000;-4.3700
1358.0970;-48.0500;-43.7400;-4.3100
1358.2970;-48.1600;-43.8900;-4.2700
1358.4960;-48.3300;-44.0900;-4.2400
1358.6950;-48.3900;-44.2100;-4.1800
1358.8940;-48.4900;-44.3300;-4.1600
1359.0930;-48.5700;-44.4600;-4.1100
1359.2920;-48.5400;-44.4700;-4.0700
1359.4910;-48.8400;-44.8200;-4.0200
1359.6900;-49.0900;-45.0900;-4.0000
1359.8890;-49.2000;-45.2600;-3.9400
1360.0890;-49.2100;-45.2900;-3.9200
1360.2880;-49.1700;-45.2800;-3.8900
1360.4870;-49.0900;-45.2600;-3.8300
1360.6860;-49.1900;-45.3900;-3.8000
1360.8850;-49.4700;-45.7100;-3.7600
1361.0840;-49.7100;-45.9800;-3.7300
1361.2830;-49.8000;-46.1200;-3.6800
1361.4820;-49.9100;-46.2600;-3.6500
1361.6810;-50.0800;-46.4400;-3.6400
1361.8810;-50.1400;-46.5600;-3.5800
1362.0800;-50.3100;-46.7500;-3.5600
1362.2790;-50.6900;-47.1500;-3.5400
1362.4780;-50.8700;-47.3600;-3.5100
1362.6770;-50.9400;-47.4700;-3.4700
1362.8760;-50.7600;-47.3400;-3.4200
1363.0750;-50.6700;-47.2400;-3.4300
1363.2740;-50.3700;-46.9900;-3.3800
1363.4740;-50.4200;-47.0400;-3.3800
1363.6730;-50.4500;-47.1100;-3.3400
1363.8720;-50.5600;-47.2400;-3.3200
1364.0710;-50.7200;-47.4300;-3.2900
1364.2700;-50.8700;-47.6100;-3.2600
1364.4690;-51.1500;-47.9000;-3.2500
1364.6680;-51.6200;-48.3900;-3.2300
1364.8670;-51.8200;-48.6100;-3.2100
1365.0660;-51.7400;-48.5600;-3.1800
1365.2660;-51.8900;-48.6900;-3.2000
1365.4650;-51.7900;-48.6100;-3.1800
1365.6640;-51.8200;-48.6700;-3.1500
1365.8630;-51.8500;-48.6900;-3.1600
1366.0620;-51.8100;-48.6700;-3.1400
1366.2610;-51.7800;-48.6400;-3.1400
1366.4600;-51.8100;-48.6900;-3.1200
1366.6590;-51.9500;-48.8400;-3.1100
1366.8580;-52.1700;-49.0600;-3.1100
1367.0580;-52.2700;-49.1800;-3.0900
1367.2570;-52.3800;-49.2700;-3.1100
1367.4560;-52.6100;-49.5200;-3.0900
1367.6550;-52.7900;-49.6800;-3.1100
1367.8540;-53.0300;-49.9300;-3.1000
1368.0530;-53.1300;-50.0400;-3.0900
1368.2520;-53.1000;-49.9900;-3.1100
1368.4510;-53.4300;-50.3200;-3.1100
1368.6500;-53.5000;-50.3800;-3.1200
1368.8500;-53.5800;-50.4700;-3.1100
1369.0490;-53.5600;-50.4200;-3.1400
1369.2480;-53.5100;-50.3600;-3.1500
1369.4470;-53.4200;-50.2800;-3.1400
1369.6460;-53.5200;-50.3600;-3.1600
1369.8450;-53.8400;-50.6900;-3.1500
1370.0440;-54.0300;-50.8500;-3.1800
1370.2430;-54.1500;-50.9600;-3.1900
1370.4430;-54.2000;-50.9800;-3.2200
1370.6420;-54.2000;-50.9700;-3.2300
1370.8410;-54.5100;-51.2900;-3.2200
1371.0400;-54.7900;-51.5300;-3.2600
1371.2390;-54.9600;-51.7000;-3.2600
1371.4380;-54.9900;-51.6700;-3.3200
1371.6370;-54.9300;-51.6200;-3.3100
1371.8360;-54.9100;-51.5700;-3.3400
1372.0350;-55.1000;-51.7400;-3.3600
1372.2350;-55.3000;-51.9400;-3.3600
1372.4340;-55.4100;-52.0000;-3.4100
1372.6330;-55.4800;-52.0600;-3.4200
1372.8320;-55.5200;-52.0600;-3.4600
1373.0310;-55.5500;-52.0700;-3.4800
1373.2300;-55.6800;-52.1800;-3.5000
1373.4290;-55.8400;-52.3100;-3.5300
1373.6280;-55.9400;-52.3900;-3.5500
1373.8270;-56.0500;-52.4500;-3.6000
1374.0270;-56.1600;-52.5400;-3.6200
1374.2260;-56.2600;-52.6100;-3.6500
1374.4250;-56.4200;-52.7300;-3.6900
1374.6240;-56.5600;-52.8400;-3.7200
1374.8230;-56.7600;-53.0000;-3.7600
1375.0220;-56.9300;-53.1600;-3.7700
1375.2210;-57.0300;-53.2100;-3.8200
1375.4200;-57.1000;-53.2500;-3.8500
1375.6200;-57.2100;-53.3000;-3.9100
1375.8190;-57.3100;-53.3900;-3.9200
1376.0180;-57.4700;-53.5200;-3.9500
1376.2170;-57.6300;-53.6200;-4.0100
1376.4160;-57.7400;-53.7100;-4.0300
1376.6150;-57.8600;-53.7700;-4.0900
1376.8140;-58.0300;-53.9100;-4.1200
1377.0130;-58.2700;-54.1300;-4.1400
1377.2120;-58.5100;-54.2700;-4.2400
1377.4120;-58.5700;-54.3300;-4.2400
1377.6110;-58.6600;-54.3600;-4.3000
1377.8100;-58.6300;-54.3000;-4.3300
1378.0090;-58.7200;-54.3400;-4.3800
1378.2080;-58.8400;-54.4200;-4.4200
1378.4070;-59.0400;-54.5700;-4.4700
1378.6060;-59.3100;-54.8000;-4.5100
1378.8050;-59.6100;-55.0800;-4.5300
1379.0040;-59.7700;-55.1800;-4.5900
1379.2040;-59.8400;-55.2200;-4.6200
1379.4030;-59.8300;-55.1600;-4.6700
1379.6020;-59.8100;-55.1100;-4.7000
1379.8010;-59.9000;-55.1400;-4.7600
1380.0000;-60.0500;-55.2600;-4.7900
1380.1990;-60.2400;-55.4100;-4.8300
1380.3980;-60.4600;-55.5900;-4.8700
1380.5970;-61.0300;-56.1300;-4.9000
1380.7970;-61.4900;-56.5600;-4.9300
1380.9960;-61.6800;-56.7000;-4.9800
1381.1950;-61.7200;-56.6700;-5.0500
1381.3940;-61.4400;-56.3700;-5.0700
1381.5930;-61.1800;-56.1000;-5.0800
1381.7920;-61.2300;-56.1200;-5.1100
1381.9910;-61.3000;-56.1400;-5.1600
1382.1900;-61.4300;-56.2400;-5.1900
1382.3890;-61.7600;-56.5300;-5.2300
1382.5890;-62.3200;-57.0600;-5.2600
1382.7880;-62.7700;-57.5100;-5.2600
1382.9870;-62.9800;-57.7200;-5.2600
1383.1860;-62.8000;-57.4500;-5.3500
1383.3850;-62.5100;-57.1600;-5.3500
1383.5840;-62.3200;-56.9600;-5.3600
1383.7830;-62.4400;-57.0600;-5.3800
1383.9820;-62.5400;-57.1800;-5.3600
1384.1810;-62.6100;-57.2000;-5.4100
1384.3810;-62.6200;-57.1900;-5.4300
1384.5800;-62.5700;-57.1400;-5.4300
1384.7790;-62.6500;-57.2100;-5.4400
1384.9780;-62.9500;-57.5000;-5.4500
1385.1770;-63.1100;-57.6900;-5.4200
1385.3760;-63.2100;-57.7900;-5.4200
1385.5750;-63.1700;-57.7100;-5.4600
1385.7740;-63.1700;-57.7400;-5.4300
1385.9740;-63.1600;-57.7100;-5.4500
1386.1730;-63.1700;-57.7300;-5.4400
1386.3720;-63.3000;-57.8700;-5.4300
1386.5710;-63.3300;-57.8800;-5.4500
1386.7700;-63.2500;-57.8900;-5.3600
1386.9690;-63.3300;-57.9200;-5.4100
1387.1680;-63.2600;-57.9300;-5.3300
1387.3670;-63.3500;-57.9700;-5.3800
1387.5660;-63.3900;-58.0300;-5.3600
1387.7660;-63.6400;-58.3200;-5.3200
1387.9650;-63.8700;-58.6100;-5.2600
1388.1640;-64.0800;-58.8200;-5.2600
1388.3630;-64.2300;-58.9300;-5.3000
1388.5620;-64.0800;-58.8600;-5.2200
1388.7610;-63.9200;-58.7100;-5.2100
1388.9600;-63.8600;-58.6600;-5.2000
1389.1590;-63.7500;-58.6000;-5.1500
1389.3580;-63.7400;-58.6300;-5.1100
1389.5580;-63.7900;-58.6900;-5.1000
1389.7570;-63.8400;-58.7700;-5.0700
1389.9560;-63.9600;-58.9200;-5.0400
1390.1550;-64.0400;-58.9700;-5.0700
1390.3540;-64.0100;-59.0100;-5.0000
1390.5530;-64.0100;-59.0400;-4.9700
1390.7520;-64.0100;-59.0500;-4.9600
1390.9510;-64.0300;-59.1100;-4.9200
1391.1500;-64.0700;-59.1700;-4.9000
1391.3500;-64.1200;-59.2200;-4.9000
1391.5490;-64.1600;-59.3000;-4.8600
1391.7480;-64.2100;-59.3600;-4.8500
1391.9470;-64.1800;-59.4400;-4.7400
1392.1460;-64.3600;-59.6100;-4.7500
1392.3450;-64.5200;-59.8200;-4.7000
1392.5440;-64.9400;-60.2300;-4.7100
1392.7430;-65.0100;-60.3800;-4.6300
1392.9430;-64.9600;-60.3000;-4.6600
1393.1420;-64.7800;-60.1400;-4.6400
1393.3410;-64.5100;-59.9200;-4.5900
1393.5400;-64.4500;-59.8900;-4.5600
1393.7390;-64.4800;-59.9500;-4.5300
1393.9380;-64.5500;-59.9800;-4.5700
1394.1370;-64.5700;-60.0800;-4.4900
1394.3360;-64.6400;-60.1300;-4.5100
1394.5350;-64.7200;-60.2100;-4.5100
1394.7350;-64.7500;-60.3200;-4.4300
1394.9340;-65.0100;-60.5900;-4.4200
1395.1330;-65.2000;-60.8200;-4.3800
1395.3320;-65.3200;-60.9100;-4.4100
1395.5310;-65.4300;-61.0300;-4.4000
1395.7300;-65.4300;-61.0200;-4.4100
1395.9290;-65.3200;-60.9400;-4.3800
1396.1280;-65.3500;-60.9300;-4.4200
1396.3270;-65.4700;-61.0800;-4.3900
1396.5270;-65.7300;-61.3300;-4.4000
1396.7260;-65.8500;-61.4800;-4.3700
1396.9250;-65.8400;-61.4200;-4.4200
1397.1240;-65.6500;-61.2700;-4.3800
1397.3230;-65.5500;-61.1900;-4.3600
1397.5220;-65.5400;-61.1500;-4.3900
1397.7210;-65.5800;-61.1700;-4.4100
1397.9200;-65.6300;-61.2200;-4.4100
1398.1200;-65.7500;-61.2600;-4.4900
1398.3190;-65.8100;-61.3300;-4.4800
1398.5180;-65.8900;-61.4100;-4.4800
1398.7170;-65.9800;-61.4700;-4.5100
1398.9160;-66.0000;-61.5200;-4.4800
1399.1150;-66.1500;-61.5800;-4.5700
1399.3140;-66.1700;-61.6800;-4.4900
1399.5130;-66.5600;-61.9700;-4.5900
1399.7120;-66.6200;-62.0800;-4.5400
1399.9120;-66.8100;-62.1600;-4.6500
1400.1110;-66.9700;-62.3100;-4.6600
1400.3100;-66.8900;-62.2800;-4.6100
1400.5090;-67.0800;-62.3300;-4.7500
1400.7080;-67.5600;-62.7300;-4.8300
1400.9070;-67.6000;-62.8000;-4.8000
1401.1060;-67.6000;-62.7600;-4.8400
1401.3050;-67.6700;-62.7600;-4.9100
1401.5040;-67.7000;-62.6400;-5.0600
1401.7040;-67.7200;-62.6600;-5.0600
1401.9030;-67.8300;-62.7100;-5.1200
1402.1020;-67.9100;-62.6800;-5.2300
1402.3010;-67.9300;-62.6500;-5.2800
1402.5000;-67.9800;-62.6600;-5.3200
1402.6990;-68.0700;-62.6900;-5.3800
1402.8980;-68.1700;-62.8200;-5.3500
1403.0970;-68.4000;-62.9200;-5.4800
1403.2970;-68.6300;-62.9800;-5.6500
1403.4960;-68.8000;-63.0300;-5.7700
1403.6950;-68.8500;-63.0800;-5.7700
1403.8940;-69.0100;-63.1800;-5.8300
1404.0930;-69.3100;-63.3000;-6.0100
1404.2920;-69.4700;-63.4300;-6.0400
1404.4910;-69.7200;-63.5100;-6.2100
1404.6900;-69.9300;-63.6100;-6.3200
1404.8890;-70.3800;-64.0700;-6.3100
1405.0890;-70.6500;-64.2300;-6.4200
1405.2880;-70.8900;-64.2500;-6.6400
1405.4870;-70.8600;-64.2300;-6.6300
1405.6860;-70.5600;-63.9400;-6.6200
1405.8850;-70.7500;-63.8800;-6.8700
1406.0840;-70.8300;-63.9400;-6.8900
1406.2830;-70.9700;-63.9700;-7.0000
1406.4820;-71.3800;-64.0200;-7.3600
1406.6810;-71.6100;-64.1900;-7.4200
1406.8810;-71.6500;-64.3500;-7.3000
1407.0800;-71.8400;-64.4900;-7.3500
1407.2790;-72.4600;-64.7300;-7.7300
1407.4780;-72.5800;-64.7900;-7.7900
1407.6770;-72.9900;-64.7800;-8.2100
1407.8760;-73.2700;-64.8000;-8.4700
1408.0750;-73.2500;-64.7600;-8.4900
1408.2740;-73.5000;-64.6700;-8.8300
1408.4740;-73.4800;-64.7400;-8.7400
1408.6730;-73.4300;-64.7900;-8.6400
1408.8720;-73.5700;-64.9000;-8.6700
1409.0710;-74.0000;-65.0400;-8.9600
1409.2700;-74.6600;-65.2600;-9.4000
1409.4690;-75.1000;-65.5900;-9.5100
1409.6680;-74.9400;-65.6500;-9.2900
1409.8670;-74.9500;-65.7100;-9.2400
1410.0660;-74.8400;-65.6000;-9.2400
1410.2660;-75.2100;-65.4500;-9.7600
1410.4650;-75.8300;-65.5300;-10.3000
1410.6640;-75.6300;-65.5700;-10.0600
1410.8630;-75.9700;-65.6500;-10.3200
1411.0620;-75.7600;-65.6400;-10.1200
1411.2610;-76.6600;-65.7700;-10.8900
1411.4600;-76.5100;-65.9300;-10.5800
1411.6590;-76.5100;-65.9500;-10.5600
1411.8580;-76.6100;-66.0700;-10.5400
1412.0580;-76.8200;-66.1100;-10.7100
1412.2570;-76.7500;-66.2200;-10.5300
1412.4560;-77.4700;-66.3500;-11.1200
1412.6550;-77.2400;-66.3800;-10.8600
1412.8540;-78.3100;-66.4500;-11.8600
1413.0530;-78.1600;-66.4900;-11.6700
1413.2520;-77.7600;-66.5200;-11.2400
1413.4510;-77.3100;-66.6400;-10.6700
1413.6500;-76.9100;-66.7600;-10.1500
1413.8500;-77.2100;-66.8200;-10.3900
1414.0490;-78.7800;-67.0900;-11.6900
1414.2480;-79.2600;-67.2000;-12.0600
1414.4470;-77.5000;-67.2300;-10.2700
1414.6460;-78.5000;-67.3600;-11.1400
1414.8450;-77.4600;-67.5100;-9.9500
1415.0440;-77.8600;-67.4100;-10.4500
1415.2430;-78.4500;-67.4900;-10.9600
1415.4430;-78.3500;-67.5300;-10.8200
1415.6420;-78.5600;-67.5200;-11.0400
1415.8410;-78.0500;-67.6500;-10.4000
1416.0400;-77.1400;-67.6900;-9.4500
1416.2390;-77.5000;-67.7300;-9.7700
1416.4380;-77.7700;-67.8100;-9.9600
1416.6370;-77.7700;-67.8200;-9.9500
1416.8360;-77.5500;-68.0000;-9.5500
1417.0350;-76.9300;-68.0200;-8.9100
1417.2350;-77.1900;-68.1700;-9.0200
1417.4340;-77.5900;-68.2800;-9.3100
1417.6330;-78.1000;-68.4700;-9.6300
1417.8320;-78.1200;-68.5400;-9.5800
1418.0310;-76.8700;-68.6700;-8.2000
1418.2300;-76.8700;-68.6700;-8.2000
1418.4290;-76.3500;-68.6000;-7.7500
1418.6280;-76.8500;-68.7000;-8.1500
1418.8270;-77.6100;-68.7800;-8.8300
1419.0270;-77.9000;-69.0600;-8.8400
1419.2260;-77.2500;-69.1200;-8.1300
1419.4250;-77.7400;-69.2900;-8.4500
1419.6240;-77.0400;-69.2900;-7.7500
1419.8230;-77.5000;-69.4200;-8.0800
1420.0220;-76.8200;-69.4600;-7.3600
1420.2210;-77.3000;-69.4500;-7.8500
1420.4200;-77.1800;-69.4600;-7.7200
1420.6200;-76.8300;-69.4900;-7.3400
1420.8190;-76.6900;-69.8400;-6.8500
1421.0180;-77.5000;-69.7700;-7.7300
1421.2170;-77.3600;-69.9900;-7.3700
1421.4160;-77.0200;-69.9100;-7.1100
1421.6150;-76.5300;-70.1300;-6.4000
1421.8140;-77.4700;-70.1100;-7.3600
1422.0130;-77.1700;-70.0200;-7.1500
1422.2120;-77.0100;-70.2400;-6.7700
1422.4120;-77.0700;-70.1800;-6.8900
1422.6110;-77.2900;-70.4900;-6.8000
1422.8100;-76.1800;-70.6000;-5.5800
1423.0090;-77.3300;-70.5900;-6.7400
1423.2080;-77.4300;-70.4200;-7.0100
1423.4070;-77.0300;-70.6400;-6.3900
1423.6060;-76.7700;-70.7900;-5.9800
1423.8050;-76.9200;-70.8600;-6.0600
1424.0040;-76.7700;-70.7900;-5.9800
1424.2040;-78.3600;-71.0800;-7.2800
1424.4030;-77.4700;-71.1400;-6.3300
1424.6020;-77.1100;-71.1100;-6.0000
1424.8010;-77.1900;-71.0700;-6.1200
1425.0000;-76.9500;-71.2100;-5.7400
