Wavelength;Intensity_Meas;Intensity_Ref;Difference_dB
1200.0000;-58.9900;-54.7600;-4.2300
1200.1990;-58.9100;-54.7300;-4.1800
1200.3980;-58.9000;-54.7000;-4.2000
1200.5970;-58.9500;-54.6700;-4.2800
1200.7970;-58.9400;-54.6400;-4.3000
1200.9960;-58.9000;-54.6100;-4.2900
1201.1950;-58.8700;-54.5600;-4.3100
1201.3940;-58.8800;-54.5300;-4.3500
1201.5930;-58.8800;-54.4900;-4.3900
1201.7920;-58.8400;-54.4200;-4.4200
1201.9910;-58.8000;-54.3800;-4.4200
1202.1900;-58.7600;-54.3300;-4.4300
1202.3890;-58.7300;-54.2800;-4.4500
1202.5890;-58.7200;-54.2200;-4.5000
1202.7880;-58.6800;-54.1600;-4.5200
1202.9870;-58.6000;-54.1200;-4.4800
1203.1860;-58.5500;-54.0600;-4.4900
1203.3850;-58.5600;-54.0100;-4.5500
1203.5840;-58.4900;-53.9700;-4.5200
1203.7830;-58.4000;-53.9100;-4.4900
1203.9820;-58.3900;-53.9000;-4.4900
1204.1810;-58.3800;-53.8400;-4.5400
1204.3810;-58.3200;-53.8000;-4.5200
1204.5800;-58.2600;-53.7700;-4.4900
1204.7790;-58.2400;-53.7300;-4.5100
1204.9780;-58.2500;-53.7100;-4.5400
1205.1770;-58.2000;-53.6600;-4.5400
1205.3760;-58.1600;-53.6500;-4.5100
1205.5750;-58.1300;-53.6300;-4.5000
1205.7740;-58.1500;-53.6000;-4.5500
1205.9740;-58.1500;-53.5900;-4.5600
1206.1730;-58.0900;-53.5600;-4.5300
1206.3720;-58.0800;-53.5400;-4.5400
1206.5710;-58.1100;-53.5200;-4.5900
1206.7700;-58.1100;-53.4900;-4.6200
1206.9690;-58.0900;-53.4600;-4.6300
1207.1680;-58.0700;-53.4200;-4.6500
1207.3670;-58.0700;-53.4000;-4.6700
1207.5660;-58.0800;-53.3700;-4.7100
1207.7660;-58.0500;-53.3200;-4.7300
1207.9650;-58.0400;-53.3000;-4.7400
1208.1640;-58.0100;-53.2500;-4.7600
1208.3630;-58.0200;-53.1900;-4.8300
1208.5620;-58.0200;-53.1500;-4.8700
1208.7610;-57.9500;-53.1100;-4.8400
1208.9600;-57.9200;-53.0500;-4.8700
1209.1590;-57.9200;-52.9800;-4.9400
1209.3580;-57.8900;-52.9300;-4.9600
1209.5580;-57.8200;-52.8900;-4.9300
1209.7570;-57.7800;-52.8200;-4.9600
1209.9560;-57.7800;-52.7700;-5.0100
1210.1550;-57.7100;-52.7100;-5.0000
1210.3540;-57.6300;-52.6500;-4.9800
1210.5530;-57.6100;-52.6200;-4.9900
1210.7520;-57.5900;-52.5600;-5.0300
1210.9510;-57.5400;-52.5200;-5.0200
1211.1500;-57.4700;-52.4600;-5.0100
1211.3500;-57.4200;-52.4100;-5.0100
1211.5490;-57.4000;-52.3900;-5.0100
1211.7480;-57.3600;-52.3300;-5.0300
1211.9470;-57.3300;-52.3000;-5.0300
1212.1460;-57.2600;-52.2600;-5.0000
1212.3450;-57.2200;-52.2200;-5.0000
1212.5440;-57.2200;-52.2100;-5.0100
1212.7430;-57.1600;-52.1700;-4.9900
1212.9430;-57.1000;-52.1400;-4.9600
1213.1420;-57.0700;-52.1000;-4.9700
1213.3410;-57.0600;-52.0700;-4.9900
1213.5400;-57.0100;-52.0500;-4.9600
1213.7390;-56.9400;-52.0000;-4.9400
1213.9380;-56.9500;-51.9800;-4.9700
1214.1370;-56.8900;-51.9300;-4.9600
1214.3360;-56.8300;-51.8800;-4.9500
1214.5350;-56.7900;-51.8600;-4.9300
1214.7350;-56.7400;-51.8100;-4.9300
1214.9340;-56.7000;-51.7600;-4.9400
1215.1330;-56.6300;-51.7000;-4.9300
1215.3320;-56.5700;-51.6400;-4.9300
1215.5310;-56.5100;-51.6100;-4.9000
1215.7300;-56.4500;-51.5400;-4.9100
1215.9290;-56.4000;-51.4900;-4.9100
1216.1280;-56.3000;-51.4200;-4.8800
1216.3270;-56.2200;-51.3600;-4.8600
1216.5270;-56.1700;-51.3100;-4.8600
1216.7260;-56.0900;-51.2400;-4.8500
1216.9250;-56.0000;-51.1800;-4.8200
1217.1240;-55.9200;-51.1100;-4.8100
1217.3230;-55.8300;-51.0500;-4.7800
1217.5220;-55.7400;-51.0100;-4.7300
1217.7210;-55.6600;-50.9400;-4.7200
1217.9200;-55.5800;-50.9000;-4.6800
1218.1200;-55.5000;-50.8300;-4.6700
1218.3190;-55.4200;-50.7900;-4.6300
1218.5180;-55.3400;-50.7500;-4.5900
1218.7170;-55.2700;-50.7000;-4.5700
1218.9160;-55.1900;-50.6700;-4.5200
1219.1150;-55.1200;-50.6100;-4.5100
1219.3140;-55.0500;-50.5700;-4.4800
1219.5130;-54.9700;-50.5400;-4.4300
1219.7120;-54.9200;-50.5100;-4.4100
1219.9120;-54.8600;-50.4700;-4.3900
1220.1110;-54.7900;-50.4200;-4.3700
1220.3100;-54.7300;-50.3800;-4.3500
1220.5090;-54.6700;-50.3400;-4.3300
1220.7080;-54.6200;-50.2900;-4.3300
1220.9070;-54.5500;-50.2600;-4.2900
1221.1060;-54.4700;-50.2000;-4.2700
1221.3050;-54.4300;-50.1400;-4.2900
1221.5040;-54.3500;-50.0900;-4.2600
1221.7040;-54.2800;-50.0200;-4.2600
1221.9030;-54.2200;-49.9700;-4.2500
1222.1020;-54.1400;-49.8900;-4.2500
1222.3010;-54.0900;-49.8300;-4.2600
1222.5000;-53.9900;-49.7600;-4.2300
1222.6990;-53.9000;-49.6900;-4.2100
1222.8980;-53.8400;-49.6300;-4.2100
1223.0970;-53.7500;-49.5400;-4.2100
1223.2970;-53.6700;-49.4700;-4.2000
1223.4960;-53.5700;-49.3900;-4.1800
1223.6950;-53.4900;-49.3100;-4.1800
1223.8940;-53.4100;-49.2500;-4.1600
1224.0930;-53.3000;-49.1700;-4.1300
1224.2920;-53.2400;-49.1000;-4.1400
1224.4910;-53.1400;-49.0300;-4.1100
1224.6900;-53.0600;-48.9600;-4.1000
1224.8890;-52.9700;-48.9100;-4.0600
1225.0890;-52.8900;-48.8400;-4.0500
1225.2880;-52.8200;-48.7700;-4.0500
1225.4870;-52.7400;-48.7200;-4.0200
1225.6860;-52.6700;-48.6600;-4.0100
1225.8850;-52.6100;-48.6200;-3.9900
1226.0840;-52.5300;-48.5500;-3.9800
1226.2830;-52.4900;-48.5000;-3.9900
1226.4820;-52.4200;-48.4400;-3.9800
1226.6810;-52.3700;-48.3800;-3.9900
1226.8810;-52.3400;-48.3400;-4.0000
1227.0800;-52.2800;-48.2700;-4.0100
1227.2790;-52.2400;-48.2200;-4.0200
1227.4780;-52.1800;-48.1600;-4.0200
1227.6770;-52.1400;-48.1000;-4.0400
1227.8760;-52.1100;-48.0400;-4.0700
1228.0750;-52.0500;-47.9600;-4.0900
1228.2740;-52.0100;-47.8900;-4.1200
1228.4740;-51.9500;-47.8300;-4.1200
1228.6730;-51.9000;-47.7500;-4.1500
1228.8720;-51.8500;-47.6800;-4.1700
1229.0710;-51.7800;-47.5900;-4.1900
1229.2700;-51.7300;-47.5100;-4.2200
1229.4690;-51.6500;-47.4300;-4.2200
1229.6680;-51.5800;-47.3500;-4.2300
1229.8670;-51.5100;-47.2700;-4.2400
1230.0660;-51.4300;-47.1800;-4.2500
1230.2660;-51.3600;-47.0900;-4.2700
1230.4650;-51.2600;-47.0100;-4.2500
1230.6640;-51.1800;-46.9200;-4.2600
1230.8630;-51.1200;-46.8600;-4.2600
1231.0620;-51.0300;-46.7700;-4.2600
1231.2610;-50.9700;-46.7100;-4.2600
1231.4600;-50.9000;-46.6500;-4.2500
1231.6590;-50.8200;-46.5700;-4.2500
1231.8580;-50.7500;-46.5100;-4.2400
1232.0580;-50.6800;-46.4400;-4.2400
1232.2570;-50.6200;-46.3800;-4.2400
1232.4560;-50.5500;-46.3300;-4.2200
1232.6550;-50.4800;-46.2600;-4.2200
1232.8540;-50.4100;-46.2000;-4.2100
1233.0530;-50.3500;-46.1400;-4.2100
1233.2520;-50.2800;-46.0700;-4.2100
1233.4510;-50.1900;-46.0100;-4.1800
1233.6500;-50.1200;-45.9400;-4.1800
1233.8500;-50.0500;-45.8900;-4.1600
1234.0490;-49.9600;-45.8000;-4.1600
1234.2480;-49.8800;-45.7500;-4.1300
1234.4470;-49.7800;-45.6600;-4.1200
1234.6460;-49.6900;-45.6000;-4.0900
1234.8450;-49.5900;-45.5200;-4.0700
1235.0440;-49.4800;-45.4400;-4.0400
1235.2430;-49.3900;-45.3800;-4.0100
1235.4430;-49.2600;-45.2700;-3.9900
1235.6420;-49.1600;-45.2000;-3.9600
1235.8410;-49.0400;-45.1000;-3.9400
1236.0400;-48.9300;-45.0100;-3.9200
1236.2390;-48.8200;-44.9200;-3.9000
1236.4380;-48.6900;-44.8100;-3.8800
1236.6370;-48.5900;-44.7300;-3.8600
1236.8360;-48.4700;-44.6400;-3.8300
1237.0350;-48.3600;-44.5500;-3.8100
1237.2350;-48.2600;-44.4700;-3.7900
1237.4340;-48.1300;-44.3600;-3.7700
1237.6330;-48.0400;-44.2900;-3.7500
1237.8320;-47.9400;-44.2100;-3.7300
1238.0310;-47.8300;-44.1100;-3.7200
1238.2300;-47.7500;-44.0500;-3.7000
1238.4290;-47.6500;-43.9500;-3.7000
1238.6280;-47.5600;-43.8800;-3.6800
1238.8270;-47.4500;-43.7900;-3.6600
1239.0270;-47.3600;-43.7200;-3.6400
1239.2260;-47.2600;-43.6500;-3.6100
1239.4250;-47.1400;-43.5500;-3.5900
1239.6240;-47.0600;-43.4800;-3.5800
1239.8230;-46.9400;-43.3900;-3.5500
1240.0220;-46.8400;-43.3100;-3.5300
1240.2210;-46.7300;-43.2300;-3.5000
1240.4200;-46.6100;-43.1300;-3.4800
1240.6200;-46.5100;-43.0500;-3.4600
1240.8190;-46.3800;-42.9400;-3.4400
1241.0180;-46.2500;-42.8300;-3.4200
1241.2170;-46.1300;-42.7300;-3.4000
1241.4160;-46.0000;-42.6200;-3.3800
1241.6150;-45.8600;-42.5000;-3.3600
1241.8140;-45.7600;-42.3900;-3.3700
1242.0130;-45.6500;-42.2700;-3.3800
1242.2120;-45.5200;-42.1700;-3.3500
1242.4120;-45.4000;-42.0400;-3.3600
1242.6110;-45.2900;-41.9300;-3.3600
1242.8100;-45.1700;-41.8000;-3.3700
1243.0090;-45.0600;-41.6800;-3.3800
1243.2080;-44.9500;-41.5700;-3.3800
1243.4070;-44.8400;-41.4500;-3.3900
1243.6060;-44.7500;-41.3300;-3.4200
1243.8050;-44.6500;-41.2100;-3.4400
1244.0040;-44.5500;-41.0900;-3.4600
1244.2040;-44.4600;-40.9900;-3.4700
1244.4030;-44.3800;-40.8700;-3.5100
1244.6020;-44.2800;-40.7600;-3.5200
1244.8010;-44.2000;-40.6400;-3.5600
1245.0000;-44.1300;-40.5300;-3.6000
1245.1990;-44.0400;-40.4300;-3.6100
1245.3980;-43.9600;-40.3100;-3.6500
1245.5970;-43.8900;-40.2000;-3.6900
1245.7970;-43.8000;-40.0800;-3.7200
1245.9960;-43.7200;-39.9600;-3.7600
1246.1950;-43.6300;-39.8600;-3.7700
1246.3940;-43.5500;-39.7300;-3.8200
1246.5930;-43.4700;-39.6000;-3.8700
1246.7920;-43.3800;-39.4800;-3.9000
1246.9910;-43.2900;-39.3400;-3.9500
1247.1900;-43.1900;-39.2300;-3.9600
1247.3890;-43.1000;-39.0900;-4.0100
1247.5890;-43.0100;-38.9600;-4.0500
1247.7880;-42.9100;-38.8200;-4.0900
1247.9870;-42.8100;-38.6800;-4.1300
1248.1860;-42.7100;-38.5600;-4.1500
1248.3850;-42.6100;-38.4100;-4.2000
1248.5840;-42.5000;-38.2800;-4.2200
1248.7830;-42.4000;-38.1400;-4.2600
1248.9820;-42.3100;-38.0100;-4.3000
1249.1810;-42.2000;-37.8800;-4.3200
1249.3810;-42.0900;-37.7400;-4.3500
1249.5800;-41.9900;-37.6100;-4.3800
1249.7790;-41.8900;-37.4700;-4.4200
1249.9780;-41.7800;-37.3300;-4.4500
1250.1770;-41.6700;-37.2200;-4.4500
1250.3760;-41.5700;-37.0800;-4.4900
1250.5750;-41.4800;-36.9500;-4.5300
1250.7740;-41.3700;-36.8200;-4.5500
1250.9740;-41.2800;-36.7000;-4.5800
1251.1730;-41.1700;-36.5800;-4.5900
1251.3720;-41.0700;-36.4400;-4.6300
1251.5710;-40.9800;-36.3400;-4.6400
1251.7700;-40.8700;-36.2000;-4.6700
1251.9690;-40.7600;-36.0700;-4.6900
1252.1680;-40.6400;-35.9400;-4.7000
1252.3670;-40.5300;-35.7800;-4.7500
1252.5660;-40.4100;-35.6800;-4.7300
1252.7660;-40.2800;-35.5400;-4.7400
1252.9650;-40.1700;-35.4300;-4.7400
1253.1640;-40.0300;-35.2800;-4.7500
1253.3630;-39.8900;-35.1400;-4.7500
1253.5620;-39.7600;-35.0200;-4.7400
1253.7610;-39.6000;-34.8800;-4.7200
1253.9600;-39.4800;-34.7600;-4.7200
1254.1590;-39.3100;-34.6100;-4.7000
1254.3580;-39.1600;-34.4800;-4.6800
1254.5580;-39.0000;-34.3500;-4.6500
1254.7570;-38.8300;-34.2100;-4.6200
1254.9560;-38.6700;-34.0800;-4.5900
1255.1550;-38.5100;-33.9500;-4.5600
1255.3540;-38.3400;-33.8200;-4.5200
1255.5530;-38.1700;-33.7000;-4.4700
1255.7520;-38.0000;-33.5700;-4.4300
1255.9510;-37.8400;-33.4500;-4.3900
1256.1500;-37.6700;-33.3100;-4.3600
1256.3500;-37.5000;-33.1900;-4.3100
1256.5490;-37.3200;-33.0700;-4.2500
1256.7480;-37.1500;-32.9400;-4.2100
1256.9470;-36.9800;-32.8200;-4.1600
1257.1460;-36.8000;-32.6900;-4.1100
1257.3450;-36.6300;-32.5600;-4.0700
1257.5440;-36.4600;-32.4400;-4.0200
1257.7430;-36.2800;-32.3100;-3.9700
1257.9430;-36.1100;-32.1900;-3.9200
1258.1420;-35.9100;-32.0600;-3.8500
1258.3410;-35.7600;-31.9400;-3.8200
1258.5400;-35.5900;-31.8100;-3.7800
1258.7390;-35.4300;-31.6800;-3.7500
1258.9380;-35.2500;-31.5500;-3.7000
1259.1370;-35.0900;-31.4200;-3.6700
1259.3360;-34.9100;-31.3000;-3.6100
1259.5350;-34.7400;-31.1700;-3.5700
1259.7350;-34.5800;-31.0400;-3.5400
1259.9340;-34.4000;-30.9100;-3.4900
1260.1330;-34.2500;-30.7800;-3.4700
1260.3320;-34.0800;-30.6600;-3.4200
1260.5310;-33.9200;-30.5300;-3.3900
1260.7300;-33.7700;-30.4100;-3.3600
1260.9290;-33.6000;-30.2900;-3.3100
1261.1280;-33.4500;-30.1500;-3.3000
1261.3270;-33.2900;-30.0400;-3.2500
1261.5270;-33.1500;-29.9200;-3.2300
1261.7260;-33.0100;-29.8000;-3.2100
1261.9250;-32.8500;-29.6800;-3.1700
1262.1240;-32.7200;-29.5500;-3.1700
1262.3230;-32.5700;-29.4400;-3.1300
1262.5220;-32.4300;-29.3200;-3.1100
1262.7210;-32.3000;-29.2000;-3.1000
1262.9200;-32.1600;-29.0800;-3.0800
1263.1200;-32.0300;-28.9600;-3.0700
1263.3190;-31.8900;-28.8400;-3.0500
1263.5180;-31.7600;-28.7200;-3.0400
1263.7170;-31.6400;-28.6000;-3.0400
1263.9160;-31.5100;-28.4800;-3.0300
1264.1150;-31.3900;-28.3500;-3.0400
1264.3140;-31.2500;-28.2400;-3.0100
1264.5130;-31.1400;-28.1100;-3.0300
1264.7120;-31.0200;-27.9900;-3.0300
1264.9120;-30.8900;-27.8600;-3.0300
1265.1110;-30.7900;-27.7400;-3.0500
1265.3100;-30.6700;-27.6200;-3.0500
1265.5090;-30.5700;-27.4900;-3.0800
1265.7080;-30.4700;-27.3800;-3.0900
1265.9070;-30.3600;-27.2600;-3.1000
1266.1060;-30.2700;-27.1300;-3.1400
1266.3050;-30.1700;-27.0300;-3.1400
1266.5040;-30.0900;-26.9100;-3.1800
1266.7040;-30.0100;-26.8000;-3.2100
1266.9030;-29.9300;-26.6800;-3.2500
1267.1020;-29.8600;-26.5700;-3.2900
1267.3010;-29.7800;-26.4700;-3.3100
1267.5000;-29.7200;-26.3500;-3.3700
1267.6990;-29.6600;-26.2500;-3.4100
1267.8980;-29.6000;-26.1300;-3.4700
1268.0970;-29.5600;-26.0200;-3.5400
1268.2970;-29.5000;-25.9100;-3.5900
1268.4960;-29.4600;-25.8200;-3.6400
1268.6950;-29.4100;-25.7100;-3.7000
1268.8940;-29.3600;-25.5900;-3.7700
1269.0930;-29.3200;-25.4900;-3.8300
1269.2920;-29.2700;-25.3700;-3.9000
1269.4910;-29.2400;-25.2600;-3.9800
1269.6900;-29.2100;-25.1500;-4.0600
1269.8890;-29.1600;-25.0300;-4.1300
1270.0890;-29.1400;-24.9300;-4.2100
1270.2880;-29.0900;-24.8000;-4.2900
1270.4870;-29.0700;-24.7000;-4.3700
1270.6860;-29.0400;-24.5900;-4.4500
1270.8850;-29.0100;-24.4700;-4.5400
1271.0840;-29.0000;-24.3700;-4.6300
1271.2830;-28.9600;-24.2600;-4.7000
1271.4820;-28.9400;-24.1500;-4.7900
1271.6810;-28.9300;-24.0500;-4.8800
1271.8810;-28.9100;-23.9400;-4.9700
1272.0800;-28.9100;-23.8500;-5.0600
1272.2790;-28.9000;-23.7300;-5.1700
1272.4780;-28.9000;-23.6400;-5.2600
1272.6770;-28.9000;-23.5400;-5.3600
1272.8760;-28.9000;-23.4300;-5.4700
1273.0750;-28.9200;-23.3400;-5.5800
1273.2740;-28.9200;-23.2300;-5.6900
1273.4740;-28.9500;-23.1300;-5.8200
1273.6730;-28.9500;-23.0300;-5.9200
1273.8720;-28.9700;-22.9300;-6.0400
1274.0710;-28.9900;-22.8400;-6.1500
1274.2700;-29.0000;-22.7300;-6.2700
1274.4690;-29.0300;-22.6300;-6.4000
1274.6680;-29.0400;-22.5200;-6.5200
1274.8670;-29.0500;-22.4100;-6.6400
1275.0660;-29.0600;-22.3200;-6.7400
1275.2660;-29.0600;-22.2000;-6.8600
1275.4650;-29.0800;-22.1100;-6.9700
1275.6640;-29.0700;-22.0100;-7.0600
1275.8630;-29.0700;-21.9100;-7.1600
1276.0620;-29.0500;-21.8100;-7.2400
1276.2610;-29.0300;-21.7100;-7.3200
1276.4600;-29.0300;-21.6200;-7.4100
1276.6590;-28.9900;-21.5100;-7.4800
1276.8580;-28.9700;-21.4200;-7.5500
1277.0580;-28.9400;-21.3400;-7.6000
1277.2570;-28.9000;-21.2300;-7.6700
1277.4560;-28.8700;-21.1600;-7.7100
1277.6550;-28.8100;-21.0600;-7.7500
1277.8540;-28.7700;-20.9700;-7.8000
1278.0530;-28.7100;-20.8800;-7.8300
1278.2520;-28.6500;-20.7900;-7.8600
1278.4510;-28.6000;-20.7200;-7.8800
1278.6500;-28.5200;-20.6200;-7.9000
1278.8500;-28.4500;-20.5300;-7.9200
1279.0490;-28.3600;-20.4400;-7.9200
1279.2480;-28.2700;-20.3500;-7.9200
1279.4470;-28.1700;-20.2800;-7.8900
1279.6460;-28.0600;-20.1800;-7.8800
1279.8450;-27.9600;-20.1000;-7.8600
1280.0440;-27.8300;-20.0100;-7.8200
1280.2430;-27.7100;-19.9100;-7.8000
1280.4430;-27.5800;-19.8400;-7.7400
1280.6420;-27.4400;-19.7500;-7.6900
1280.8410;-27.3100;-19.6700;-7.6400
1281.0400;-27.1500;-19.5800;-7.5700
1281.2390;-27.0000;-19.4900;-7.5100
1281.4380;-26.8400;-19.4200;-7.4200
1281.6370;-26.6700;-19.3300;-7.3400
1281.8360;-26.5100;-19.2600;-7.2500
1282.0350;-26.3300;-19.1700;-7.1600
1282.2350;-26.1700;-19.0900;-7.0800
1282.4340;-25.9500;-19.0100;-6.9400
1282.6330;-25.8300;-18.9400;-6.8900
1282.8320;-25.6400;-18.8700;-6.7700
1283.0310;-25.4600;-18.7800;-6.6800
1283.2300;-25.2900;-18.7100;-6.5800
1283.4290;-25.1000;-18.6400;-6.4600
1283.6280;-24.9300;-18.5600;-6.3700
1283.8270;-24.7400;-18.4900;-6.2500
1284.0270;-24.5700;-18.4100;-6.1600
1284.2260;-24.3900;-18.3400;-6.0500
1284.4250;-24.2100;-18.2700;-5.9400
1284.6240;-24.0500;-18.1900;-5.8600
1284.8230;-23.8700;-18.1300;-5.7400
1285.0220;-23.7000;-18.0400;-5.6600
1285.2210;-23.5300;-17.9700;-5.5600
1285.4200;-23.3600;-17.9000;-5.4600
1285.6200;-23.2000;-17.8300;-5.3700
1285.8190;-23.0300;-17.7700;-5.2600
1286.0180;-22.8800;-17.6900;-5.1900
1286.2170;-22.7200;-17.6200;-5.1000
1286.4160;-22.5600;-17.5400;-5.0200
1286.6150;-22.4300;-17.4800;-4.9500
1286.8140;-22.2700;-17.4300;-4.8400
1287.0130;-22.1200;-17.3500;-4.7700
1287.2120;-21.9800;-17.2900;-4.6900
1287.4120;-21.8300;-17.2200;-4.6100
1287.6110;-21.7100;-17.1500;-4.5600
1287.8100;-21.5700;-17.1000;-4.4700
1288.0090;-21.4500;-17.0200;-4.4300
1288.2080;-21.3200;-16.9700;-4.3500
1288.4070;-21.1900;-16.9000;-4.2900
1288.6060;-21.0900;-16.8400;-4.2500
1288.8050;-20.9700;-16.7900;-4.1800
1289.0040;-20.8600;-16.7200;-4.1400
1289.2040;-20.7500;-16.6700;-4.0800
1289.4030;-20.6500;-16.6000;-4.0500
1289.6020;-20.5600;-16.5400;-4.0200
1289.8010;-20.4600;-16.4900;-3.9700
1290.0000;-20.3800;-16.4200;-3.9600
1290.1990;-20.2900;-16.3800;-3.9100
1290.3980;-20.2000;-16.3100;-3.8900
1290.5970;-20.1400;-16.2700;-3.8700
1290.7970;-20.0500;-16.2100;-3.8400
1290.9960;-19.9800;-16.1400;-3.8400
1291.1950;-19.9000;-16.0900;-3.8100
1291.3940;-19.8400;-16.0400;-3.8000
1291.5930;-19.7700;-15.9800;-3.7900
1291.7920;-19.7100;-15.9200;-3.7900
1291.9910;-19.6700;-15.8700;-3.8000
1292.1900;-19.6100;-15.8100;-3.8000
1292.3890;-19.5700;-15.7600;-3.8100
1292.5890;-19.5100;-15.7100;-3.8000
1292.7880;-19.4800;-15.6500;-3.8300
1292.9870;-19.4600;-15.6200;-3.8400
1293.1860;-19.4200;-15.5600;-3.8600
1293.3850;-19.4000;-15.5100;-3.8900
1293.5840;-19.3700;-15.4500;-3.9200
1293.7830;-19.3500;-15.4000;-3.9500
1293.9820;-19.3500;-15.3700;-3.9800
1294.1810;-19.3400;-15.3100;-4.0300
1294.3810;-19.3500;-15.2700;-4.0800
1294.5800;-19.3300;-15.2200;-4.1100
1294.7790;-19.3400;-15.1700;-4.1700
1294.9780;-19.3600;-15.1300;-4.2300
1295.1770;-19.3600;-15.0800;-4.2800
1295.3760;-19.4000;-15.0400;-4.3600
1295.5750;-19.4000;-14.9800;-4.4200
1295.7740;-19.4300;-14.9300;-4.5000
1295.9740;-19.4500;-14.8900;-4.5600
1296.1730;-19.4800;-14.8400;-4.6400
1296.3720;-19.5300;-14.8100;-4.7200
1296.5710;-19.5600;-14.7500;-4.8100
1296.7700;-19.6100;-14.7100;-4.9000
1296.9690;-19.6600;-14.6700;-4.9900
1297.1680;-19.7100;-14.6300;-5.0800
1297.3670;-19.7700;-14.6000;-5.1700
1297.5660;-19.8200;-14.5400;-5.2800
1297.7660;-19.9000;-14.5000;-5.4000
1297.9650;-19.9700;-14.4700;-5.5000
1298.1640;-20.0500;-14.4300;-5.6200
1298.3630;-20.1300;-14.4100;-5.7200
1298.5620;-20.2000;-14.3500;-5.8500
1298.7610;-20.3100;-14.3300;-5.9800
1298.9600;-20.4000;-14.2900;-6.1100
1299.1590;-20.5100;-14.2500;-6.2600
1299.3580;-20.6100;-14.2300;-6.3800
1299.5580;-20.7100;-14.1800;-6.5300
1299.7570;-20.8400;-14.1500;-6.6900
1299.9560;-20.9600;-14.1200;-6.8400
1300.1550;-21.0900;-14.0900;-7.0000
1300.3540;-21.2200;-14.0600;-7.1600
1300.5530;-21.3400;-14.0100;-7.3300
1300.7520;-21.4900;-14.0000;-7.4900
1300.9510;-21.6400;-13.9600;-7.6800
1301.1500;-21.8100;-13.9400;-7.8700
1301.3500;-21.9500;-13.9100;-8.0400
1301.5490;-22.1200;-13.8900;-8.2300
1301.7480;-22.2800;-13.8800;-8.4000
1301.9470;-22.4400;-13.8400;-8.6000
1302.1460;-22.6300;-13.8300;-8.8000
1302.3450;-22.7900;-13.8100;-8.9800
1302.5440;-22.9800;-13.7900;-9.1900
1302.7430;-23.1500;-13.7800;-9.3700
1302.9430;-23.3200;-13.7500;-9.5700
1303.1420;-23.5200;-13.7500;-9.7700
1303.3410;-23.6800;-13.7200;-9.9600
1303.5400;-23.8800;-13.7100;-10.1700
1303.7390;-24.0400;-13.7100;-10.3300
1303.9380;-24.2100;-13.6800;-10.5300
1304.1370;-24.4000;-13.6800;-10.7200
1304.3360;-24.5600;-13.6600;-10.9000
1304.5350;-24.7300;-13.6500;-11.0800
1304.7350;-24.8700;-13.6400;-11.2300
1304.9340;-25.0100;-13.6300;-11.3800
1305.1330;-25.1500;-13.6300;-11.5200
1305.3320;-25.2500;-13.6000;-11.6500
1305.5310;-25.3700;-13.6100;-11.7600
1305.7300;-25.4400;-13.6000;-11.8400
1305.9290;-25.5100;-13.5800;-11.9300
1306.1280;-25.5500;-13.6000;-11.9500
1306.3270;-25.5700;-13.5800;-11.9900
1306.5270;-25.6000;-13.5900;-12.0100
1306.7260;-25.5700;-13.5900;-11.9800
1306.9250;-25.5400;-13.5800;-11.9600
1307.1240;-25.4800;-13.6000;-11.8800
1307.3230;-25.4100;-13.5900;-11.8200
1307.5220;-25.3300;-13.6100;-11.7200
1307.7210;-25.2100;-13.6100;-11.6000
1307.9200;-25.1000;-13.6100;-11.4900
1308.1200;-24.9500;-13.6300;-11.3200
1308.3190;-24.8000;-13.6300;-11.1700
1308.5180;-24.6500;-13.6500;-11.0000
1308.7170;-24.4800;-13.6500;-10.8300
1308.9160;-24.3100;-13.6500;-10.6600
1309.1150;-24.1300;-13.6800;-10.4500
1309.3140;-23.9500;-13.6900;-10.2600
1309.5130;-23.7600;-13.7200;-10.0400
1309.7120;-23.5700;-13.7200;-9.8500
1309.9120;-23.4000;-13.7400;-9.6600
1310.1110;-23.2100;-13.7600;-9.4500
1310.3100;-23.0300;-13.7700;-9.2600
1310.5090;-22.8500;-13.8100;-9.0400
1310.7080;-22.6600;-13.8100;-8.8500
1310.9070;-22.4900;-13.8400;-8.6500
1311.1060;-22.3100;-13.8600;-8.4500
1311.3050;-22.1500;-13.8800;-8.2700
1311.5040;-21.9800;-13.9200;-8.0600
1311.7040;-21.8200;-13.9300;-7.8900
1311.9030;-21.6500;-13.9700;-7.6800
1312.1020;-21.5000;-13.9800;-7.5200
1312.3010;-21.3600;-14.0100;-7.3500
1312.5000;-21.2200;-14.0600;-7.1600
1312.6990;-21.0900;-14.0800;-7.0100
1312.8980;-20.9400;-14.1300;-6.8100
1313.0970;-20.8100;-14.1500;-6.6600
1313.2970;-20.6900;-14.1900;-6.5000
1313.4960;-20.5900;-14.2300;-6.3600
1313.6950;-20.4900;-14.2600;-6.2300
1313.8940;-20.3700;-14.3100;-6.0600
1314.0930;-20.2800;-14.3500;-5.9300
1314.2920;-20.1800;-14.3900;-5.7900
1314.4910;-20.1000;-14.4300;-5.6700
1314.6900;-20.0300;-14.4700;-5.5600
1314.8890;-19.9400;-14.5200;-5.4200
1315.0890;-19.8700;-14.5500;-5.3200
1315.2880;-19.7900;-14.6100;-5.1800
1315.4870;-19.7400;-14.6500;-5.0900
1315.6860;-19.6900;-14.7100;-4.9800
1315.8850;-19.6300;-14.7500;-4.8800
1316.0840;-19.5900;-14.8000;-4.7900
1316.2830;-19.5400;-14.8500;-4.6900
1316.4820;-19.5200;-14.9100;-4.6100
1316.6810;-19.4800;-14.9700;-4.5100
1316.8810;-19.4500;-15.0200;-4.4300
1317.0800;-19.4400;-15.0800;-4.3600
1317.2790;-19.4200;-15.1500;-4.2700
1317.4780;-19.4300;-15.2000;-4.2300
1317.6770;-19.4000;-15.2700;-4.1300
1317.8760;-19.4000;-15.3200;-4.0800
1318.0750;-19.4000;-15.3800;-4.0200
1318.2740;-19.4000;-15.4400;-3.9600
1318.4740;-19.4300;-15.5000;-3.9300
1318.6730;-19.4400;-15.5900;-3.8500
1318.8720;-19.4700;-15.6500;-3.8200
1319.0710;-19.4900;-15.7400;-3.7500
1319.2700;-19.5100;-15.7900;-3.7200
1319.4690;-19.5500;-15.8600;-3.6900
1319.6680;-19.5800;-15.9500;-3.6300
1319.8670;-19.6400;-16.0100;-3.6300
1320.0660;-19.6700;-16.1000;-3.5700
1320.2660;-19.7200;-16.1700;-3.5500
1320.4650;-19.7700;-16.2500;-3.5200
1320.6640;-19.8300;-16.3300;-3.5000
1320.8630;-19.8900;-16.4000;-3.4900
1321.0620;-19.9400;-16.4900;-3.4500
1321.2610;-20.0200;-16.5600;-3.4600
1321.4600;-20.0800;-16.6600;-3.4200
1321.6590;-20.1500;-16.7300;-3.4200
1321.8580;-20.2300;-16.8200;-3.4100
1322.0580;-20.3100;-16.9100;-3.4000
1322.2570;-20.4000;-16.9900;-3.4100
1322.4560;-20.4700;-17.0900;-3.3800
1322.6550;-20.5700;-17.1700;-3.4000
1322.8540;-20.6600;-17.2700;-3.3900
1323.0530;-20.7500;-17.3600;-3.3900
1323.2520;-20.8600;-17.4500;-3.4100
1323.4510;-20.9600;-17.5600;-3.4000
1323.6500;-21.0700;-17.6400;-3.4300
1323.8500;-21.1700;-17.7500;-3.4200
1324.0490;-21.2800;-17.8400;-3.4400
1324.2480;-21.3900;-17.9500;-3.4400
1324.4470;-21.5000;-18.0500;-3.4500
1324.6460;-21.6300;-18.1400;-3.4900
1324.8450;-21.7400;-18.2600;-3.4800
1325.0440;-21.8700;-18.3600;-3.5100
1325.2430;-21.9800;-18.5000;-3.4800
1325.4430;-22.1000;-18.5800;-3.5200
1325.6420;-22.2400;-18.7000;-3.5400
1325.8410;-22.3600;-18.8200;-3.5400
1326.0400;-22.5100;-18.9200;-3.5900
1326.2390;-22.6200;-19.0500;-3.5700
1326.4380;-22.7600;-19.1500;-3.6100
1326.6370;-22.8900;-19.2700;-3.6200
1326.8360;-23.0200;-19.3900;-3.6300
1327.0350;-23.1700;-19.5100;-3.6600
1327.2350;-23.3000;-19.6400;-3.6600
1327.4340;-23.4400;-19.7500;-3.6900
1327.6330;-23.5700;-19.8700;-3.7000
1327.8320;-23.7100;-19.9900;-3.7200
1328.0310;-23.8500;-20.1100;-3.7400
1328.2300;-23.9900;-20.2500;-3.7400
1328.4290;-24.1400;-20.3700;-3.7700
1328.6280;-24.2700;-20.5100;-3.7600
1328.8270;-24.4200;-20.6300;-3.7900
1329.0270;-24.5600;-20.7600;-3.8000
1329.2260;-24.7000;-20.9000;-3.8000
1329.4250;-24.8400;-21.0200;-3.8200
1329.6240;-24.9700;-21.1700;-3.8000
1329.8230;-25.1200;-21.2900;-3.8300
1330.0220;-25.2600;-21.4300;-3.8300
1330.2210;-25.3900;-21.5600;-3.8300
1330.4200;-25.5200;-21.6900;-3.8300
1330.6200;-25.6600;-21.8400;-3.8200
1330.8190;-25.8100;-21.9700;-3.8400
1331.0180;-25.9500;-22.1100;-3.8400
1331.2170;-26.1000;-22.2600;-3.8400
1331.4160;-26.2200;-22.3900;-3.8300
1331.6150;-26.3600;-22.5500;-3.8100
1331.8140;-26.5000;-22.6800;-3.8200
1332.0130;-26.6300;-22.8400;-3.7900
1332.2120;-26.7800;-22.9700;-3.8100
1332.4120;-26.9100;-23.1200;-3.7900
1332.6110;-27.0700;-23.2800;-3.7900
1332.8100;-27.1900;-23.4200;-3.7700
1333.0090;-27.3300;-23.5800;-3.7500
1333.2080;-27.4600;-23.7200;-3.7400
1333.4070;-27.5900;-23.8800;-3.7100
1333.6060;-27.7400;-24.0200;-3.7200
1333.8050;-27.8700;-24.1800;-3.6900
1334.0040;-28.0100;-24.3300;-3.6800
1334.2040;-28.1400;-24.4800;-3.6600
1334.4030;-28.2700;-24.6500;-3.6200
1334.6020;-28.4100;-24.7900;-3.6200
1334.8010;-28.5800;-24.9500;-3.6300
1335.0000;-28.6900;-25.1100;-3.5800
1335.1990;-28.8200;-25.2600;-3.5600
1335.3980;-28.9700;-25.4300;-3.5400
1335.5970;-29.1000;-25.5700;-3.5300
1335.7970;-29.2500;-25.7400;-3.5100
1335.9960;-29.3800;-25.9000;-3.4800
1336.1950;-29.5200;-26.0600;-3.4600
1336.3940;-29.6700;-26.2200;-3.4500
1336.5930;-29.8000;-26.3700;-3.4300
1336.7920;-29.9500;-26.5400;-3.4100
1336.9910;-30.0800;-26.6900;-3.3900
1337.1900;-30.2300;-26.8600;-3.3700
1337.3890;-30.3800;-27.0200;-3.3600
1337.5890;-30.5200;-27.1800;-3.3400
1337.7880;-30.6800;-27.3500;-3.3300
1337.9870;-30.8300;-27.5100;-3.3200
1338.1860;-30.9900;-27.6800;-3.3100
1338.3850;-31.1300;-27.8300;-3.3000
1338.5840;-31.2800;-28.0000;-3.2800
1338.7830;-31.4400;-28.1600;-3.2800
1338.9820;-31.6000;-28.3200;-3.2800
1339.1810;-31.7700;-28.5300;-3.2400
1339.3810;-31.9200;-28.6700;-3.2500
1339.5800;-32.0900;-28.8400;-3.2500
1339.7790;-32.2500;-29.0000;-3.2500
1339.9780;-32.4200;-29.1800;-3.2400
1340.1770;-32.6000;-29.3500;-3.2500
1340.3760;-32.7700;-29.5200;-3.2500
1340.5750;-32.9600;-29.7100;-3.2500
1340.7740;-33.1200;-29.8700;-3.2500
1340.9740;-33.2900;-30.0400;-3.2500
1341.1730;-33.4800;-30.2000;-3.2800
1341.3720;-33.6500;-30.3700;-3.2800
1341.5710;-33.8500;-30.5400;-3.3100
1341.7700;-34.0300;-30.7100;-3.3200
1341.9690;-34.2100;-30.8900;-3.3200
1342.1680;-34.4000;-31.0500;-3.3500
1342.3670;-34.5800;-31.2300;-3.3500
1342.5660;-34.7900;-31.3900;-3.4000
1342.7660;-34.9800;-31.5600;-3.4200
1342.9650;-35.1800;-31.7400;-3.4400
1343.1640;-35.3800;-31.9100;-3.4700
1343.3630;-35.5800;-32.0900;-3.4900
1343.5620;-35.7900;-32.2500;-3.5400
1343.7610;-35.9900;-32.4200;-3.5700
1343.9600;-36.2200;-32.6000;-3.6200
1344.1590;-36.4200;-32.7800;-3.6400
1344.3580;-36.6300;-32.9600;-3.6700
1344.5580;-36.8600;-33.1300;-3.7300
1344.7570;-37.0700;-33.3000;-3.7700
1344.9560;-37.2900;-33.4700;-3.8200
1345.1550;-37.5000;-33.6300;-3.8700
1345.3540;-37.7100;-33.8000;-3.9100
1345.5530;-37.9300;-33.9600;-3.9700
1345.7520;-38.1400;-34.1400;-4.0000
1345.9510;-38.3800;-34.3000;-4.0800
1346.1500;-38.6500;-34.4600;-4.1900
1346.3500;-38.8500;-34.6500;-4.2000
1346.5490;-39.0800;-34.8200;-4.2600
1346.7480;-39.3200;-35.0000;-4.3200
1346.9470;-39.5400;-35.1500;-4.3900
1347.1460;-39.7700;-35.3100;-4.4600
1347.3450;-39.9900;-35.4700;-4.5200
1347.5440;-40.2700;-35.6700;-4.6000
1347.7430;-40.5600;-35.9000;-4.6600
1347.9430;-40.8200;-36.0800;-4.7400
1348.1420;-41.0600;-36.2400;-4.8200
1348.3410;-41.3000;-36.4200;-4.8800
1348.5400;-41.5100;-36.5500;-4.9600
1348.7390;-41.7400;-36.7100;-5.0300
1348.9380;-41.9600;-36.8400;-5.1200
1349.1370;-42.1900;-37.0000;-5.1900
1349.3360;-42.4000;-37.1300;-5.2700
1349.5350;-42.6200;-37.2700;-5.3500
1349.7350;-42.8500;-37.4200;-5.4300
1349.9340;-43.0800;-37.5800;-5.5000
1350.1330;-43.3500;-37.7700;-5.5800
1350.3320;-43.6300;-37.9900;-5.6400
1350.5310;-43.9000;-38.1800;-5.7200
1350.7300;-44.1400;-38.3400;-5.8000
1350.9290;-44.3400;-38.4800;-5.8600
1351.1280;-44.5200;-38.5800;-5.9400
1351.3270;-44.7200;-38.7100;-6.0100
1351.5270;-44.9600;-38.8800;-6.0800
1351.7260;-45.2300;-39.0900;-6.1400
1351.9250;-45.4600;-39.2700;-6.1900
1352.1240;-45.6800;-39.4100;-6.2700
1352.3230;-45.8900;-39.5700;-6.3200
1352.5220;-46.1300;-39.7600;-6.3700
1352.7210;-46.3000;-39.8800;-6.4200
1352.9200;-46.4900;-40.0400;-6.4500
1353.1200;-46.7700;-40.2600;-6.5100
1353.3190;-46.8900;-40.3500;-6.5400
1353.5180;-47.0700;-40.5000;-6.5700
1353.7170;-47.2500;-40.6500;-6.6000
1353.9160;-47.3600;-40.7400;-6.6200
1354.1150;-47.4900;-40.8700;-6.6200
1354.3140;-47.7100;-41.0800;-6.6300
1354.5130;-47.8800;-41.2400;-6.6400
1354.7120;-48.1600;-41.5400;-6.6200
1354.9120;-48.5100;-41.8000;-6.7100
1355.1110;-48.5600;-41.9500;-6.6100
1355.3100;-48.6600;-42.0600;-6.6000
1355.5090;-48.6000;-42.0300;-6.5700
1355.7080;-48.8100;-42.2800;-6.5300
1355.9070;-49.0200;-42.5200;-6.5000
1356.1060;-49.1100;-42.6600;-6.4500
1356.3050;-49.1300;-42.7200;-6.4100
1356.5040;-49.1600;-42.7900;-6.3700
1356.7040;-49.0100;-42.7000;-6.3100
1356.9030;-49.0600;-42.8200;-6.2400
1357.1020;-49.3500;-43.1700;-6.1800
1357.3010;-49.4800;-43.3700;-6.1100
1357.5000;-49.5500;-43.5200;-6.0300
1357.6990;-49.6400;-43.6800;-5.9600
1357.8980;-49.5900;-43.7000;-5.8900
1358.0970;-49.5400;-43.7400;-5.8000
1358.2970;-49.6100;-43.8900;-5.7200
1358.4960;-49.7300;-44.0900;-5.6400
1358.6950;-49.7500;-44.2100;-5.5400
1358.8940;-49.7800;-44.3300;-5.4500
1359.0930;-49.8300;-44.4600;-5.3700
1359.2920;-49.7500;-44.4700;-5.2800
1359.4910;-50.0100;-44.8200;-5.1900
1359.6900;-50.1900;-45.0900;-5.1000
1359.8890;-50.2500;-45.2600;-4.9900
1360.0890;-50.2100;-45.2900;-4.9200
1360.2880;-50.1100;-45.2800;-4.8300
1360.4870;-49.9900;-45.2600;-4.7300
1360.6860;-50.0200;-45.3900;-4.6300
1360.8850;-50.2600;-45.7100;-4.5500
1361.0840;-50.4400;-45.9800;-4.4600
1361.2830;-50.4800;-46.1200;-4.3600
1361.4820;-50.5500;-46.2600;-4.2900
1361.6810;-50.6600;-46.4400;-4.2200
1361.8810;-50.6800;-46.5600;-4.1200
1362.0800;-50.7900;-46.7500;-4.0400
1362.2790;-51.1300;-47.1500;-3.9800
1362.4780;-51.2600;-47.3600;-3.9000
1362.6770;-51.2800;-47.4700;-3.8100
1362.8760;-51.0700;-47.3400;-3.7300
1363.0750;-50.9100;-47.2400;-3.6700
1363.2740;-50.5800;-46.9900;-3.5900
1363.4740;-50.5800;-47.0400;-3.5400
1363.6730;-50.5800;-47.1100;-3.4700
1363.8720;-50.6500;-47.2400;-3.4100
1364.0710;-50.7800;-47.4300;-3.3500
1364.2700;-50.9100;-47.6100;-3.3000
1364.4690;-51.1400;-47.9000;-3.2400
1364.6680;-51.5800;-48.3900;-3.1900
1364.8670;-51.7400;-48.6100;-3.1300
1365.0660;-51.6400;-48.5600;-3.0800
1365.2660;-51.7700;-48.6900;-3.0800
1365.4650;-51.6400;-48.6100;-3.0300
1365.6640;-51.6600;-48.6700;-2.9900
1365.8630;-51.6500;-48.6900;-2.9600
1366.0620;-51.6000;-48.6700;-2.9300
1366.2610;-51.5500;-48.6400;-2.9100
1366.4600;-51.5700;-48.6900;-2.8800
1366.6590;-51.7000;-48.8400;-2.8600
1366.8580;-51.9000;-49.0600;-2.8400
1367.0580;-52.0000;-49.1800;-2.8200
1367.2570;-52.0800;-49.2700;-2.8100
1367.4560;-52.3100;-49.5200;-2.7900
1367.6550;-52.4800;-49.6800;-2.8000
1367.8540;-52.7300;-49.9300;-2.8000
1368.0530;-52.8400;-50.0400;-2.8000
1368.2520;-52.7900;-49.9900;-2.8000
1368.4510;-53.1200;-50.3200;-2.8000
1368.6500;-53.1900;-50.3800;-2.8100
1368.8500;-53.2700;-50.4700;-2.8000
1369.0490;-53.2700;-50.4200;-2.8500
1369.2480;-53.2200;-50.3600;-2.8600
1369.4470;-53.1500;-50.2800;-2.8700
1369.6460;-53.2500;-50.3600;-2.8900
1369.8450;-53.5800;-50.6900;-2.8900
1370.0440;-53.7900;-50.8500;-2.9400
1370.2430;-53.9200;-50.9600;-2.9600
1370.4430;-54.0000;-50.9800;-3.0200
1370.6420;-54.0100;-50.9700;-3.0400
1370.8410;-54.3600;-51.2900;-3.0700
1371.0400;-54.6300;-51.5300;-3.1000
1371.2390;-54.8400;-51.7000;-3.1400
1371.4380;-54.9000;-51.6700;-3.2300
1371.6370;-54.8700;-51.6200;-3.2500
1371.8360;-54.8900;-51.5700;-3.3200
1372.0350;-55.0900;-51.7400;-3.3500
1372.2350;-55.3400;-51.9400;-3.4000
1372.4340;-55.4700;-52.0000;-3.4700
1372.6330;-55.5900;-52.0600;-3.5300
1372.8320;-55.6700;-52.0600;-3.6100
1373.0310;-55.7400;-52.0700;-3.6700
1373.2300;-55.9200;-52.1800;-3.7400
1373.4290;-56.1100;-52.3100;-3.8000
1373.6280;-56.2800;-52.3900;-3.8900
1373.8270;-56.4100;-52.4500;-3.9600
1374.0270;-56.5800;-52.5400;-4.0400
1374.2260;-56.7400;-52.6100;-4.1300
1374.4250;-56.9400;-52.7300;-4.2100
1374.6240;-57.1400;-52.8400;-4.3000
1374.8230;-57.3900;-53.0000;-4.3900
1375.0220;-57.6200;-53.1600;-4.4600
1375.2210;-57.7800;-53.2100;-4.5700
1375.4200;-57.9300;-53.2500;-4.6800
1375.6200;-58.0800;-53.3000;-4.7800
1375.8190;-58.2500;-53.3900;-4.8600
1376.0180;-58.5600;-53.5200;-5.0400
1376.2170;-58.7100;-53.6200;-5.0900
1376.4160;-58.9200;-53.7100;-5.2100
1376.6150;-59.0800;-53.7700;-5.3100
1376.8140;-59.3400;-53.9100;-5.4300
1377.0130;-59.6700;-54.1300;-5.5400
1377.2120;-59.9300;-54.2700;-5.6600
1377.4120;-60.0800;-54.3300;-5.7500
1377.6110;-60.2400;-54.3600;-5.8800
1377.8100;-60.3000;-54.3000;-6.0000
1378.0090;-60.4300;-54.3400;-6.0900
1378.2080;-60.6500;-54.4200;-6.2300
1378.4070;-60.9300;-54.5700;-6.3600
1378.6060;-61.2500;-54.8000;-6.4500
1378.8050;-61.6100;-55.0800;-6.5300
1379.0040;-61.8600;-55.1800;-6.6800
1379.2040;-62.0200;-55.2200;-6.8000
1379.4030;-62.0600;-55.1600;-6.9000
1379.6020;-62.1000;-55.1100;-6.9900
1379.8010;-62.2100;-55.1400;-7.0700
1380.0000;-62.3800;-55.2600;-7.1200
1380.1990;-62.6500;-55.4100;-7.2400
1380.3980;-62.8900;-55.5900;-7.3000
1380.5970;-63.5200;-56.1300;-7.3900
1380.7970;-64.0300;-56.5600;-7.4700
1380.9960;-64.1900;-56.7000;-7.4900
1381.1950;-64.2800;-56.6700;-7.6100
1381.3940;-63.9800;-56.3700;-7.6100
1381.5930;-63.7300;-56.1000;-7.6300
1381.7920;-63.8100;-56.1200;-7.6900
1381.9910;-63.8200;-56.1400;-7.6800
1382.1900;-63.9300;-56.2400;-7.6900
1382.3890;-64.2200;-56.5300;-7.6900
1382.5890;-64.7400;-57.0600;-7.6800
1382.7880;-65.1500;-57.5100;-7.6400
1382.9870;-65.2800;-57.7200;-7.5600
1383.1860;-65.0500;-57.4500;-7.6000
1383.3850;-64.7300;-57.1600;-7.5700
1383.5840;-64.4600;-56.9600;-7.5000
1383.7830;-64.4700;-57.0600;-7.4100
1383.9820;-64.5100;-57.1800;-7.3300
1384.1810;-64.4500;-57.2000;-7.2500
1384.3810;-64.3800;-57.1900;-7.1900
1384.5800;-64.2100;-57.1400;-7.0700
1384.7790;-64.2200;-57.2100;-7.0100
1384.9780;-64.3700;-57.5000;-6.8700
1385.1770;-64.4600;-57.6900;-6.7700
1385.3760;-64.4800;-57.7900;-6.6900
1385.5750;-64.3100;-57.7100;-6.6000
1385.7740;-64.1900;-57.7400;-6.4500
1385.9740;-64.1000;-57.7100;-6.3900
1386.1730;-64.0100;-57.7300;-6.2800
1386.3720;-64.0300;-57.8700;-6.1600
1386.5710;-63.9000;-57.8800;-6.0200
1386.7700;-63.7900;-57.8900;-5.9000
1386.9690;-63.7700;-57.9200;-5.8500
1387.1680;-63.6500;-57.9300;-5.7200
1387.3670;-63.5900;-57.9700;-5.6200
1387.5660;-63.5500;-58.0300;-5.5200
1387.7660;-63.7200;-58.3200;-5.4000
1387.9650;-63.8900;-58.6100;-5.2800
1388.1640;-64.0200;-58.8200;-5.2000
1388.3630;-64.0100;-58.9300;-5.0800
1388.5620;-63.8100;-58.8600;-4.9500
1388.7610;-63.6300;-58.7100;-4.9200
1388.9600;-63.4500;-58.6600;-4.7900
1389.1590;-63.3400;-58.6000;-4.7400
1389.3580;-63.2400;-58.6300;-4.6100
1389.5580;-63.2200;-58.6900;-4.5300
1389.7570;-63.2100;-58.7700;-4.4400
1389.9560;-63.2500;-58.9200;-4.3300
1390.1550;-63.2700;-58.9700;-4.3000
1390.3540;-63.2000;-59.0100;-4.1900
1390.5530;-63.1800;-59.0400;-4.1400
1390.7520;-63.0900;-59.0500;-4.0400
1390.9510;-63.1200;-59.1100;-4.0100
1391.1500;-63.1000;-59.1700;-3.9300
1391.3500;-63.0700;-59.2200;-3.8500
1391.5490;-63.1000;-59.3000;-3.8000
1391.7480;-63.1000;-59.3600;-3.7400
1391.9470;-63.1200;-59.4400;-3.6800
1392.1460;-63.2100;-59.6100;-3.6000
1392.3450;-63.4200;-59.8200;-3.6000
1392.5440;-63.7700;-60.2300;-3.5400
1392.7430;-63.8600;-60.3800;-3.4800
1392.9430;-63.7100;-60.3000;-3.4100
1393.1420;-63.5600;-60.1400;-3.4200
1393.3410;-63.2900;-59.9200;-3.3700
1393.5400;-63.2400;-59.8900;-3.3500
1393.7390;-63.2700;-59.9500;-3.3200
1393.9380;-63.3000;-59.9800;-3.3200
1394.1370;-63.3300;-60.0800;-3.2500
1394.3360;-63.3900;-60.1300;-3.2600
1394.5350;-63.4500;-60.2100;-3.2400
1394.7350;-63.5300;-60.3200;-3.2100
1394.9340;-63.8200;-60.5900;-3.2300
1395.1330;-64.0100;-60.8200;-3.1900
1395.3320;-64.1000;-60.9100;-3.1900
1395.5310;-64.2400;-61.0300;-3.2100
1395.7300;-64.2300;-61.0200;-3.2100
1395.9290;-64.1400;-60.9400;-3.2000
1396.1280;-64.1700;-60.9300;-3.2400
1396.3270;-64.3800;-61.0800;-3.3000
1396.5270;-64.5900;-61.3300;-3.2600
1396.7260;-64.7600;-61.4800;-3.2800
1396.9250;-64.7600;-61.4200;-3.3400
1397.1240;-64.6100;-61.2700;-3.3400
1397.3230;-64.5600;-61.1900;-3.3700
1397.5220;-64.5700;-61.1500;-3.4200
1397.7210;-64.6200;-61.1700;-3.4500
1397.9200;-64.6900;-61.2200;-3.4700
1398.1200;-64.7900;-61.2600;-3.5300
1398.3190;-64.9000;-61.3300;-3.5700
1398.5180;-65.0500;-61.4100;-3.6400
1398.7170;-65.1300;-61.4700;-3.6600
1398.9160;-65.2700;-61.5200;-3.7500
1399.1150;-65.3600;-61.5800;-3.7800
1399.3140;-65.4900;-61.6800;-3.8100
1399.5130;-65.9400;-61.9700;-3.9700
1399.7120;-66.1100;-62.0800;-4.0300
1399.9120;-66.3300;-62.1600;-4.1700
1400.1110;-66.5400;-62.3100;-4.2300
1400.3100;-66.5300;-62.2800;-4.2500
1400.5090;-66.6900;-62.3300;-4.3600
1400.7080;-67.2000;-62.7300;-4.4700
1400.9070;-67.3600;-62.8000;-4.5600
1401.1060;-67.3700;-62.7600;-4.6100
1401.3050;-67.4900;-62.7600;-4.7300
1401.5040;-67.5200;-62.6400;-4.8800
1401.7040;-67.7600;-62.6600;-5.1000
1401.9030;-67.8700;-62.7100;-5.1600
1402.1020;-68.0700;-62.6800;-5.3900
1402.3010;-68.0500;-62.6500;-5.4000
1402.5000;-68.2200;-62.6600;-5.5600
1402.6990;-68.3100;-62.6900;-5.6200
1402.8980;-68.5500;-62.8200;-5.7300
1403.0970;-68.8400;-62.9200;-5.9200
1403.2970;-69.1300;-62.9800;-6.1500
1403.4960;-69.4200;-63.0300;-6.3900
1403.6950;-69.5000;-63.0800;-6.4200
1403.8940;-69.8200;-63.1800;-6.6400
1404.0930;-70.1300;-63.3000;-6.8300
1404.2920;-70.2100;-63.4300;-6.7800
1404.4910;-70.5100;-63.5100;-7.0000
1404.6900;-70.9000;-63.6100;-7.2900
1404.8890;-71.2700;-64.0700;-7.2000
1405.0890;-72.0000;-64.2300;-7.7700
1405.2880;-72.0100;-64.2500;-7.7600
1405.4870;-71.9800;-64.2300;-7.7500
1405.6860;-71.9400;-63.9400;-8.0000
1405.8850;-71.8500;-63.8800;-7.9700
1406.0840;-72.3100;-63.9400;-8.3700
1406.2830;-72.5000;-63.9700;-8.5300
1406.4820;-72.8000;-64.0200;-8.7800
1406.6810;-73.0600;-64.1900;-8.8700
1406.8810;-73.8900;-64.3500;-9.5400
1407.0800;-73.6700;-64.4900;-9.1800
1407.2790;-74.5500;-64.7300;-9.8200
1407.4780;-74.7000;-64.7900;-9.9100
1407.6770;-74.3000;-64.7800;-9.5200
1407.8760;-74.5000;-64.8000;-9.7000
1408.0750;-74.8100;-64.7600;-10.0500
1408.2740;-75.0900;-64.6700;-10.4200
1408.4740;-75.4800;-64.7400;-10.7400
1408.6730;-75.3600;-64.7900;-10.5700
1408.8720;-75.4000;-64.9000;-10.5000
1409.0710;-75.6200;-65.0400;-10.5800
1409.2700;-76.0400;-65.2600;-10.7800
1409.4690;-76.2300;-65.5900;-10.6400
1409.6680;-77.0700;-65.6500;-11.4200
1409.8670;-76.6100;-65.7100;-10.9000
1410.0660;-76.8400;-65.6000;-11.2400
1410.2660;-76.4400;-65.4500;-10.9900
1410.4650;-76.5100;-65.5300;-10.9800
1410.6640;-76.3400;-65.5700;-10.7700
1410.8630;-76.3700;-65.6500;-10.7200
1411.0620;-76.2400;-65.6400;-10.6000
1411.2610;-76.7000;-65.7700;-10.9300
1411.4600;-76.1500;-65.9300;-10.2200
1411.6590;-76.3900;-65.9500;-10.4400
1411.8580;-77.1500;-66.0700;-11.0800
1412.0580;-76.3900;-66.1100;-10.2800
1412.2570;-76.7900;-66.2200;-10.5700
1412.4560;-76.5100;-66.3500;-10.1600
1412.6550;-76.0000;-66.3800;-9.6200
1412.8540;-76.9200;-66.4500;-10.4700
1413.0530;-76.1000;-66.4900;-9.6100
1413.2520;-75.8600;-66.5200;-9.3400
1413.4510;-75.6200;-66.6400;-8.9800
1413.6500;-75.4100;-66.7600;-8.6500
1413.8500;-75.4800;-66.8200;-8.6600
1414.0490;-75.7600;-67.0900;-8.6700
1414.2480;-76.0100;-67.2000;-8.8100
1414.4470;-75.6700;-67.2300;-8.4400
1414.6460;-75.7400;-67.3600;-8.3800
1414.8450;-75.5900;-67.5100;-8.0800
1415.0440;-75.5800;-67.4100;-8.1700
1415.2430;-75.7700;-67.4900;-8.2800
1415.4430;-75.0100;-67.5300;-7.4800
1415.6420;-74.9400;-67.5200;-7.4200
1415.8410;-75.0700;-67.6500;-7.4200
1416.0400;-74.6300;-67.6900;-6.9400
1416.2390;-75.0400;-67.7300;-7.3100
1416.4380;-74.7900;-67.8100;-6.9800
1416.6370;-75.3400;-67.8200;-7.5200
1416.8360;-75.3400;-68.0000;-7.3400
1417.0350;-75.0400;-68.0200;-7.0200
1417.2350;-75.2300;-68.1700;-7.0600
1417.4340;-74.8500;-68.2800;-6.5700
1417.6330;-75.4100;-68.4700;-6.9400
1417.8320;-75.0400;-68.5400;-6.5000
1418.0310;-75.0000;-68.6700;-6.3300
1418.2300;-74.4500;-68.6700;-5.7800
1418.4290;-74.6700;-68.6000;-6.0700
1418.6280;-74.9300;-68.7000;-6.2300
1418.8270;-75.2000;-68.7800;-6.4200
1419.0270;-75.3800;-69.0600;-6.3200
1419.2260;-74.9400;-69.1200;-5.8200
1419.4250;-75.0000;-69.2900;-5.7100
1419.6240;-75.2000;-69.2900;-5.9100
1419.8230;-75.1000;-69.4200;-5.6800
1420.0220;-75.0400;-69.4600;-5.5800
1420.2210;-74.8700;-69.4500;-5.4200
1420.4200;-75.0200;-69.4600;-5.5600
1420.6200;-75.1300;-69.4900;-5.6400
1420.8190;-75.1500;-69.8400;-5.3100
1421.0180;-75.2300;-69.7700;-5.4600
1421.2170;-75.5900;-69.9900;-5.6000
1421.4160;-75.3600;-69.9100;-5.4500
1421.6150;-75.4500;-70.1300;-5.3200
1421.8140;-74.9700;-70.1100;-4.8600
1422.0130;-75.4500;-70.0200;-5.4300
1422.2120;-75.7700;-70.2400;-5.5300
1422.4120;-75.3500;-70.1800;-5.1700
1422.6110;-76.0600;-70.4900;-5.5700
1422.8100;-75.8200;-70.6000;-5.2200
1423.0090;-76.2000;-70.5900;-5.6100
1423.2080;-76.2600;-70.4200;-5.8400
1423.4070;-75.9600;-70.6400;-5.3200
1423.6060;-76.1400;-70.7900;-5.3500
1423.8050;-76.0500;-70.8600;-5.1900
1424.0040;-76.5300;-70.7900;-5.7400
1424.2040;-76.6000;-71.0800;-5.5200
1424.4030;-76.7000;-71.1400;-5.5600
1424.6020;-76.3000;-71.1100;-5.1900
1424.8010;-76.5100;-71.0700;-5.4400
1425.0000;-76.1400;-71.2100;-4.9300
