Wavelength (nm);Intensity (dBm)
1131.0;1131.0
1200.0;-58.94
1200.199;-58.87
1200.398;-58.85
1200.597;-58.9
1200.797;-58.88
1200.996;-58.84
1201.195;-58.82
1201.394;-58.81
1201.593;-58.8
1201.792;-58.77
1201.991;-58.73
1202.19;-58.69
1202.389;-58.64
1202.589;-58.64
1202.788;-58.6
1202.987;-58.51
1203.186;-58.48
1203.385;-58.47
1203.584;-58.44
1203.783;-58.34
1203.982;-58.31
1204.181;-58.31
1204.381;-58.25
1204.58;-58.2
1204.779;-58.15
1204.978;-58.15
1205.177;-58.14
1205.376;-58.07
1205.575;-58.05
1205.774;-58.05
1205.974;-58.04
1206.173;-58.01
1206.372;-57.97
1206.571;-58.01
1206.77;-57.99
1206.969;-57.95
1207.168;-57.95
1207.367;-57.91
1207.566;-57.92
1207.766;-57.9
1207.965;-57.87
1208.164;-57.84
1208.363;-57.82
1208.562;-57.81
1208.761;-57.74
1208.96;-57.68
1209.159;-57.69
1209.358;-57.64
1209.558;-57.56
1209.757;-57.54
1209.956;-57.51
1210.155;-57.45
1210.354;-57.36
1210.553;-57.34
1210.752;-57.3
1210.951;-57.23
1211.15;-57.19
1211.35;-57.12
1211.549;-57.08
1211.748;-57.04
1211.947;-57.0
1212.146;-56.93
1212.345;-56.87
1212.544;-56.86
1212.743;-56.8
1212.943;-56.73
1213.142;-56.71
1213.341;-56.67
1213.54;-56.61
1213.739;-56.55
1213.938;-56.51
1214.137;-56.48
1214.336;-56.4
1214.535;-56.34
1214.735;-56.31
1214.934;-56.24
1215.133;-56.2
1215.332;-56.11
1215.531;-56.05
1215.73;-55.99
1215.929;-55.93
1216.128;-55.81
1216.327;-55.73
1216.527;-55.7
1216.726;-55.62
1216.925;-55.52
1217.124;-55.44
1217.323;-55.36
1217.522;-55.3
1217.721;-55.19
1217.92;-55.12
1218.12;-55.05
1218.319;-54.97
1218.518;-54.91
1218.717;-54.82
1218.916;-54.75
1219.115;-54.69
1219.314;-54.61
1219.513;-54.56
1219.712;-54.5
1219.912;-54.45
1220.111;-54.38
1220.31;-54.31
1220.509;-54.29
1220.708;-54.23
1220.907;-54.16
1221.106;-54.1
1221.305;-54.05
1221.504;-54.0
1221.704;-53.92
1221.903;-53.86
1222.102;-53.81
1222.301;-53.74
1222.5;-53.67
1222.699;-53.59
1222.898;-53.52
1223.097;-53.46
1223.297;-53.37
1223.496;-53.29
1223.695;-53.22
1223.894;-53.15
1224.093;-53.07
1224.292;-52.99
1224.491;-52.92
1224.69;-52.85
1224.889;-52.77
1225.089;-52.72
1225.288;-52.65
1225.487;-52.59
1225.686;-52.53
1225.885;-52.48
1226.084;-52.45
1226.283;-52.4
1226.482;-52.35
1226.681;-52.31
1226.881;-52.28
1227.08;-52.25
1227.279;-52.21
1227.478;-52.17
1227.677;-52.13
1227.876;-52.1
1228.075;-52.06
1228.274;-52.01
1228.474;-51.97
1228.673;-51.93
1228.872;-51.88
1229.071;-51.83
1229.27;-51.77
1229.469;-51.7
1229.668;-51.64
1229.867;-51.56
1230.066;-51.51
1230.266;-51.42
1230.465;-51.34
1230.664;-51.27
1230.863;-51.21
1231.062;-51.14
1231.261;-51.07
1231.46;-51.01
1231.659;-50.94
1231.858;-50.86
1232.058;-50.81
1232.257;-50.73
1232.456;-50.68
1232.655;-50.61
1232.854;-50.53
1233.053;-50.48
1233.252;-50.4
1233.451;-50.32
1233.65;-50.24
1233.85;-50.16
1234.049;-50.09
1234.248;-49.98
1234.447;-49.9
1234.646;-49.8
1234.845;-49.69
1235.044;-49.59
1235.243;-49.48
1235.443;-49.37
1235.642;-49.25
1235.841;-49.13
1236.04;-49.03
1236.239;-48.9
1236.438;-48.79
1236.637;-48.67
1236.836;-48.56
1237.035;-48.46
1237.235;-48.34
1237.434;-48.24
1237.633;-48.14
1237.832;-48.04
1238.031;-47.94
1238.23;-47.85
1238.429;-47.76
1238.628;-47.66
1238.827;-47.56
1239.027;-47.48
1239.226;-47.38
1239.425;-47.29
1239.624;-47.19
1239.823;-47.1
1240.022;-47.01
1240.221;-46.9
1240.42;-46.81
1240.62;-46.71
1240.819;-46.61
1241.018;-46.5
1241.217;-46.4
1241.416;-46.31
1241.615;-46.19
1241.814;-46.1
1242.013;-46.0
1242.212;-45.9
1242.412;-45.83
1242.611;-45.73
1242.81;-45.66
1243.009;-45.57
1243.208;-45.5
1243.407;-45.43
1243.606;-45.35
1243.805;-45.3
1244.004;-45.23
1244.204;-45.18
1244.403;-45.13
1244.602;-45.07
1244.801;-45.04
1245.0;-44.99
1245.199;-44.95
1245.398;-44.92
1245.597;-44.87
1245.797;-44.85
1245.996;-44.8
1246.195;-44.78
1246.394;-44.75
1246.593;-44.71
1246.792;-44.7
1246.991;-44.66
1247.19;-44.64
1247.389;-44.61
1247.589;-44.57
1247.788;-44.57
1247.987;-44.52
1248.186;-44.51
1248.385;-44.48
1248.584;-44.45
1248.783;-44.44
1248.982;-44.41
1249.181;-44.39
1249.381;-44.36
1249.58;-44.33
1249.779;-44.32
1249.978;-44.27
1250.177;-44.24
1250.376;-44.21
1250.575;-44.16
1250.774;-44.13
1250.974;-44.09
1251.173;-44.05
1251.372;-43.99
1251.571;-43.93
1251.77;-43.87
1251.969;-43.79
1252.168;-43.71
1252.367;-43.61
1252.566;-43.51
1252.766;-43.41
1252.965;-43.28
1253.164;-43.16
1253.363;-43.0
1253.562;-42.85
1253.761;-42.69
1253.96;-42.52
1254.159;-42.34
1254.358;-42.14
1254.558;-41.95
1254.757;-41.74
1254.956;-41.52
1255.155;-41.33
1255.354;-41.09
1255.553;-40.87
1255.752;-40.64
1255.951;-40.4
1256.15;-40.18
1256.35;-39.93
1256.549;-39.7
1256.748;-39.45
1256.947;-39.2
1257.146;-38.97
1257.345;-38.71
1257.544;-38.48
1257.743;-38.23
1257.943;-37.98
1258.142;-37.75
1258.341;-37.5
1258.54;-37.28
1258.739;-37.03
1258.938;-36.79
1259.137;-36.58
1259.336;-36.34
1259.535;-36.13
1259.735;-35.86
1259.934;-35.69
1260.133;-35.48
1260.332;-35.27
1260.531;-35.08
1260.73;-34.87
1260.929;-34.68
1261.128;-34.48
1261.327;-34.29
1261.527;-34.12
1261.726;-33.93
1261.925;-33.76
1262.124;-33.58
1262.323;-33.41
1262.522;-33.25
1262.721;-33.08
1262.92;-32.93
1263.12;-32.76
1263.319;-32.6
1263.518;-32.46
1263.717;-32.31
1263.916;-32.18
1264.115;-32.02
1264.314;-31.89
1264.513;-31.76
1264.712;-31.62
1264.912;-31.51
1265.111;-31.37
1265.31;-31.26
1265.509;-31.15
1265.708;-31.04
1265.907;-30.95
1266.106;-30.84
1266.305;-30.76
1266.504;-30.67
1266.704;-30.59
1266.903;-30.52
1267.102;-30.44
1267.301;-30.38
1267.5;-30.33
1267.699;-30.27
1267.898;-30.23
1268.097;-30.18
1268.297;-30.14
1268.496;-30.11
1268.695;-30.07
1268.894;-30.06
1269.093;-30.02
1269.292;-30.0
1269.491;-29.99
1269.69;-29.98
1269.889;-29.98
1270.089;-29.96
1270.288;-29.97
1270.487;-29.98
1270.686;-29.99
1270.885;-30.02
1271.084;-30.04
1271.283;-30.08
1271.482;-30.1
1271.681;-30.14
1271.881;-30.2
1272.08;-30.24
1272.279;-30.32
1272.478;-30.38
1272.677;-30.46
1272.876;-30.54
1273.075;-30.63
1273.274;-30.74
1273.474;-30.84
1273.673;-30.96
1273.872;-31.09
1274.071;-31.21
1274.27;-31.36
1274.469;-31.49
1274.668;-31.65
1274.867;-31.8
1275.066;-31.95
1275.266;-32.13
1275.465;-32.29
1275.664;-32.47
1275.863;-32.63
1276.062;-32.81
1276.261;-33.0
1276.46;-33.17
1276.659;-33.35
1276.858;-33.51
1277.058;-33.68
1277.257;-33.85
1277.456;-34.0
1277.655;-34.15
1277.854;-34.27
1278.053;-34.37
1278.252;-34.45
1278.451;-34.49
1278.65;-34.52
1278.85;-34.49
1279.049;-34.44
1279.248;-34.33
1279.447;-34.2
1279.646;-34.04
1279.845;-33.81
1280.044;-33.58
1280.243;-33.31
1280.443;-33.02
1280.642;-32.71
1280.841;-32.38
1281.04;-32.04
1281.239;-31.68
1281.438;-31.32
1281.637;-30.96
1281.836;-30.59
1282.035;-30.23
1282.235;-29.86
1282.434;-29.5
1282.633;-29.15
1282.832;-28.79
1283.031;-28.46
1283.23;-28.11
1283.429;-27.78
1283.628;-27.44
1283.827;-27.12
1284.027;-26.82
1284.226;-26.5
1284.425;-26.21
1284.624;-25.87
1284.823;-25.64
1285.022;-25.36
1285.221;-25.09
1285.42;-24.83
1285.62;-24.57
1285.819;-24.33
1286.018;-24.08
1286.217;-23.85
1286.416;-23.62
1286.615;-23.41
1286.814;-23.2
1287.013;-22.98
1287.212;-22.78
1287.412;-22.58
1287.611;-22.39
1287.81;-22.22
1288.009;-22.03
1288.208;-21.87
1288.407;-21.7
1288.606;-21.54
1288.805;-21.4
1289.004;-21.24
1289.204;-21.1
1289.403;-20.97
1289.602;-20.83
1289.801;-20.72
1290.0;-20.59
1290.199;-20.49
1290.398;-20.37
1290.597;-20.27
1290.797;-20.18
1290.996;-20.07
1291.195;-19.99
1291.394;-19.9
1291.593;-19.81
1291.792;-19.74
1291.991;-19.67
1292.19;-19.62
1292.389;-19.55
1292.589;-19.49
1292.788;-19.45
1292.987;-19.4
1293.186;-19.38
1293.385;-19.34
1293.584;-19.31
1293.783;-19.29
1293.982;-19.27
1294.181;-19.27
1294.381;-19.26
1294.58;-19.27
1294.779;-19.26
1294.978;-19.28
1295.177;-19.3
1295.376;-19.32
1295.575;-19.35
1295.774;-19.38
1295.974;-19.41
1296.173;-19.46
1296.372;-19.5
1296.571;-19.56
1296.77;-19.62
1296.969;-19.69
1297.168;-19.76
1297.367;-19.84
1297.566;-19.93
1297.766;-20.01
1297.965;-20.12
1298.164;-20.22
1298.363;-20.34
1298.562;-20.46
1298.761;-20.58
1298.96;-20.73
1299.159;-20.87
1299.358;-21.03
1299.558;-21.19
1299.757;-21.37
1299.956;-21.57
1300.155;-21.76
1300.354;-21.97
1300.553;-22.17
1300.752;-22.4
1300.951;-22.65
1301.15;-22.91
1301.35;-23.18
1301.549;-23.46
1301.748;-23.75
1301.947;-24.07
1302.146;-24.4
1302.345;-24.76
1302.544;-25.12
1302.743;-25.51
1302.943;-25.92
1303.142;-26.35
1303.341;-26.82
1303.54;-27.31
1303.739;-27.82
1303.938;-28.47
1304.137;-28.95
1304.336;-29.54
1304.535;-30.19
1304.735;-30.84
1304.934;-31.51
1305.133;-32.19
1305.332;-32.81
1305.531;-33.4
1305.73;-33.86
1305.929;-34.16
1306.128;-34.27
1306.327;-34.14
1306.527;-33.84
1306.726;-33.36
1306.925;-32.76
1307.124;-32.12
1307.323;-31.43
1307.522;-30.76
1307.721;-30.09
1307.92;-29.43
1308.12;-28.82
1308.319;-28.21
1308.518;-27.66
1308.717;-27.12
1308.916;-26.6
1309.115;-26.04
1309.314;-25.66
1309.513;-25.25
1309.712;-24.83
1309.912;-24.45
1310.111;-24.08
1310.31;-23.73
1310.509;-23.42
1310.708;-23.09
1310.907;-22.79
1311.106;-22.5
1311.305;-22.23
1311.504;-21.98
1311.704;-21.73
1311.903;-21.51
1312.102;-21.28
1312.301;-21.07
1312.5;-20.88
1312.699;-20.68
1312.898;-20.52
1313.097;-20.34
1313.297;-20.19
1313.496;-20.04
1313.695;-19.9
1313.894;-19.77
1314.093;-19.65
1314.292;-19.54
1314.491;-19.43
1314.69;-19.33
1314.889;-19.24
1315.089;-19.15
1315.288;-19.08
1315.487;-19.01
1315.686;-18.94
1315.885;-18.88
1316.084;-18.83
1316.283;-18.79
1316.482;-18.76
1316.681;-18.73
1316.881;-18.7
1317.08;-18.69
1317.279;-18.69
1317.478;-18.68
1317.677;-18.69
1317.876;-18.68
1318.075;-18.69
1318.274;-18.71
1318.474;-18.73
1318.673;-18.78
1318.872;-18.8
1319.071;-18.85
1319.27;-18.89
1319.469;-18.94
1319.668;-19.01
1319.867;-19.06
1320.066;-19.14
1320.266;-19.2
1320.465;-19.27
1320.664;-19.36
1320.863;-19.44
1321.062;-19.54
1321.261;-19.62
1321.46;-19.72
1321.659;-19.83
1321.858;-19.93
1322.058;-20.06
1322.257;-20.16
1322.456;-20.29
1322.655;-20.42
1322.854;-20.55
1323.053;-20.69
1323.252;-20.83
1323.451;-20.98
1323.65;-21.12
1323.85;-21.27
1324.049;-21.44
1324.248;-21.6
1324.447;-21.77
1324.646;-21.93
1324.845;-22.1
1325.044;-22.28
1325.243;-22.45
1325.443;-22.64
1325.642;-22.83
1325.841;-23.03
1326.04;-23.21
1326.239;-23.4
1326.438;-23.6
1326.637;-23.79
1326.836;-24.0
1327.035;-24.19
1327.235;-24.39
1327.434;-24.59
1327.633;-24.79
1327.832;-25.01
1328.031;-25.2
1328.23;-25.42
1328.429;-25.62
1328.628;-25.81
1328.827;-26.02
1329.027;-26.22
1329.226;-26.43
1329.425;-26.61
1329.624;-26.8
1329.823;-27.0
1330.022;-27.18
1330.221;-27.37
1330.42;-27.53
1330.62;-27.72
1330.819;-27.89
1331.018;-28.05
1331.217;-28.23
1331.416;-28.39
1331.615;-28.58
1331.814;-28.69
1332.013;-28.84
1332.212;-28.97
1332.412;-29.11
1332.611;-29.25
1332.81;-29.37
1333.009;-29.49
1333.208;-29.59
1333.407;-29.71
1333.606;-29.81
1333.805;-29.91
1334.004;-30.01
1334.204;-30.1
1334.403;-30.2
1334.602;-30.27
1334.801;-30.36
1335.0;-30.44
1335.199;-30.52
1335.398;-30.61
1335.597;-30.67
1335.797;-30.76
1335.996;-30.84
1336.195;-30.91
1336.394;-30.99
1336.593;-31.05
1336.792;-31.13
1336.991;-31.2
1337.19;-31.28
1337.389;-31.36
1337.589;-31.44
1337.788;-31.53
1337.987;-31.6
1338.186;-31.69
1338.385;-31.77
1338.584;-31.86
1338.783;-31.96
1338.982;-32.05
1339.181;-32.16
1339.381;-32.25
1339.58;-32.35
1339.779;-32.46
1339.978;-32.56
1340.177;-32.69
1340.376;-32.8
1340.575;-32.94
1340.774;-33.05
1340.974;-33.17
1341.173;-33.3
1341.372;-33.42
1341.571;-33.57
1341.77;-33.7
1341.969;-33.84
1342.168;-33.98
1342.367;-34.12
1342.566;-34.28
1342.766;-34.43
1342.965;-34.59
1343.164;-34.75
1343.363;-34.91
1343.562;-35.08
1343.761;-35.25
1343.96;-35.43
1344.159;-35.61
1344.358;-35.79
1344.558;-35.99
1344.757;-36.17
1344.956;-36.37
1345.155;-36.54
1345.354;-36.73
1345.553;-36.93
1345.752;-37.13
1345.951;-37.35
1346.15;-37.55
1346.35;-37.77
1346.549;-38.0
1346.748;-38.21
1346.947;-38.48
1347.146;-38.66
1347.345;-38.88
1347.544;-39.14
1347.743;-39.43
1347.943;-39.69
1348.142;-39.93
1348.341;-40.2
1348.54;-40.41
1348.739;-40.65
1348.938;-40.88
1349.137;-41.13
1349.336;-41.36
1349.535;-41.61
1349.735;-41.87
1349.934;-42.13
1350.133;-42.43
1350.332;-42.77
1350.531;-43.08
1350.73;-43.38
1350.929;-43.64
1351.128;-43.88
1351.327;-44.15
1351.527;-44.45
1351.726;-44.81
1351.925;-45.13
1352.124;-45.45
1352.323;-45.75
1352.522;-46.1
1352.721;-46.38
1352.92;-46.69
1353.12;-47.1
1353.319;-47.34
1353.518;-47.67
1353.717;-48.0
1353.916;-48.25
1354.115;-48.61
1354.314;-48.93
1354.513;-49.25
1354.712;-49.7
1354.912;-50.14
1355.111;-50.44
1355.31;-50.72
1355.509;-50.83
1355.708;-51.19
1355.907;-51.56
1356.106;-51.82
1356.305;-52.0
1356.504;-52.17
1356.704;-52.14
1356.903;-52.32
1357.102;-52.7
1357.301;-52.94
1357.5;-53.1
1357.699;-53.26
1357.898;-53.26
1358.097;-53.26
1358.297;-53.36
1358.496;-53.5
1358.695;-53.53
1358.894;-53.54
1359.093;-53.56
1359.292;-53.45
1359.491;-53.68
1359.69;-53.82
1359.889;-53.82
1360.089;-53.7
1360.288;-53.53
1360.487;-53.34
1360.686;-53.3
1360.885;-53.47
1361.084;-53.58
1361.283;-53.52
1361.482;-53.49
1361.681;-53.53
1361.881;-53.46
1362.08;-53.48
1362.279;-53.74
1362.478;-53.79
1362.677;-53.72
1362.876;-53.41
1363.075;-53.18
1363.274;-52.78
1363.474;-52.71
1363.673;-52.63
1363.872;-52.63
1364.071;-52.69
1364.27;-52.75
1364.469;-52.92
1364.668;-53.3
1364.867;-53.38
1365.066;-53.21
1365.266;-53.28
1365.465;-53.1
1365.664;-53.05
1365.863;-52.98
1366.062;-52.87
1366.261;-52.78
1366.46;-52.75
1366.659;-52.84
1366.858;-52.99
1367.058;-53.04
1367.257;-53.07
1367.456;-53.26
1367.655;-53.4
1367.854;-53.6
1368.053;-53.67
1368.252;-53.58
1368.451;-53.87
1368.65;-53.91
1368.85;-53.96
1369.049;-53.92
1369.248;-53.84
1369.447;-53.74
1369.646;-53.81
1369.845;-54.12
1370.044;-54.3
1370.243;-54.4
1370.443;-54.46
1370.642;-54.45
1370.841;-54.77
1371.04;-55.03
1371.239;-55.22
1371.438;-55.25
1371.637;-55.21
1371.836;-55.21
1372.035;-55.4
1372.235;-55.64
1372.434;-55.76
1372.633;-55.87
1372.832;-55.95
1373.031;-56.01
1373.23;-56.18
1373.429;-56.38
1373.628;-56.54
1373.827;-56.67
1374.027;-56.84
1374.226;-57.0
1374.425;-57.21
1374.624;-57.43
1374.823;-57.68
1375.022;-57.94
1375.221;-58.12
1375.42;-58.27
1375.62;-58.49
1375.819;-58.68
1376.018;-58.95
1376.217;-59.19
1376.416;-59.43
1376.615;-59.65
1376.814;-59.95
1377.013;-60.3
1377.212;-60.64
1377.412;-60.88
1377.611;-61.11
1377.81;-61.23
1378.009;-61.42
1378.208;-61.74
1378.407;-62.09
1378.606;-62.54
1378.805;-63.01
1379.004;-63.35
1379.204;-63.65
1379.403;-63.86
1379.602;-63.98
1379.801;-64.25
1380.0;-64.62
1380.199;-65.05
1380.398;-65.46
1380.597;-66.19
1380.797;-66.94
1380.996;-67.28
1381.195;-67.68
1381.394;-67.47
1381.593;-67.36
1381.792;-67.7
1381.991;-67.88
1382.19;-68.16
1382.389;-68.51
1382.589;-69.26
1382.788;-69.67
1382.987;-69.86
1383.186;-69.72
1383.385;-69.34
1383.584;-69.03
1383.783;-68.97
1383.982;-69.08
1384.181;-68.92
1384.381;-68.69
1384.58;-68.42
1384.779;-68.36
1384.978;-68.35
1385.177;-68.33
1385.376;-68.15
1385.575;-67.85
1385.774;-67.61
1385.974;-67.39
1386.173;-67.1
1386.372;-66.97
1386.571;-66.74
1386.77;-66.51
1386.969;-66.34
1387.168;-66.02
1387.367;-65.86
1387.566;-65.71
1387.766;-65.83
1387.965;-65.81
1388.164;-65.82
1388.363;-65.78
1388.562;-65.46
1388.761;-65.15
1388.96;-64.88
1389.159;-64.64
1389.358;-64.51
1389.558;-64.37
1389.757;-64.3
1389.956;-64.32
1390.155;-64.3
1390.354;-64.12
1390.553;-64.02
1390.752;-63.88
1390.951;-63.82
1391.15;-63.79
1391.35;-63.67
1391.549;-63.65
1391.748;-63.56
1391.947;-63.53
1392.146;-63.6
1392.345;-63.73
1392.544;-64.07
1392.743;-64.09
1392.943;-63.91
1393.142;-63.73
1393.341;-63.42
1393.54;-63.29
1393.739;-63.27
1393.938;-63.3
1394.137;-63.33
1394.336;-63.32
1394.535;-63.36
1394.735;-63.38
1394.934;-63.64
1395.133;-63.82
1395.332;-63.87
1395.531;-63.93
1395.73;-63.95
1395.929;-63.81
1396.128;-63.82
1396.327;-63.91
1396.527;-64.16
1396.726;-64.31
1396.925;-64.26
1397.124;-64.11
1397.323;-63.99
1397.522;-63.95
1397.721;-63.98
1397.92;-64.08
1398.12;-64.1
1398.319;-64.16
1398.518;-64.32
1398.717;-64.39
1398.916;-64.52
1399.115;-64.61
1399.314;-64.72
1399.513;-65.07
1399.712;-65.3
1399.912;-65.49
1400.111;-65.61
1400.31;-65.61
1400.509;-65.79
1400.708;-66.17
1400.907;-66.31
1401.106;-66.44
1401.305;-66.54
1401.504;-66.4
1401.704;-66.56
1401.903;-66.74
1402.102;-66.79
1402.301;-66.89
1402.5;-66.95
1402.699;-67.1
1402.898;-67.35
1403.097;-67.5
1403.297;-67.67
1403.496;-67.81
1403.695;-68.12
1403.894;-68.32
1404.093;-68.46
1404.292;-68.69
1404.491;-69.04
1404.69;-69.29
1404.889;-69.7
1405.089;-70.01
1405.288;-70.43
1405.487;-70.44
1405.686;-70.16
1405.885;-70.34
1406.084;-70.65
1406.283;-70.72
1406.482;-71.1
1406.681;-71.29
1406.881;-71.36
1407.08;-71.69
1407.279;-72.01
1407.478;-72.17
1407.677;-72.41
1407.876;-72.35
1408.075;-72.74
1408.274;-72.57
1408.474;-72.58
1408.673;-72.87
1408.872;-73.02
1409.071;-73.03
1409.27;-73.43
1409.469;-73.71
1409.668;-73.5
1409.867;-73.8
1410.066;-73.85
1410.266;-73.87
1410.465;-73.65
1410.664;-73.63
1410.863;-73.56
1411.062;-73.49
1411.261;-73.56
1411.46;-73.56
1411.659;-73.79
1411.858;-73.96
1412.058;-73.65
1412.257;-73.76
1412.456;-74.0
1412.655;-73.8
1412.854;-73.4
1413.053;-73.87
1413.252;-73.83
1413.451;-73.61
1413.65;-73.68
1413.85;-73.16
1414.049;-73.85
1414.248;-73.58
1414.447;-73.32
1414.646;-73.65
1414.845;-73.51
1415.044;-73.41
1415.243;-73.31
1415.443;-73.42
1415.642;-73.0
1415.841;-73.3
1416.04;-73.27
1416.239;-72.78
1416.438;-73.12
1416.637;-73.02
1416.836;-73.09
1417.035;-72.97
1417.235;-73.23
1417.434;-73.0
1417.633;-73.39
1417.832;-73.2
1418.031;-73.3
1418.23;-73.36
1418.429;-73.28
1418.628;-73.51
1418.827;-73.49
1419.027;-73.59
1419.226;-73.55
1419.425;-73.48
1419.624;-73.51
1419.823;-73.83
1420.022;-73.68
1420.221;-74.1
1420.42;-73.78
1420.62;-73.58
1420.819;-73.79
1421.018;-73.86
1421.217;-73.64
1421.416;-74.04
1421.615;-74.55
1421.814;-74.56
1422.013;-74.48
1422.212;-74.44
1422.412;-74.58
1422.611;-75.12
1422.81;-74.69
1423.009;-75.21
1423.208;-74.6
1423.407;-75.35
1423.606;-75.6
1423.805;-75.59
1424.004;-75.88
1424.204;-76.09
1424.403;-75.6
1424.602;-75.67
1424.801;-75.7
1425.0;-75.68
