Wavelength (nm);Intensity (dBm)
1131.0;1131.0
1200.0;-56.8
1200.199;-56.72
1200.398;-56.7
1200.597;-56.73
1200.797;-56.73
1200.996;-56.69
1201.195;-56.65
1201.394;-56.67
1201.593;-56.65
1201.792;-56.6
1201.991;-56.57
1202.19;-56.51
1202.389;-56.48
1202.589;-56.44
1202.788;-56.41
1202.987;-56.32
1203.186;-56.28
1203.385;-56.28
1203.584;-56.22
1203.783;-56.12
1203.982;-56.1
1204.181;-56.09
1204.381;-56.03
1204.58;-55.96
1204.779;-55.93
1204.978;-55.93
1205.177;-55.88
1205.376;-55.83
1205.575;-55.81
1205.774;-55.81
1205.974;-55.81
1206.173;-55.76
1206.372;-55.74
1206.571;-55.75
1206.77;-55.75
1206.969;-55.72
1207.168;-55.69
1207.367;-55.67
1207.566;-55.68
1207.766;-55.65
1207.965;-55.62
1208.164;-55.57
1208.363;-55.56
1208.562;-55.56
1208.761;-55.47
1208.96;-55.43
1209.159;-55.41
1209.358;-55.36
1209.558;-55.28
1209.757;-55.22
1209.956;-55.21
1210.155;-55.14
1210.354;-55.05
1210.553;-55.02
1210.752;-54.97
1210.951;-54.91
1211.15;-54.85
1211.35;-54.79
1211.549;-54.76
1211.748;-54.72
1211.947;-54.69
1212.146;-54.6
1212.345;-54.56
1212.544;-54.57
1212.743;-54.5
1212.943;-54.44
1213.142;-54.41
1213.341;-54.39
1213.54;-54.34
1213.739;-54.28
1213.938;-54.27
1214.137;-54.21
1214.336;-54.14
1214.535;-54.11
1214.735;-54.05
1214.934;-54.01
1215.133;-53.93
1215.332;-53.87
1215.531;-53.81
1215.73;-53.74
1215.929;-53.69
1216.128;-53.59
1216.327;-53.51
1216.527;-53.47
1216.726;-53.4
1216.925;-53.32
1217.124;-53.24
1217.323;-53.18
1217.522;-53.12
1217.721;-53.03
1217.92;-52.98
1218.12;-52.91
1218.319;-52.85
1218.518;-52.8
1218.717;-52.74
1218.916;-52.7
1219.115;-52.64
1219.314;-52.59
1219.513;-52.55
1219.712;-52.51
1219.912;-52.49
1220.111;-52.43
1220.31;-52.38
1220.509;-52.36
1220.708;-52.32
1220.907;-52.28
1221.106;-52.22
1221.305;-52.19
1221.504;-52.13
1221.704;-52.07
1221.903;-52.04
1222.102;-51.97
1222.301;-51.92
1222.5;-51.85
1222.699;-51.78
1222.898;-51.73
1223.097;-51.66
1223.297;-51.58
1223.496;-51.51
1223.695;-51.44
1223.894;-51.39
1224.093;-51.29
1224.292;-51.23
1224.491;-51.16
1224.69;-51.08
1224.889;-51.02
1225.089;-50.95
1225.288;-50.88
1225.487;-50.82
1225.686;-50.76
1225.885;-50.71
1226.084;-50.64
1226.283;-50.59
1226.482;-50.53
1226.681;-50.49
1226.881;-50.45
1227.08;-50.39
1227.279;-50.34
1227.478;-50.29
1227.677;-50.24
1227.876;-50.2
1228.075;-50.12
1228.274;-50.07
1228.474;-50.0
1228.673;-49.93
1228.872;-49.88
1229.071;-49.78
1229.27;-49.7
1229.469;-49.61
1229.668;-49.52
1229.867;-49.43
1230.066;-49.33
1230.266;-49.22
1230.465;-49.11
1230.664;-49.01
1230.863;-48.93
1231.062;-48.81
1231.261;-48.71
1231.46;-48.63
1231.659;-48.53
1231.858;-48.44
1232.058;-48.35
1232.257;-48.26
1232.456;-48.18
1232.655;-48.08
1232.854;-48.0
1233.053;-47.92
1233.252;-47.84
1233.451;-47.75
1233.65;-47.66
1233.85;-47.59
1234.049;-47.49
1234.248;-47.4
1234.447;-47.3
1234.646;-47.22
1234.845;-47.13
1235.044;-47.02
1235.243;-46.93
1235.443;-46.82
1235.642;-46.72
1235.841;-46.62
1236.04;-46.52
1236.239;-46.42
1236.438;-46.31
1236.637;-46.22
1236.836;-46.13
1237.035;-46.05
1237.235;-45.97
1237.434;-45.87
1237.633;-45.82
1237.832;-45.75
1238.031;-45.69
1238.23;-45.65
1238.429;-45.58
1238.628;-45.54
1238.827;-45.48
1239.027;-45.44
1239.226;-45.4
1239.425;-45.34
1239.624;-45.31
1239.823;-45.26
1240.022;-45.21
1240.221;-45.18
1240.42;-45.11
1240.62;-45.08
1240.819;-45.02
1241.018;-44.95
1241.217;-44.91
1241.416;-44.85
1241.615;-44.79
1241.814;-44.74
1242.013;-44.69
1242.212;-44.66
1242.412;-44.61
1242.611;-44.58
1242.81;-44.55
1243.009;-44.51
1243.208;-44.51
1243.407;-44.5
1243.606;-44.49
1243.805;-44.49
1244.004;-44.49
1244.204;-44.52
1244.403;-44.53
1244.602;-44.56
1244.801;-44.58
1245.0;-44.61
1245.199;-44.65
1245.398;-44.68
1245.597;-44.72
1245.797;-44.74
1245.996;-44.77
1246.195;-44.81
1246.394;-44.84
1246.593;-44.86
1246.792;-44.89
1246.991;-44.9
1247.19;-44.93
1247.389;-44.95
1247.589;-44.96
1247.788;-44.98
1247.987;-44.98
1248.186;-45.01
1248.385;-45.01
1248.584;-45.02
1248.783;-45.03
1248.982;-45.04
1249.181;-45.06
1249.381;-45.05
1249.58;-45.06
1249.779;-45.05
1249.978;-45.03
1250.177;-45.03
1250.376;-45.01
1250.575;-44.98
1250.774;-44.94
1250.974;-44.91
1251.173;-44.87
1251.372;-44.8
1251.571;-44.74
1251.77;-44.65
1251.969;-44.55
1252.168;-44.44
1252.367;-44.31
1252.566;-44.19
1252.766;-44.02
1252.965;-43.87
1253.164;-43.69
1253.363;-43.5
1253.562;-43.32
1253.761;-43.1
1253.96;-42.89
1254.159;-42.67
1254.358;-42.43
1254.558;-42.22
1254.757;-41.97
1254.956;-41.73
1255.155;-41.5
1255.354;-41.26
1255.553;-41.04
1255.752;-40.8
1255.951;-40.57
1256.15;-40.35
1256.35;-40.12
1256.549;-39.92
1256.748;-39.69
1256.947;-39.48
1257.146;-39.26
1257.345;-39.05
1257.544;-38.86
1257.743;-38.64
1257.943;-38.45
1258.142;-38.24
1258.341;-38.04
1258.54;-37.85
1258.739;-37.65
1258.938;-37.46
1259.137;-37.26
1259.336;-37.07
1259.535;-36.9
1259.735;-36.71
1259.934;-36.54
1260.133;-36.36
1260.332;-36.19
1260.531;-36.03
1260.73;-35.84
1260.929;-35.71
1261.128;-35.56
1261.327;-35.43
1261.527;-35.29
1261.726;-35.16
1261.925;-35.02
1262.124;-34.89
1262.323;-34.78
1262.522;-34.66
1262.721;-34.56
1262.92;-34.44
1263.12;-34.33
1263.319;-34.24
1263.518;-34.13
1263.717;-34.04
1263.916;-33.94
1264.115;-33.84
1264.314;-33.76
1264.513;-33.67
1264.712;-33.59
1264.912;-33.5
1265.111;-33.43
1265.31;-33.36
1265.509;-33.3
1265.708;-33.25
1265.907;-33.19
1266.106;-33.14
1266.305;-33.11
1266.504;-33.08
1266.704;-33.06
1266.903;-33.04
1267.102;-33.02
1267.301;-33.02
1267.5;-33.02
1267.699;-33.04
1267.898;-33.04
1268.097;-33.06
1268.297;-33.09
1268.496;-33.11
1268.695;-33.15
1268.894;-33.17
1269.093;-33.2
1269.292;-33.25
1269.491;-33.3
1269.69;-33.35
1269.889;-33.4
1270.089;-33.46
1270.288;-33.53
1270.487;-33.61
1270.686;-33.71
1270.885;-33.79
1271.084;-33.88
1271.283;-34.0
1271.482;-34.12
1271.681;-34.26
1271.881;-34.4
1272.08;-34.56
1272.279;-34.72
1272.478;-34.9
1272.677;-35.1
1272.876;-35.29
1273.075;-35.51
1273.274;-35.73
1273.474;-35.96
1273.673;-36.21
1273.872;-36.46
1274.071;-36.72
1274.27;-36.99
1274.469;-37.26
1274.668;-37.55
1274.867;-37.85
1275.066;-38.21
1275.266;-38.46
1275.465;-38.77
1275.664;-39.07
1275.863;-39.38
1276.062;-39.68
1276.261;-39.96
1276.46;-40.23
1276.659;-40.43
1276.858;-40.61
1277.058;-40.73
1277.257;-40.78
1277.456;-40.77
1277.655;-40.67
1277.854;-40.51
1278.053;-40.26
1278.252;-39.96
1278.451;-39.63
1278.65;-39.22
1278.85;-38.81
1279.049;-38.36
1279.248;-37.89
1279.447;-37.44
1279.646;-36.96
1279.845;-36.5
1280.044;-35.95
1280.243;-35.58
1280.443;-35.13
1280.642;-34.68
1280.841;-34.26
1281.04;-33.84
1281.239;-33.44
1281.438;-33.04
1281.637;-32.65
1281.836;-32.29
1282.035;-31.92
1282.235;-31.58
1282.434;-31.23
1282.633;-30.91
1282.832;-30.59
1283.031;-30.28
1283.23;-29.99
1283.429;-29.69
1283.628;-29.4
1283.827;-29.13
1284.027;-28.86
1284.226;-28.62
1284.425;-28.36
1284.624;-28.11
1284.823;-27.88
1285.022;-27.64
1285.221;-27.43
1285.42;-27.21
1285.62;-27.0
1285.819;-26.8
1286.018;-26.6
1286.217;-26.42
1286.416;-26.23
1286.615;-26.04
1286.814;-25.89
1287.013;-25.73
1287.212;-25.57
1287.412;-25.41
1287.611;-25.28
1287.81;-25.13
1288.009;-25.0
1288.208;-24.87
1288.407;-24.74
1288.606;-24.65
1288.805;-24.53
1289.004;-24.43
1289.204;-24.33
1289.403;-24.23
1289.602;-24.15
1289.801;-24.06
1290.0;-23.99
1290.199;-23.91
1290.398;-23.84
1290.597;-23.8
1290.797;-23.72
1290.996;-23.67
1291.195;-23.61
1291.394;-23.57
1291.593;-23.53
1291.792;-23.49
1291.991;-23.48
1292.19;-23.45
1292.389;-23.43
1292.589;-23.41
1292.788;-23.4
1292.987;-23.42
1293.186;-23.42
1293.385;-23.44
1293.584;-23.45
1293.783;-23.46
1293.982;-23.51
1294.181;-23.54
1294.381;-23.59
1294.58;-23.62
1294.779;-23.67
1294.978;-23.74
1295.177;-23.8
1295.376;-23.89
1295.575;-23.95
1295.774;-24.04
1295.974;-24.13
1296.173;-24.22
1296.372;-24.34
1296.571;-24.45
1296.77;-24.58
1296.969;-24.7
1297.168;-24.84
1297.367;-25.0
1297.566;-25.14
1297.766;-25.32
1297.965;-25.49
1298.164;-25.68
1298.363;-25.88
1298.562;-26.08
1298.761;-26.32
1298.96;-26.54
1299.159;-26.79
1299.358;-27.05
1299.558;-27.32
1299.757;-27.61
1299.956;-27.91
1300.155;-28.3
1300.354;-28.58
1300.553;-28.93
1300.752;-29.29
1300.951;-29.68
1301.15;-30.11
1301.35;-30.52
1301.549;-30.98
1301.748;-31.42
1301.947;-31.89
1302.146;-32.37
1302.345;-32.83
1302.544;-33.31
1302.743;-33.74
1302.943;-34.14
1303.142;-34.48
1303.341;-34.73
1303.54;-34.9
1303.739;-34.93
1303.938;-34.84
1304.137;-34.64
1304.336;-34.33
1304.535;-33.95
1304.735;-33.47
1304.934;-32.97
1305.133;-32.44
1305.332;-31.9
1305.531;-31.38
1305.73;-30.84
1305.929;-30.32
1306.128;-29.82
1306.327;-29.32
1306.527;-28.87
1306.726;-28.41
1306.925;-27.99
1307.124;-27.57
1307.323;-27.17
1307.522;-26.81
1307.721;-26.44
1307.92;-26.04
1308.12;-25.77
1308.319;-25.47
1308.518;-25.16
1308.717;-24.87
1308.916;-24.59
1309.115;-24.33
1309.314;-24.09
1309.513;-23.83
1309.712;-23.6
1309.912;-23.38
1310.111;-23.17
1310.31;-22.98
1310.509;-22.79
1310.708;-22.6
1310.907;-22.42
1311.106;-22.25
1311.305;-22.1
1311.504;-21.94
1311.704;-21.81
1311.903;-21.66
1312.102;-21.53
1312.301;-21.41
1312.5;-21.3
1312.699;-21.2
1312.898;-21.09
1313.097;-21.0
1313.297;-20.91
1313.496;-20.84
1313.695;-20.78
1313.894;-20.7
1314.093;-20.66
1314.292;-20.59
1314.491;-20.55
1314.69;-20.51
1314.889;-20.47
1315.089;-20.45
1315.288;-20.42
1315.487;-20.41
1315.686;-20.4
1315.885;-20.39
1316.084;-20.4
1316.283;-20.39
1316.482;-20.42
1316.681;-20.43
1316.881;-20.45
1317.08;-20.5
1317.279;-20.53
1317.478;-20.59
1317.677;-20.62
1317.876;-20.67
1318.075;-20.73
1318.274;-20.79
1318.474;-20.87
1318.673;-20.95
1318.872;-21.03
1319.071;-21.11
1319.27;-21.2
1319.469;-21.3
1319.668;-21.4
1319.867;-21.52
1320.066;-21.62
1320.266;-21.74
1320.465;-21.87
1320.664;-22.0
1320.863;-22.14
1321.062;-22.27
1321.261;-22.41
1321.46;-22.56
1321.659;-22.71
1321.858;-22.88
1322.058;-23.04
1322.257;-23.22
1322.456;-23.38
1322.655;-23.56
1322.854;-23.75
1323.053;-23.94
1323.252;-24.15
1323.451;-24.34
1323.65;-24.55
1323.85;-24.75
1324.049;-24.96
1324.248;-25.19
1324.447;-25.41
1324.646;-25.65
1324.845;-25.87
1325.044;-26.11
1325.243;-26.35
1325.443;-26.59
1325.642;-26.85
1325.841;-27.08
1326.04;-27.33
1326.239;-27.58
1326.438;-27.82
1326.637;-28.08
1326.836;-28.32
1327.035;-28.63
1327.235;-28.82
1327.434;-29.07
1327.633;-29.3
1327.832;-29.54
1328.031;-29.78
1328.23;-29.99
1328.429;-30.22
1328.628;-30.42
1328.827;-30.62
1329.027;-30.81
1329.226;-30.98
1329.425;-31.16
1329.624;-31.3
1329.823;-31.44
1330.022;-31.57
1330.221;-31.68
1330.42;-31.79
1330.62;-31.87
1330.819;-31.96
1331.018;-32.03
1331.217;-32.09
1331.416;-32.14
1331.615;-32.18
1331.814;-32.22
1332.013;-32.23
1332.212;-32.25
1332.412;-32.26
1332.611;-32.27
1332.81;-32.28
1333.009;-32.28
1333.208;-32.28
1333.407;-32.27
1333.606;-32.27
1333.805;-32.26
1334.004;-32.25
1334.204;-32.26
1334.403;-32.25
1334.602;-32.25
1334.801;-32.25
1335.0;-32.25
1335.199;-32.26
1335.398;-32.27
1335.597;-32.29
1335.797;-32.31
1335.996;-32.34
1336.195;-32.36
1336.394;-32.39
1336.593;-32.43
1336.792;-32.45
1336.991;-32.51
1337.19;-32.55
1337.389;-32.6
1337.589;-32.66
1337.788;-32.72
1337.987;-32.8
1338.186;-32.85
1338.385;-32.93
1338.584;-33.0
1338.783;-33.08
1338.982;-33.18
1339.181;-33.27
1339.381;-33.37
1339.58;-33.46
1339.779;-33.57
1339.978;-33.68
1340.177;-33.79
1340.376;-33.93
1340.575;-34.06
1340.774;-34.19
1340.974;-34.31
1341.173;-34.45
1341.372;-34.59
1341.571;-34.73
1341.77;-34.89
1341.969;-35.04
1342.168;-35.19
1342.367;-35.36
1342.566;-35.52
1342.766;-35.7
1342.965;-35.86
1343.164;-36.05
1343.363;-36.23
1343.562;-36.41
1343.761;-36.62
1343.96;-36.81
1344.159;-37.02
1344.358;-37.22
1344.558;-37.43
1344.757;-37.65
1344.956;-37.86
1345.155;-38.08
1345.354;-38.29
1345.553;-38.57
1345.752;-38.75
1345.951;-39.0
1346.15;-39.23
1346.35;-39.48
1346.549;-39.75
1346.748;-40.0
1346.947;-40.26
1347.146;-40.51
1347.345;-40.76
1347.544;-41.07
1347.743;-41.4
1347.943;-41.72
1348.142;-42.0
1348.341;-42.31
1348.54;-42.57
1348.739;-42.85
1348.938;-43.16
1349.137;-43.45
1349.336;-43.75
1349.535;-44.05
1349.735;-44.36
1349.934;-44.71
1350.133;-45.06
1350.332;-45.49
1350.531;-45.88
1350.73;-46.25
1350.929;-46.6
1351.128;-46.93
1351.327;-47.31
1351.527;-47.71
1351.726;-48.18
1351.925;-48.71
1352.124;-49.07
1352.323;-49.51
1352.522;-49.99
1352.721;-50.46
1352.92;-50.92
1353.12;-51.51
1353.319;-51.95
1353.518;-52.47
1353.717;-53.03
1353.916;-53.49
1354.115;-54.04
1354.314;-54.66
1354.513;-55.25
1354.712;-55.97
1354.912;-56.68
1355.111;-57.31
1355.31;-57.89
1355.509;-58.3
1355.708;-59.07
1355.907;-59.55
1356.106;-60.0
1356.305;-60.34
1356.504;-60.6
1356.704;-60.54
1356.903;-60.65
1357.102;-60.89
1357.301;-60.89
1357.5;-60.72
1357.699;-60.53
1357.898;-60.19
1358.097;-59.79
1358.297;-59.53
1358.496;-59.29
1358.695;-58.93
1358.894;-58.59
1359.093;-58.27
1359.292;-57.88
1359.491;-57.85
1359.69;-57.73
1359.889;-57.46
1360.089;-57.09
1360.288;-56.75
1360.487;-56.37
1360.686;-56.14
1360.885;-56.19
1361.084;-56.16
1361.283;-55.99
1361.482;-55.84
1361.681;-55.79
1361.881;-55.64
1362.08;-55.58
1362.279;-55.77
1362.478;-55.77
1362.677;-55.63
1362.876;-55.28
1363.075;-55.0
1363.274;-54.57
1363.474;-54.47
1363.673;-54.37
1363.872;-54.35
1364.071;-54.39
1364.27;-54.43
1364.469;-54.59
1364.668;-54.95
1364.867;-55.04
1365.066;-54.87
1365.266;-54.93
1365.465;-54.75
1365.664;-54.71
1365.863;-54.66
1366.062;-54.56
1366.261;-54.47
1366.46;-54.45
1366.659;-54.55
1366.858;-54.71
1367.058;-54.79
1367.257;-54.83
1367.456;-55.05
1367.655;-55.21
1367.854;-55.43
1368.053;-55.52
1368.252;-55.45
1368.451;-55.77
1368.65;-55.85
1368.85;-55.94
1369.049;-55.92
1369.248;-55.88
1369.447;-55.79
1369.646;-55.9
1369.845;-56.25
1370.044;-56.47
1370.243;-56.61
1370.443;-56.71
1370.642;-56.75
1370.841;-57.09
1371.04;-57.4
1371.239;-57.64
1371.438;-57.72
1371.637;-57.74
1371.836;-57.78
1372.035;-58.04
1372.235;-58.32
1372.434;-58.52
1372.633;-58.66
1372.832;-58.81
1373.031;-58.93
1373.23;-59.17
1373.429;-59.43
1373.628;-59.66
1373.827;-59.86
1374.027;-60.1
1374.226;-60.32
1374.425;-60.62
1374.624;-60.89
1374.823;-61.23
1375.022;-61.58
1375.221;-61.85
1375.42;-62.06
1375.62;-62.35
1375.819;-62.65
1376.018;-63.01
1376.217;-63.34
1376.416;-63.65
1376.615;-63.98
1376.814;-64.33
1377.013;-64.81
1377.212;-65.22
1377.412;-65.55
1377.611;-65.88
1377.81;-65.99
1378.009;-66.28
1378.208;-66.64
1378.407;-67.02
1378.606;-67.5
1378.805;-67.93
1379.004;-68.23
1379.204;-68.41
1379.403;-68.59
1379.602;-68.65
1379.801;-68.69
1380.0;-68.92
1380.199;-69.04
1380.398;-69.1
1380.597;-69.49
1380.797;-69.85
1380.996;-69.76
1381.195;-69.58
1381.394;-69.15
1381.593;-68.6
1381.792;-68.36
1381.991;-68.08
1382.19;-67.92
1382.389;-67.95
1382.589;-68.18
1382.788;-68.41
1382.987;-68.21
1383.186;-67.71
1383.385;-67.14
1383.584;-66.7
1383.783;-66.51
1383.982;-66.38
1384.181;-66.12
1384.381;-65.79
1384.58;-65.57
1384.779;-65.4
1384.978;-65.45
1385.177;-65.37
1385.376;-65.25
1385.575;-64.96
1385.774;-64.81
1385.974;-64.6
1386.173;-64.43
1386.372;-64.39
1386.571;-64.2
1386.77;-64.05
1386.969;-63.93
1387.168;-63.77
1387.367;-63.68
1387.566;-63.61
1387.766;-63.77
1387.965;-63.87
1388.164;-63.99
1388.363;-63.97
1388.562;-63.78
1388.761;-63.56
1388.96;-63.4
1389.159;-63.24
1389.358;-63.14
1389.558;-63.09
1389.757;-63.09
1389.956;-63.16
1390.155;-63.17
1390.354;-63.11
1390.553;-63.09
1390.752;-63.01
1390.951;-63.04
1391.15;-63.01
1391.35;-63.02
1391.549;-63.03
1391.748;-63.03
1391.947;-63.08
1392.146;-63.21
1392.345;-63.39
1392.544;-63.77
1392.743;-63.84
1392.943;-63.77
1393.142;-63.64
1393.341;-63.39
1393.54;-63.34
1393.739;-63.35
1393.938;-63.46
1394.137;-63.48
1394.336;-63.51
1394.535;-63.66
1394.735;-63.77
1394.934;-64.0
1395.133;-64.27
1395.332;-64.38
1395.531;-64.47
1395.73;-64.58
1395.929;-64.54
1396.128;-64.55
1396.327;-64.7
1396.527;-65.02
1396.726;-65.19
1396.925;-65.21
1397.124;-65.11
1397.323;-65.02
1397.522;-65.04
1397.721;-65.11
1397.92;-65.22
1398.12;-65.34
1398.319;-65.48
1398.518;-65.58
1398.717;-65.77
1398.916;-65.89
1399.115;-65.98
1399.314;-66.19
1399.513;-66.52
1399.712;-66.76
1399.912;-66.93
1400.111;-67.15
1400.31;-67.21
1400.509;-67.4
1400.708;-67.86
1400.907;-68.03
1401.106;-68.07
1401.305;-68.11
1401.504;-68.16
1401.704;-68.28
1401.903;-68.45
1402.102;-68.55
1402.301;-68.66
1402.5;-68.69
1402.699;-68.85
1402.898;-68.87
1403.097;-68.98
1403.297;-69.17
1403.496;-69.4
1403.695;-69.47
1403.894;-69.78
1404.093;-69.82
1404.292;-70.08
1404.491;-70.07
1404.69;-70.23
1404.889;-70.61
1405.089;-70.97
1405.288;-71.08
1405.487;-70.95
1405.686;-70.62
1405.885;-70.58
1406.084;-70.67
1406.283;-70.7
1406.482;-70.87
1406.681;-70.92
1406.881;-70.89
1407.08;-71.01
1407.279;-71.18
1407.478;-71.22
1407.677;-71.05
1407.876;-71.13
1408.075;-70.93
1408.274;-71.03
1408.474;-70.94
1408.673;-70.97
1408.872;-70.98
1409.071;-71.11
1409.27;-71.15
1409.469;-71.38
1409.668;-71.43
1409.867;-71.41
1410.066;-71.23
1410.266;-71.1
1410.465;-70.92
1410.664;-71.0
1410.863;-71.01
1411.062;-70.86
1411.261;-70.96
1411.46;-70.91
1411.659;-70.86
1411.858;-70.83
1412.058;-70.87
1412.257;-70.86
1412.456;-70.94
1412.655;-71.12
1412.854;-71.06
1413.053;-71.06
1413.252;-70.97
1413.451;-71.01
1413.65;-71.08
1413.85;-70.94
1414.049;-71.25
1414.248;-70.99
1414.447;-71.31
1414.646;-71.38
1414.845;-71.56
1415.044;-71.33
1415.243;-71.49
1415.443;-71.38
1415.642;-71.48
1415.841;-71.65
1416.04;-71.52
1416.239;-71.52
1416.438;-71.47
1416.637;-71.75
1416.836;-71.84
1417.035;-71.81
1417.235;-71.91
1417.434;-72.1
1417.633;-72.15
1417.832;-72.03
1418.031;-72.31
1418.23;-72.56
1418.429;-72.47
1418.628;-72.75
1418.827;-73.05
1419.027;-72.96
1419.226;-73.23
1419.425;-73.41
1419.624;-73.14
1419.823;-73.42
1420.022;-73.84
1420.221;-73.87
1420.42;-74.16
1420.62;-73.73
1420.819;-74.39
1421.018;-74.44
1421.217;-74.35
1421.416;-74.73
1421.615;-75.19
1421.814;-75.63
1422.013;-75.54
1422.212;-75.28
1422.412;-75.81
1422.611;-75.7
1422.81;-76.26
1423.009;-76.53
1423.208;-76.53
1423.407;-77.03
1423.606;-77.03
1423.805;-77.49
1424.004;-77.47
1424.204;-76.77
1424.403;-77.17
1424.602;-77.2
1424.801;-77.84
1425.0;-78.79
