Wavelength (nm);Intensity (dBm)
1131.0;1131.0
1200.0;-61.03
1200.199;-61.02
1200.398;-60.97
1200.597;-60.98
1200.797;-60.92
1200.996;-60.87
1201.195;-60.86
1201.394;-60.8
1201.593;-60.74
1201.792;-60.71
1201.991;-60.66
1202.19;-60.64
1202.389;-60.53
1202.589;-60.49
1202.788;-60.47
1202.987;-60.45
1203.186;-60.36
1203.385;-60.29
1203.584;-60.32
1203.783;-60.3
1203.982;-60.24
1204.181;-60.21
1204.381;-60.21
1204.58;-60.19
1204.779;-60.15
1204.978;-60.16
1205.177;-60.14
1205.376;-60.11
1205.575;-60.1
1205.774;-60.07
1205.974;-60.05
1206.173;-60.05
1206.372;-60.06
1206.571;-60.01
1206.77;-59.96
1206.969;-59.93
1207.168;-59.93
1207.367;-59.89
1207.566;-59.85
1207.766;-59.8
1207.965;-59.81
1208.164;-59.77
1208.363;-59.7
1208.562;-59.67
1208.761;-59.66
1208.96;-59.63
1209.159;-59.55
1209.358;-59.49
1209.558;-59.5
1209.757;-59.49
1209.956;-59.42
1210.155;-59.35
1210.354;-59.34
1210.553;-59.34
1210.752;-59.27
1210.951;-59.21
1211.15;-59.19
1211.35;-59.15
1211.549;-59.15
1211.748;-59.09
1211.947;-59.06
1212.146;-59.07
1212.345;-59.05
1212.544;-59.04
1212.743;-59.0
1212.943;-58.99
1213.142;-59.01
1213.341;-59.01
1213.54;-59.01
1213.739;-59.04
1213.938;-59.07
1214.137;-59.06
1214.336;-59.01
1214.535;-59.06
1214.735;-59.07
1214.934;-59.05
1215.133;-59.02
1215.332;-59.03
1215.531;-59.03
1215.73;-59.01
1215.929;-58.95
1216.128;-58.9
1216.327;-58.87
1216.527;-58.86
1216.726;-58.77
1216.925;-58.71
1217.124;-58.67
1217.323;-58.61
1217.522;-58.56
1217.721;-58.48
1217.92;-58.43
1218.12;-58.37
1218.319;-58.31
1218.518;-58.26
1218.717;-58.21
1218.916;-58.16
1219.115;-58.08
1219.314;-58.0
1219.513;-57.99
1219.712;-57.94
1219.912;-57.86
1220.111;-57.78
1220.31;-57.72
1220.509;-57.68
1220.708;-57.59
1220.907;-57.51
1221.106;-57.42
1221.305;-57.35
1221.504;-57.27
1221.704;-57.13
1221.903;-57.06
1222.102;-56.96
1222.301;-56.85
1222.5;-56.73
1222.699;-56.63
1222.898;-56.55
1223.097;-56.44
1223.297;-56.32
1223.496;-56.23
1223.695;-56.14
1223.894;-56.06
1224.093;-55.95
1224.292;-55.85
1224.491;-55.8
1224.69;-55.73
1224.889;-55.65
1225.089;-55.59
1225.288;-55.55
1225.487;-55.49
1225.686;-55.43
1225.885;-55.41
1226.084;-55.37
1226.283;-55.33
1226.482;-55.28
1226.681;-55.25
1226.881;-55.25
1227.08;-55.18
1227.279;-55.14
1227.478;-55.11
1227.677;-55.08
1227.876;-55.05
1228.075;-54.99
1228.274;-54.96
1228.474;-54.93
1228.673;-54.88
1228.872;-54.84
1229.071;-54.79
1229.27;-54.77
1229.469;-54.74
1229.668;-54.7
1229.867;-54.68
1230.066;-54.66
1230.266;-54.63
1230.465;-54.61
1230.664;-54.6
1230.863;-54.63
1231.062;-54.61
1231.261;-54.62
1231.46;-54.66
1231.659;-54.66
1231.858;-54.67
1232.058;-54.67
1232.257;-54.68
1232.456;-54.69
1232.655;-54.68
1232.854;-54.68
1233.053;-54.67
1233.252;-54.65
1233.451;-54.62
1233.65;-54.59
1233.85;-54.58
1234.049;-54.52
1234.248;-54.47
1234.447;-54.42
1234.646;-54.36
1234.845;-54.31
1235.044;-54.22
1235.243;-54.15
1235.443;-54.07
1235.642;-53.98
1235.841;-53.89
1236.04;-53.8
1236.239;-53.7
1236.438;-53.59
1236.637;-53.48
1236.836;-53.38
1237.035;-53.26
1237.235;-53.13
1237.434;-53.01
1237.633;-52.9
1237.832;-52.8
1238.031;-52.66
1238.23;-52.54
1238.429;-52.42
1238.628;-52.29
1238.827;-52.18
1239.027;-52.06
1239.226;-51.94
1239.425;-51.81
1239.624;-51.69
1239.823;-51.58
1240.022;-51.47
1240.221;-51.34
1240.42;-51.22
1240.62;-51.1
1240.819;-50.98
1241.018;-50.83
1241.217;-50.7
1241.416;-50.56
1241.615;-50.4
1241.814;-50.26
1242.013;-50.1
1242.212;-49.95
1242.412;-49.78
1242.611;-49.59
1242.81;-49.44
1243.009;-49.26
1243.208;-49.08
1243.407;-48.9
1243.606;-48.71
1243.805;-48.55
1244.004;-48.35
1244.204;-48.19
1244.403;-48.0
1244.602;-47.82
1244.801;-47.65
1245.0;-47.47
1245.199;-47.3
1245.398;-47.11
1245.597;-46.92
1245.797;-46.75
1245.996;-46.55
1246.195;-46.36
1246.394;-46.16
1246.593;-45.95
1246.792;-45.72
1246.991;-45.54
1247.19;-45.35
1247.389;-45.14
1247.589;-44.93
1247.788;-44.71
1247.987;-44.5
1248.186;-44.3
1248.385;-44.09
1248.584;-43.89
1248.783;-43.69
1248.982;-43.49
1249.181;-43.32
1249.381;-43.13
1249.58;-42.95
1249.779;-42.77
1249.978;-42.59
1250.177;-42.44
1250.376;-42.27
1250.575;-42.11
1250.774;-41.95
1250.974;-41.8
1251.173;-41.66
1251.372;-41.51
1251.571;-41.39
1251.77;-41.24
1251.969;-41.1
1252.168;-40.98
1252.367;-40.85
1252.566;-40.75
1252.766;-40.62
1252.965;-40.52
1253.164;-40.42
1253.363;-40.31
1253.562;-40.24
1253.761;-40.13
1253.96;-40.05
1254.159;-39.96
1254.358;-39.86
1254.558;-39.79
1254.757;-39.67
1254.956;-39.57
1255.155;-39.46
1255.354;-39.34
1255.553;-39.23
1255.752;-39.08
1255.951;-38.94
1256.15;-38.79
1256.35;-38.62
1256.549;-38.47
1256.748;-38.29
1256.947;-38.11
1257.146;-37.92
1257.345;-37.73
1257.544;-37.55
1257.743;-37.34
1257.943;-37.13
1258.142;-36.91
1258.341;-36.67
1258.54;-36.46
1258.739;-36.2
1258.938;-35.91
1259.137;-35.7
1259.336;-35.44
1259.535;-35.17
1259.735;-34.89
1259.934;-34.61
1260.133;-34.34
1260.332;-34.07
1260.531;-33.78
1260.73;-33.51
1260.929;-33.25
1261.128;-32.98
1261.327;-32.73
1261.527;-32.48
1261.726;-32.23
1261.925;-32.0
1262.124;-31.76
1262.323;-31.55
1262.522;-31.33
1262.721;-31.13
1262.92;-30.93
1263.12;-30.74
1263.319;-30.57
1263.518;-30.39
1263.717;-30.22
1263.916;-30.06
1264.115;-29.9
1264.314;-29.77
1264.513;-29.63
1264.712;-29.5
1264.912;-29.38
1265.111;-29.27
1265.31;-29.18
1265.509;-29.08
1265.708;-28.99
1265.907;-28.92
1266.106;-28.84
1266.305;-28.79
1266.504;-28.73
1266.704;-28.69
1266.903;-28.64
1267.102;-28.6
1267.301;-28.58
1267.5;-28.55
1267.699;-28.53
1267.898;-28.51
1268.097;-28.5
1268.297;-28.5
1268.496;-28.49
1268.695;-28.49
1268.894;-28.48
1269.093;-28.46
1269.292;-28.47
1269.491;-28.45
1269.69;-28.44
1269.889;-28.41
1270.089;-28.37
1270.288;-28.34
1270.487;-28.28
1270.686;-28.21
1270.885;-28.12
1271.084;-28.01
1271.283;-27.9
1271.482;-27.76
1271.681;-27.61
1271.881;-27.44
1272.08;-27.27
1272.279;-27.09
1272.478;-26.9
1272.677;-26.71
1272.876;-26.5
1273.075;-26.29
1273.274;-26.05
1273.474;-25.87
1273.673;-25.67
1273.872;-25.45
1274.071;-25.25
1274.27;-25.03
1274.469;-24.82
1274.668;-24.61
1274.867;-24.39
1275.066;-24.19
1275.266;-23.97
1275.465;-23.76
1275.664;-23.56
1275.863;-23.36
1276.062;-23.17
1276.261;-22.97
1276.46;-22.79
1276.659;-22.6
1276.858;-22.43
1277.058;-22.28
1277.257;-22.12
1277.456;-21.99
1277.655;-21.85
1277.854;-21.72
1278.053;-21.61
1278.252;-21.49
1278.451;-21.39
1278.65;-21.28
1278.85;-21.19
1279.049;-21.11
1279.248;-21.02
1279.447;-20.95
1279.646;-20.87
1279.845;-20.8
1280.044;-20.74
1280.243;-20.68
1280.443;-20.64
1280.642;-20.58
1280.841;-20.54
1281.04;-20.5
1281.239;-20.46
1281.438;-20.44
1281.637;-20.4
1281.836;-20.38
1282.035;-20.35
1282.235;-20.33
1282.434;-20.32
1282.633;-20.3
1282.832;-20.29
1283.031;-20.26
1283.23;-20.23
1283.429;-20.22
1283.628;-20.18
1283.827;-20.16
1284.027;-20.12
1284.226;-20.08
1284.425;-20.05
1284.624;-19.99
1284.823;-19.94
1285.022;-19.88
1285.221;-19.81
1285.42;-19.75
1285.62;-19.67
1285.819;-19.6
1286.018;-19.5
1286.217;-19.41
1286.416;-19.31
1286.615;-19.21
1286.814;-19.12
1287.013;-19.0
1287.212;-18.89
1287.412;-18.78
1287.611;-18.66
1287.81;-18.56
1288.009;-18.43
1288.208;-18.33
1288.407;-18.21
1288.606;-18.1
1288.805;-18.01
1289.004;-17.9
1289.204;-17.81
1289.403;-17.71
1289.602;-17.63
1289.801;-17.56
1290.0;-17.47
1290.199;-17.41
1290.398;-17.34
1290.597;-17.29
1290.797;-17.25
1290.996;-17.19
1291.195;-17.16
1291.394;-17.12
1291.593;-17.08
1291.792;-17.07
1291.991;-17.06
1292.19;-17.07
1292.389;-17.07
1292.589;-17.08
1292.788;-17.09
1292.987;-17.12
1293.186;-17.16
1293.385;-17.2
1293.584;-17.26
1293.783;-17.3
1293.982;-17.36
1294.181;-17.44
1294.381;-17.5
1294.58;-17.58
1294.779;-17.64
1294.978;-17.73
1295.177;-17.81
1295.376;-17.89
1295.575;-17.97
1295.774;-18.04
1295.974;-18.1
1296.173;-18.17
1296.372;-18.23
1296.571;-18.28
1296.77;-18.32
1296.969;-18.38
1297.168;-18.4
1297.367;-18.42
1297.566;-18.42
1297.766;-18.41
1297.965;-18.41
1298.164;-18.37
1298.363;-18.34
1298.562;-18.28
1298.761;-18.22
1298.96;-18.17
1299.159;-18.08
1299.358;-18.01
1299.558;-17.9
1299.757;-17.81
1299.956;-17.72
1300.155;-17.61
1300.354;-17.53
1300.553;-17.4
1300.752;-17.3
1300.951;-17.19
1301.15;-17.09
1301.35;-17.0
1301.549;-16.9
1301.748;-16.82
1301.947;-16.72
1302.146;-16.65
1302.345;-16.58
1302.544;-16.52
1302.743;-16.47
1302.943;-16.41
1303.142;-16.38
1303.341;-16.34
1303.54;-16.33
1303.739;-16.33
1303.938;-16.31
1304.137;-16.33
1304.336;-16.34
1304.535;-16.36
1304.735;-16.4
1304.934;-16.44
1305.133;-16.51
1305.332;-16.55
1305.531;-16.62
1305.73;-16.71
1305.929;-16.78
1306.128;-16.9
1306.327;-16.99
1306.527;-17.12
1306.726;-17.24
1306.925;-17.36
1307.124;-17.52
1307.323;-17.66
1307.522;-17.83
1307.721;-17.99
1307.92;-18.15
1308.12;-18.34
1308.319;-18.51
1308.518;-18.7
1308.717;-18.86
1308.916;-19.03
1309.115;-19.21
1309.314;-19.37
1309.513;-19.55
1309.712;-19.68
1309.912;-19.82
1310.111;-19.96
1310.31;-20.06
1310.509;-20.18
1310.708;-20.26
1310.907;-20.33
1311.106;-20.38
1311.305;-20.41
1311.504;-20.44
1311.704;-20.43
1311.903;-20.41
1312.102;-20.37
1312.301;-20.32
1312.5;-20.26
1312.699;-20.19
1312.898;-20.12
1313.097;-20.03
1313.297;-19.96
1313.496;-19.87
1313.695;-19.79
1313.894;-19.71
1314.093;-19.63
1314.292;-19.57
1314.491;-19.5
1314.69;-19.45
1314.889;-19.38
1315.089;-19.33
1315.288;-19.3
1315.487;-19.28
1315.686;-19.27
1315.885;-19.25
1316.084;-19.27
1316.283;-19.28
1316.482;-19.31
1316.681;-19.36
1316.881;-19.41
1317.08;-19.5
1317.279;-19.57
1317.478;-19.68
1317.677;-19.78
1317.876;-19.9
1318.075;-20.04
1318.274;-20.17
1318.474;-20.34
1318.673;-20.51
1318.872;-20.69
1319.071;-20.89
1319.27;-21.09
1319.469;-21.32
1319.668;-21.55
1319.867;-21.79
1320.066;-22.03
1320.266;-22.28
1320.465;-22.55
1320.664;-22.81
1320.863;-23.09
1321.062;-23.34
1321.261;-23.6
1321.46;-23.86
1321.659;-24.1
1321.858;-24.34
1322.058;-24.54
1322.257;-24.74
1322.456;-24.9
1322.655;-25.04
1322.854;-25.15
1323.053;-25.23
1323.252;-25.29
1323.451;-25.3
1323.65;-25.3
1323.85;-25.25
1324.049;-25.19
1324.248;-25.12
1324.447;-25.02
1324.646;-24.93
1324.845;-24.8
1325.044;-24.68
1325.243;-24.55
1325.443;-24.42
1325.642;-24.32
1325.841;-24.2
1326.04;-24.1
1326.239;-23.98
1326.438;-23.89
1326.637;-23.8
1326.836;-23.73
1327.035;-23.68
1327.235;-23.62
1327.434;-23.59
1327.633;-23.55
1327.832;-23.53
1328.031;-23.54
1328.23;-23.55
1328.429;-23.59
1328.628;-23.61
1328.827;-23.67
1329.027;-23.73
1329.226;-23.8
1329.425;-23.9
1329.624;-23.99
1329.823;-24.11
1330.022;-24.23
1330.221;-24.37
1330.42;-24.52
1330.62;-24.68
1330.819;-24.88
1331.018;-25.07
1331.217;-25.28
1331.416;-25.5
1331.615;-25.74
1331.814;-26.0
1332.013;-26.26
1332.212;-26.56
1332.412;-26.85
1332.611;-27.18
1332.81;-27.5
1333.009;-27.85
1333.208;-28.22
1333.407;-28.68
1333.606;-29.01
1333.805;-29.43
1334.004;-29.88
1334.204;-30.35
1334.403;-30.85
1334.602;-31.35
1334.801;-31.89
1335.0;-32.45
1335.199;-33.04
1335.398;-33.67
1335.597;-34.31
1335.797;-34.99
1335.996;-35.7
1336.195;-36.44
1336.394;-37.21
1336.593;-38.0
1336.792;-38.97
1336.991;-39.63
1337.19;-40.44
1337.389;-41.21
1337.589;-41.91
1337.788;-42.51
1337.987;-42.96
1338.186;-43.24
1338.385;-43.31
1338.584;-43.23
1338.783;-43.01
1338.982;-42.69
1339.181;-42.33
1339.381;-41.93
1339.58;-41.54
1339.779;-41.15
1339.978;-40.79
1340.177;-40.46
1340.376;-40.16
1340.575;-39.91
1340.774;-39.66
1340.974;-39.44
1341.173;-39.26
1341.372;-39.1
1341.571;-38.99
1341.77;-38.88
1341.969;-38.81
1342.168;-38.75
1342.367;-38.71
1342.566;-38.7
1342.766;-38.7
1342.965;-38.74
1343.164;-38.78
1343.363;-38.85
1343.562;-38.93
1343.761;-39.03
1343.96;-39.16
1344.159;-39.29
1344.358;-39.44
1344.558;-39.6
1344.757;-39.77
1344.956;-39.96
1345.155;-40.14
1345.354;-40.35
1345.553;-40.55
1345.752;-40.77
1345.951;-41.0
1346.15;-41.23
1346.35;-41.48
1346.549;-41.73
1346.748;-41.98
1346.947;-42.21
1347.146;-42.45
1347.345;-42.69
1347.544;-42.94
1347.743;-43.22
1347.943;-43.45
1348.142;-43.66
1348.341;-43.87
1348.54;-44.02
1348.739;-44.17
1348.938;-44.29
1349.137;-44.4
1349.336;-44.48
1349.535;-44.56
1349.735;-44.63
1349.934;-44.68
1350.133;-44.75
1350.332;-44.84
1350.531;-44.88
1350.73;-44.9
1350.929;-44.86
1351.128;-44.82
1351.327;-44.77
1351.527;-44.77
1351.726;-44.79
1351.925;-44.79
1352.124;-44.77
1352.323;-44.74
1352.522;-44.79
1352.721;-44.74
1352.92;-44.73
1353.12;-44.81
1353.319;-44.77
1353.518;-44.78
1353.717;-44.8
1353.916;-44.8
1354.115;-44.8
1354.314;-44.89
1354.513;-44.97
1354.712;-45.17
1354.912;-45.35
1355.111;-45.47
1355.31;-45.52
1355.509;-45.48
1355.708;-45.63
1355.907;-45.88
1356.106;-46.01
1356.305;-46.12
1356.504;-46.2
1356.704;-46.13
1356.903;-46.23
1357.102;-46.59
1357.301;-46.87
1357.5;-47.09
1357.699;-47.3
1357.898;-47.46
1358.097;-47.57
1358.297;-47.79
1358.496;-48.12
1358.695;-48.35
1358.894;-48.69
1359.093;-48.89
1359.292;-49.06
1359.491;-49.49
1359.69;-49.93
1359.889;-50.3
1360.089;-50.52
1360.288;-50.75
1360.487;-50.89
1360.686;-51.15
1360.885;-51.65
1361.084;-52.1
1361.283;-52.47
1361.482;-52.77
1361.681;-53.11
1361.881;-53.42
1362.08;-53.78
1362.279;-54.2
1362.478;-54.67
1362.677;-54.86
1362.876;-54.89
1363.075;-54.91
1363.274;-54.67
1363.474;-54.74
1363.673;-54.81
1363.872;-54.92
1364.071;-55.05
1364.27;-55.2
1364.469;-55.34
1364.668;-55.81
1364.867;-55.95
1365.066;-55.85
1365.266;-55.85
1365.465;-55.72
1365.664;-55.66
1365.863;-55.58
1366.062;-55.49
1366.261;-55.38
1366.46;-55.32
1366.659;-55.38
1366.858;-55.52
1367.058;-55.6
1367.257;-55.63
1367.456;-55.8
1367.655;-55.93
1367.854;-56.18
1368.053;-56.26
1368.252;-56.29
1368.451;-56.54
1368.65;-56.67
1368.85;-56.8
1369.049;-56.82
1369.248;-56.89
1369.447;-56.84
1369.646;-56.99
1369.845;-57.36
1370.044;-57.69
1370.243;-57.94
1370.443;-58.12
1370.642;-58.32
1370.841;-58.84
1371.04;-59.18
1371.239;-59.58
1371.438;-59.81
1371.637;-60.08
1371.836;-60.19
1372.035;-60.61
1372.235;-61.05
1372.434;-61.47
1372.633;-61.85
1372.832;-62.18
1373.031;-62.52
1373.23;-62.88
1373.429;-63.36
1373.628;-63.77
1373.827;-64.09
1374.027;-64.47
1374.226;-64.73
1374.425;-65.06
1374.624;-65.32
1374.823;-65.51
1375.022;-65.73
1375.221;-65.8
1375.42;-65.76
1375.62;-65.66
1375.819;-65.53
1376.018;-65.47
1376.217;-65.28
1376.416;-65.06
1376.615;-64.86
1376.814;-64.66
1377.013;-64.58
1377.212;-64.37
1377.412;-64.13
1377.611;-63.9
1377.81;-63.56
1378.009;-63.31
1378.208;-63.15
1378.407;-63.01
1378.606;-62.99
1378.805;-63.03
1379.004;-62.94
1379.204;-62.8
1379.403;-62.6
1379.602;-62.38
1379.801;-62.24
1380.0;-62.2
1380.199;-62.24
1380.398;-62.26
1380.597;-62.67
1380.797;-63.05
1380.996;-63.1
1381.195;-63.1
1381.394;-62.87
1381.593;-62.52
1381.792;-62.57
1381.991;-62.58
1382.19;-62.69
1382.389;-62.98
1382.589;-63.48
1382.788;-63.99
1382.987;-64.36
1383.186;-64.33
1383.385;-64.18
1383.584;-64.07
1383.783;-64.27
1383.982;-64.55
1384.181;-64.74
1384.381;-65.01
1384.58;-65.2
1384.779;-65.46
1384.978;-65.94
1385.177;-66.44
1385.376;-66.81
1385.575;-67.07
1385.774;-67.45
1385.974;-67.68
1386.173;-68.07
1386.372;-68.55
1386.571;-68.98
1386.77;-69.38
1386.969;-69.99
1387.168;-70.32
1387.367;-70.81
1387.566;-71.36
1387.766;-72.07
1387.965;-72.48
1388.164;-73.32
1388.363;-73.82
1388.562;-73.96
1388.761;-74.18
1388.96;-73.54
1389.159;-73.95
1389.358;-73.62
1389.558;-73.47
1389.757;-73.54
1389.956;-73.54
1390.155;-72.94
1390.354;-72.65
1390.553;-72.2
1390.752;-71.99
1390.951;-71.44
1391.15;-71.41
1391.35;-71.0
1391.549;-70.65
1391.748;-70.23
1391.947;-70.07
1392.146;-69.97
1392.345;-69.85
1392.544;-70.1
1392.743;-69.9
1392.943;-69.66
1393.142;-69.24
1393.341;-68.91
1393.54;-68.57
1393.739;-68.46
1393.938;-68.44
1394.137;-68.4
1394.336;-68.23
1394.535;-68.27
1394.735;-68.17
1394.934;-68.24
1395.133;-68.5
1395.332;-68.46
1395.531;-68.63
1395.73;-68.8
1395.929;-68.54
1396.128;-68.56
1396.327;-68.65
1396.527;-68.95
1396.726;-69.06
1396.925;-69.2
1397.124;-69.11
1397.323;-69.04
1397.522;-69.19
1397.721;-69.19
1397.92;-69.21
1398.12;-69.38
1398.319;-69.65
1398.518;-70.0
1398.717;-70.11
1398.916;-70.25
1399.115;-70.38
1399.314;-70.73
1399.513;-70.96
1399.712;-71.55
1399.912;-71.89
1400.111;-72.09
1400.31;-72.29
1400.509;-72.42
1400.708;-73.09
1400.907;-73.32
1401.106;-73.7
1401.305;-73.93
1401.504;-73.7
1401.704;-73.93
1401.903;-74.42
1402.102;-74.68
1402.301;-74.8
1402.5;-74.74
1402.699;-74.96
1402.898;-74.96
1403.097;-75.67
1403.297;-75.72
1403.496;-76.67
1403.695;-76.83
1403.894;-76.57
1404.093;-75.46
1404.292;-76.41
1404.491;-76.5
1404.69;-76.5
1404.889;-76.71
1405.089;-77.1
1405.288;-77.23
1405.487;-77.38
1405.686;-77.23
1405.885;-77.4
1406.084;-76.55
1406.283;-76.5
1406.482;-76.72
1406.681;-77.33
1406.881;-77.05
1407.08;-76.95
1407.279;-76.93
1407.478;-77.71
1407.677;-77.41
1407.876;-77.33
1408.075;-77.33
1408.274;-77.94
1408.474;-77.85
1408.673;-77.33
1408.872;-78.26
1409.071;-78.44
1409.27;-78.34
1409.469;-78.69
1409.668;-77.64
1409.867;-77.87
1410.066;-76.79
1410.266;-77.58
1410.465;-78.34
1410.664;-77.58
1410.863;-77.58
1411.062;-77.54
1411.261;-77.58
1411.46;-77.62
1411.659;-77.8
1411.858;-77.54
1412.058;-78.44
1412.257;-76.77
1412.456;-78.34
1412.655;-78.23
1412.854;-77.31
1413.053;-78.01
1413.252;-78.49
1413.451;-78.09
1413.65;-77.18
1413.85;-77.72
1414.049;-77.59
1414.248;-77.55
1414.447;-77.59
1414.646;-78.35
1414.845;-77.55
1415.044;-77.19
1415.243;-77.12
1415.443;-76.47
1415.642;-77.06
1415.841;-76.48
1416.04;-77.32
1416.239;-76.64
1416.438;-76.21
1416.637;-77.18
1416.836;-76.52
1417.035;-75.92
1417.235;-76.45
1417.434;-76.29
1417.633;-76.24
1417.832;-77.72
1418.031;-76.73
1418.23;-76.65
1418.429;-77.02
1418.628;-77.16
1418.827;-77.34
1419.027;-76.83
1419.226;-76.78
1419.425;-77.42
1419.624;-76.91
1419.823;-77.1
1420.022;-76.52
1420.221;-76.83
1420.42;-77.34
1420.62;-77.57
1420.819;-77.48
1421.018;-77.52
1421.217;-77.72
1421.416;-77.19
1421.615;-77.03
1421.814;-76.81
1422.013;-77.75
1422.212;-77.58
1422.412;-77.69
1422.611;-77.05
1422.81;-77.6
1423.009;-78.36
1423.208;-78.82
1423.407;-78.54
1423.606;-77.56
1423.805;-78.13
1424.004;-78.01
1424.204;-77.89
1424.403;-78.01
1424.602;-77.96
1424.801;-77.51
1425.0;-77.87
