Wavelength (nm);Intensity (dBm)
1131.0;1131.0
1200.0;-61.24
1200.199;-61.19
1200.398;-61.14
1200.597;-61.14
1200.797;-61.13
1200.996;-61.11
1201.195;-61.07
1201.394;-61.04
1201.593;-60.98
1201.792;-60.94
1201.991;-60.93
1202.19;-60.87
1202.389;-60.78
1202.589;-60.73
1202.788;-60.71
1202.987;-60.65
1203.186;-60.53
1203.385;-60.5
1203.584;-60.51
1203.783;-60.49
1203.982;-60.39
1204.181;-60.36
1204.381;-60.39
1204.58;-60.37
1204.779;-60.3
1204.978;-60.26
1205.177;-60.26
1205.376;-60.24
1205.575;-60.22
1205.774;-60.18
1205.974;-60.16
1206.173;-60.14
1206.372;-60.12
1206.571;-60.08
1206.77;-60.01
1206.969;-60.02
1207.168;-60.01
1207.367;-59.92
1207.566;-59.85
1207.766;-59.84
1207.965;-59.84
1208.164;-59.77
1208.363;-59.71
1208.562;-59.68
1208.761;-59.65
1208.96;-59.62
1209.159;-59.54
1209.358;-59.47
1209.558;-59.45
1209.757;-59.42
1209.956;-59.37
1210.155;-59.28
1210.354;-59.26
1210.553;-59.23
1210.752;-59.15
1210.951;-59.1
1211.15;-59.06
1211.35;-59.05
1211.549;-59.02
1211.748;-58.94
1211.947;-58.93
1212.146;-58.92
1212.345;-58.88
1212.544;-58.85
1212.743;-58.84
1212.943;-58.85
1213.142;-58.85
1213.341;-58.79
1213.54;-58.78
1213.739;-58.8
1213.938;-58.82
1214.137;-58.76
1214.336;-58.74
1214.535;-58.77
1214.735;-58.77
1214.934;-58.72
1215.133;-58.68
1215.332;-58.67
1215.531;-58.65
1215.73;-58.6
1215.929;-58.55
1216.128;-58.49
1216.327;-58.46
1216.527;-58.39
1216.726;-58.3
1216.925;-58.23
1217.124;-58.19
1217.323;-58.13
1217.522;-58.04
1217.721;-57.97
1217.92;-57.95
1218.12;-57.88
1218.319;-57.8
1218.518;-57.73
1218.717;-57.7
1218.916;-57.66
1219.115;-57.57
1219.314;-57.53
1219.513;-57.49
1219.712;-57.46
1219.912;-57.4
1220.111;-57.33
1220.31;-57.31
1220.509;-57.26
1220.708;-57.19
1220.907;-57.11
1221.106;-57.05
1221.305;-57.02
1221.504;-56.91
1221.704;-56.82
1221.903;-56.77
1222.102;-56.7
1222.301;-56.62
1222.5;-56.52
1222.699;-56.46
1222.898;-56.42
1223.097;-56.32
1223.297;-56.25
1223.496;-56.18
1223.695;-56.14
1223.894;-56.09
1224.093;-56.01
1224.292;-55.98
1224.491;-55.95
1224.69;-55.92
1224.889;-55.88
1225.089;-55.86
1225.288;-55.86
1225.487;-55.81
1225.686;-55.81
1225.885;-55.81
1226.084;-55.8
1226.283;-55.81
1226.482;-55.79
1226.681;-55.8
1226.881;-55.8
1227.08;-55.79
1227.279;-55.78
1227.478;-55.77
1227.677;-55.77
1227.876;-55.75
1228.075;-55.72
1228.274;-55.73
1228.474;-55.69
1228.673;-55.66
1228.872;-55.64
1229.071;-55.61
1229.27;-55.6
1229.469;-55.54
1229.668;-55.51
1229.867;-55.49
1230.066;-55.47
1230.266;-55.42
1230.465;-55.36
1230.664;-55.35
1230.863;-55.33
1231.062;-55.29
1231.261;-55.27
1231.46;-55.24
1231.659;-55.2
1231.858;-55.15
1232.058;-55.12
1232.257;-55.08
1232.456;-55.01
1232.655;-54.95
1232.854;-54.89
1233.053;-54.83
1233.252;-54.76
1233.451;-54.66
1233.65;-54.59
1233.85;-54.51
1234.049;-54.42
1234.248;-54.32
1234.447;-54.21
1234.646;-54.12
1234.845;-54.02
1235.044;-53.9
1235.243;-53.81
1235.443;-53.68
1235.642;-53.57
1235.841;-53.45
1236.04;-53.35
1236.239;-53.24
1236.438;-53.11
1236.637;-53.01
1236.836;-52.89
1237.035;-52.78
1237.235;-52.68
1237.434;-52.56
1237.633;-52.47
1237.832;-52.36
1238.031;-52.25
1238.23;-52.16
1238.429;-52.05
1238.628;-51.97
1238.827;-51.86
1239.027;-51.78
1239.226;-51.69
1239.425;-51.58
1239.624;-51.51
1239.823;-51.41
1240.022;-51.32
1240.221;-51.23
1240.42;-51.12
1240.62;-51.04
1240.819;-50.93
1241.018;-50.81
1241.217;-50.7
1241.416;-50.58
1241.615;-50.45
1241.814;-50.31
1242.013;-50.16
1242.212;-50.03
1242.412;-49.87
1242.611;-49.71
1242.81;-49.54
1243.009;-49.36
1243.208;-49.19
1243.407;-49.01
1243.606;-48.83
1243.805;-48.64
1244.004;-48.45
1244.204;-48.28
1244.403;-48.09
1244.602;-47.91
1244.801;-47.72
1245.0;-47.54
1245.199;-47.38
1245.398;-47.19
1245.597;-47.02
1245.797;-46.84
1245.996;-46.66
1246.195;-46.49
1246.394;-46.32
1246.593;-46.15
1246.792;-45.97
1246.991;-45.78
1247.19;-45.64
1247.389;-45.49
1247.589;-45.34
1247.788;-45.18
1247.987;-45.03
1248.186;-44.88
1248.385;-44.76
1248.584;-44.64
1248.783;-44.52
1248.982;-44.42
1249.181;-44.33
1249.381;-44.24
1249.58;-44.17
1249.779;-44.1
1249.978;-44.04
1250.177;-43.99
1250.376;-43.95
1250.575;-43.92
1250.774;-43.88
1250.974;-43.88
1251.173;-43.85
1251.372;-43.84
1251.571;-43.85
1251.77;-43.83
1251.969;-43.84
1252.168;-43.82
1252.367;-43.82
1252.566;-43.84
1252.766;-43.83
1252.965;-43.85
1253.164;-43.84
1253.363;-43.83
1253.562;-43.83
1253.761;-43.8
1253.96;-43.78
1254.159;-43.71
1254.358;-43.62
1254.558;-43.51
1254.757;-43.34
1254.956;-43.16
1255.155;-42.93
1255.354;-42.66
1255.553;-42.37
1255.752;-42.04
1255.951;-41.69
1256.15;-41.32
1256.35;-40.93
1256.549;-40.55
1256.748;-40.16
1256.947;-39.78
1257.146;-39.38
1257.345;-39.0
1257.544;-38.62
1257.743;-38.25
1257.943;-37.89
1258.142;-37.53
1258.341;-37.19
1258.54;-36.85
1258.739;-36.5
1258.938;-36.18
1259.137;-35.8
1259.336;-35.55
1259.535;-35.23
1259.735;-34.94
1259.934;-34.63
1260.133;-34.35
1260.332;-34.09
1260.531;-33.82
1260.73;-33.57
1260.929;-33.31
1261.128;-33.08
1261.327;-32.87
1261.527;-32.67
1261.726;-32.48
1261.925;-32.29
1262.124;-32.11
1262.323;-31.96
1262.522;-31.82
1262.721;-31.69
1262.92;-31.56
1263.12;-31.44
1263.319;-31.35
1263.518;-31.26
1263.717;-31.19
1263.916;-31.1
1264.115;-31.04
1264.314;-31.0
1264.513;-30.96
1264.712;-30.94
1264.912;-30.91
1265.111;-30.89
1265.31;-30.88
1265.509;-30.88
1265.708;-30.9
1265.907;-30.89
1266.106;-30.9
1266.305;-30.9
1266.504;-30.9
1266.704;-30.91
1266.903;-30.88
1267.102;-30.86
1267.301;-30.82
1267.5;-30.76
1267.699;-30.71
1267.898;-30.61
1268.097;-30.52
1268.297;-30.4
1268.496;-30.26
1268.695;-30.11
1268.894;-29.93
1269.093;-29.74
1269.292;-29.53
1269.491;-29.32
1269.69;-29.1
1269.889;-28.84
1270.089;-28.59
1270.288;-28.32
1270.487;-28.04
1270.686;-27.76
1270.885;-27.46
1271.084;-27.17
1271.283;-26.87
1271.482;-26.57
1271.681;-26.29
1271.881;-25.94
1272.08;-25.72
1272.279;-25.44
1272.478;-25.19
1272.677;-24.93
1272.876;-24.69
1273.075;-24.46
1273.274;-24.24
1273.474;-24.05
1273.673;-23.84
1273.872;-23.67
1274.071;-23.49
1274.27;-23.33
1274.469;-23.19
1274.668;-23.04
1274.867;-22.92
1275.066;-22.8
1275.266;-22.68
1275.465;-22.59
1275.664;-22.49
1275.863;-22.41
1276.062;-22.33
1276.261;-22.27
1276.46;-22.23
1276.659;-22.17
1276.858;-22.15
1277.058;-22.12
1277.257;-22.12
1277.456;-22.13
1277.655;-22.14
1277.854;-22.19
1278.053;-22.22
1278.252;-22.27
1278.451;-22.35
1278.65;-22.41
1278.85;-22.51
1279.049;-22.59
1279.248;-22.7
1279.447;-22.81
1279.646;-22.91
1279.845;-23.04
1280.044;-23.15
1280.243;-23.28
1280.443;-23.4
1280.642;-23.52
1280.841;-23.65
1281.04;-23.76
1281.239;-23.87
1281.438;-23.95
1281.637;-24.02
1281.836;-24.1
1282.035;-24.12
1282.235;-24.13
1282.434;-24.1
1282.633;-24.05
1282.832;-23.97
1283.031;-23.84
1283.23;-23.69
1283.429;-23.5
1283.628;-23.28
1283.827;-23.05
1284.027;-22.78
1284.226;-22.52
1284.425;-22.23
1284.624;-21.93
1284.823;-21.65
1285.022;-21.34
1285.221;-21.06
1285.42;-20.75
1285.62;-20.47
1285.819;-20.19
1286.018;-19.9
1286.217;-19.64
1286.416;-19.37
1286.615;-19.12
1286.814;-18.88
1287.013;-18.64
1287.212;-18.43
1287.412;-18.2
1287.611;-18.0
1287.81;-17.81
1288.009;-17.62
1288.208;-17.47
1288.407;-17.3
1288.606;-17.17
1288.805;-17.03
1289.004;-16.91
1289.204;-16.81
1289.403;-16.7
1289.602;-16.63
1289.801;-16.54
1290.0;-16.48
1290.199;-16.43
1290.398;-16.38
1290.597;-16.36
1290.797;-16.33
1290.996;-16.3
1291.195;-16.29
1291.394;-16.29
1291.593;-16.3
1291.792;-16.31
1291.991;-16.34
1292.19;-16.37
1292.389;-16.41
1292.589;-16.46
1292.788;-16.5
1292.987;-16.57
1293.186;-16.62
1293.385;-16.7
1293.584;-16.77
1293.783;-16.84
1293.982;-16.93
1294.181;-17.0
1294.381;-17.08
1294.58;-17.14
1294.779;-17.21
1294.978;-17.3
1295.177;-17.36
1295.376;-17.43
1295.575;-17.47
1295.774;-17.52
1295.974;-17.56
1296.173;-17.59
1296.372;-17.62
1296.571;-17.62
1296.77;-17.63
1296.969;-17.63
1297.168;-17.62
1297.367;-17.62
1297.566;-17.57
1297.766;-17.55
1297.965;-17.51
1298.164;-17.47
1298.363;-17.44
1298.562;-17.38
1298.761;-17.34
1298.96;-17.29
1299.159;-17.25
1299.358;-17.22
1299.558;-17.17
1299.757;-17.15
1299.956;-17.11
1300.155;-17.1
1300.354;-17.09
1300.553;-17.07
1300.752;-17.08
1300.951;-17.08
1301.15;-17.12
1301.35;-17.14
1301.549;-17.19
1301.748;-17.25
1301.947;-17.3
1302.146;-17.4
1302.345;-17.48
1302.544;-17.59
1302.743;-17.72
1302.943;-17.85
1303.142;-18.02
1303.341;-18.19
1303.54;-18.4
1303.739;-18.61
1303.938;-18.84
1304.137;-19.11
1304.336;-19.37
1304.535;-19.68
1304.735;-20.0
1304.934;-20.35
1305.133;-20.73
1305.332;-21.11
1305.531;-21.54
1305.73;-21.95
1305.929;-22.41
1306.128;-22.9
1306.327;-23.38
1306.527;-23.9
1306.726;-24.39
1306.925;-24.86
1307.124;-25.28
1307.323;-25.65
1307.522;-25.93
1307.721;-26.07
1307.92;-26.09
1308.12;-25.96
1308.319;-25.7
1308.518;-25.35
1308.717;-24.89
1308.916;-24.4
1309.115;-23.87
1309.314;-23.34
1309.513;-22.83
1309.712;-22.31
1309.912;-21.83
1310.111;-21.35
1310.31;-20.91
1310.509;-20.48
1310.708;-20.07
1310.907;-19.69
1311.106;-19.34
1311.305;-19.01
1311.504;-18.7
1311.704;-18.41
1311.903;-18.14
1312.102;-17.89
1312.301;-17.67
1312.5;-17.47
1312.699;-17.29
1312.898;-17.1
1313.097;-16.95
1313.297;-16.81
1313.496;-16.7
1313.695;-16.61
1313.894;-16.52
1314.093;-16.46
1314.292;-16.4
1314.491;-16.36
1314.69;-16.34
1314.889;-16.32
1315.089;-16.33
1315.288;-16.33
1315.487;-16.37
1315.686;-16.4
1315.885;-16.45
1316.084;-16.51
1316.283;-16.57
1316.482;-16.67
1316.681;-16.76
1316.881;-16.88
1317.08;-17.0
1317.279;-17.13
1317.478;-17.29
1317.677;-17.42
1317.876;-17.58
1318.075;-17.72
1318.274;-17.9
1318.474;-18.08
1318.673;-18.29
1318.872;-18.5
1319.071;-18.66
1319.27;-18.87
1319.469;-19.06
1319.668;-19.27
1319.867;-19.46
1320.066;-19.64
1320.266;-19.83
1320.465;-20.01
1320.664;-20.21
1320.863;-20.36
1321.062;-20.52
1321.261;-20.66
1321.46;-20.79
1321.659;-20.91
1321.858;-21.01
1322.058;-21.11
1322.257;-21.19
1322.456;-21.25
1322.655;-21.31
1322.854;-21.34
1323.053;-21.38
1323.252;-21.4
1323.451;-21.43
1323.65;-21.45
1323.85;-21.45
1324.049;-21.47
1324.248;-21.46
1324.447;-21.47
1324.646;-21.49
1324.845;-21.5
1325.044;-21.54
1325.243;-21.55
1325.443;-21.58
1325.642;-21.63
1325.841;-21.67
1326.04;-21.74
1326.239;-21.79
1326.438;-21.88
1326.637;-21.95
1326.836;-22.05
1327.035;-22.16
1327.235;-22.27
1327.434;-22.42
1327.633;-22.55
1327.832;-22.71
1328.031;-22.89
1328.23;-23.07
1328.429;-23.28
1328.628;-23.48
1328.827;-23.71
1329.027;-23.95
1329.226;-24.2
1329.425;-24.49
1329.624;-24.76
1329.823;-25.08
1330.022;-25.4
1330.221;-25.73
1330.42;-26.1
1330.62;-26.48
1330.819;-26.89
1331.018;-27.31
1331.217;-27.78
1331.416;-28.26
1331.615;-28.86
1331.814;-29.31
1332.013;-29.87
1332.212;-30.49
1332.412;-31.12
1332.611;-31.82
1332.81;-32.54
1333.009;-33.31
1333.208;-34.15
1333.407;-35.03
1333.606;-35.99
1333.805;-36.99
1334.004;-38.07
1334.204;-39.49
1334.403;-40.47
1334.602;-41.69
1334.801;-42.88
1335.0;-43.9
1335.199;-44.56
1335.398;-44.75
1335.597;-44.44
1335.797;-43.83
1335.996;-43.06
1336.195;-42.23
1336.394;-41.46
1336.593;-40.71
1336.792;-40.06
1336.991;-39.47
1337.19;-38.95
1337.389;-38.51
1337.589;-38.11
1337.788;-37.79
1337.987;-37.49
1338.186;-37.25
1338.385;-37.04
1338.584;-36.88
1338.783;-36.76
1338.982;-36.66
1339.181;-36.61
1339.381;-36.57
1339.58;-36.58
1339.779;-36.61
1339.978;-36.66
1340.177;-36.76
1340.376;-36.86
1340.575;-37.01
1340.774;-37.17
1340.974;-37.35
1341.173;-37.57
1341.372;-37.79
1341.571;-38.07
1341.77;-38.35
1341.969;-38.67
1342.168;-39.02
1342.367;-39.38
1342.566;-39.78
1342.766;-40.2
1342.965;-40.67
1343.164;-41.17
1343.363;-41.7
1343.562;-42.27
1343.761;-42.86
1343.96;-43.52
1344.159;-44.21
1344.358;-44.96
1344.558;-45.75
1344.757;-46.56
1344.956;-47.42
1345.155;-48.27
1345.354;-49.34
1345.553;-49.99
1345.752;-50.69
1345.951;-51.24
1346.15;-51.54
1346.35;-51.59
1346.549;-51.36
1346.748;-50.95
1346.947;-50.39
1347.146;-49.77
1347.345;-49.15
1347.544;-48.57
1347.743;-48.05
1347.943;-47.51
1348.142;-46.99
1348.341;-46.55
1348.54;-46.02
1348.739;-45.71
1348.938;-45.35
1349.137;-45.05
1349.336;-44.73
1349.535;-44.47
1349.735;-44.23
1349.934;-44.04
1350.133;-43.89
1350.332;-43.8
1350.531;-43.72
1350.73;-43.6
1350.929;-43.48
1351.128;-43.37
1351.327;-43.29
1351.527;-43.28
1351.726;-43.3
1351.925;-43.32
1352.124;-43.33
1352.323;-43.35
1352.522;-43.46
1352.721;-43.49
1352.92;-43.57
1353.12;-43.72
1353.319;-43.78
1353.518;-43.89
1353.717;-44.03
1353.916;-44.13
1354.115;-44.25
1354.314;-44.48
1354.513;-44.68
1354.712;-45.01
1354.912;-45.33
1355.111;-45.59
1355.31;-45.79
1355.509;-45.89
1355.708;-46.21
1355.907;-46.59
1356.106;-46.89
1356.305;-47.15
1356.504;-47.42
1356.704;-47.5
1356.903;-47.79
1357.102;-48.31
1357.301;-48.85
1357.5;-49.18
1357.699;-49.57
1357.898;-49.9
1358.097;-50.18
1358.297;-50.57
1358.496;-51.06
1358.695;-51.45
1358.894;-51.85
1359.093;-52.26
1359.292;-52.5
1359.491;-53.02
1359.69;-53.49
1359.889;-53.85
1360.089;-54.03
1360.288;-54.15
1360.487;-54.16
1360.686;-54.26
1360.885;-54.53
1361.084;-54.71
1361.283;-54.73
1361.482;-54.68
1361.681;-54.69
1361.881;-54.59
1362.08;-54.54
1362.279;-54.63
1362.478;-54.69
1362.677;-54.49
1362.876;-54.12
1363.075;-53.8
1363.274;-53.32
1363.474;-53.16
1363.673;-53.01
1363.872;-52.93
1364.071;-52.9
1364.27;-52.91
1364.469;-52.98
1364.668;-53.33
1364.867;-53.41
1365.066;-53.25
1365.266;-53.28
1365.465;-53.11
1365.664;-53.08
1365.863;-53.03
1366.062;-52.97
1366.261;-52.93
1366.46;-52.94
1366.659;-53.07
1366.858;-53.29
1367.058;-53.43
1367.257;-53.55
1367.456;-53.82
1367.655;-54.04
1367.854;-54.36
1368.053;-54.55
1368.252;-54.66
1368.451;-55.02
1368.65;-55.24
1368.85;-55.47
1369.049;-55.6
1369.248;-55.75
1369.447;-55.79
1369.646;-56.05
1369.845;-56.5
1370.044;-56.91
1370.243;-57.24
1370.443;-57.5
1370.642;-57.75
1370.841;-58.18
1371.04;-58.79
1371.239;-59.12
1371.438;-59.35
1371.637;-59.6
1371.836;-59.72
1372.035;-60.1
1372.235;-60.5
1372.434;-60.75
1372.633;-60.96
1372.832;-61.09
1373.031;-61.2
1373.23;-61.36
1373.429;-61.53
1373.628;-61.65
1373.827;-61.66
1374.027;-61.7
1374.226;-61.69
1374.425;-61.68
1374.624;-61.69
1374.823;-61.72
1375.022;-61.68
1375.221;-61.55
1375.42;-61.43
1375.62;-61.33
1375.819;-61.21
1376.018;-61.19
1376.217;-61.12
1376.416;-61.03
1376.615;-60.96
1376.814;-60.9
1377.013;-61.01
1377.212;-61.01
1377.412;-60.96
1377.611;-60.91
1377.81;-60.77
1378.009;-60.73
1378.208;-60.74
1378.407;-60.82
1378.606;-61.01
1378.805;-61.23
1379.004;-61.34
1379.204;-61.4
1379.403;-61.35
1379.602;-61.34
1379.801;-61.45
1380.0;-61.59
1380.199;-61.83
1380.398;-62.08
1380.597;-62.67
1380.797;-63.24
1380.996;-63.57
1381.195;-63.76
1381.394;-63.71
1381.593;-63.58
1381.792;-63.82
1381.991;-64.06
1382.19;-64.41
1382.389;-64.95
1382.589;-65.65
1382.788;-66.43
1382.987;-66.98
1383.186;-67.35
1383.385;-67.44
1383.584;-67.58
1383.783;-68.15
1383.982;-68.68
1384.181;-69.18
1384.381;-69.66
1384.58;-70.17
1384.779;-70.67
1384.978;-71.36
1385.177;-72.01
1385.376;-72.63
1385.575;-73.02
1385.774;-73.28
1385.974;-73.25
1386.173;-73.06
1386.372;-73.79
1386.571;-73.23
1386.77;-72.81
1386.969;-72.47
1387.168;-72.29
1387.367;-71.68
1387.566;-71.47
1387.766;-71.48
1387.965;-71.11
1388.164;-70.89
1388.363;-70.63
1388.562;-70.23
1388.761;-69.71
1388.96;-69.26
1389.159;-68.81
1389.358;-68.54
1389.558;-68.34
1389.757;-68.11
1389.956;-67.99
1390.155;-67.84
1390.354;-67.66
1390.553;-67.62
1390.752;-67.49
1390.951;-67.36
1391.15;-67.17
1391.35;-67.09
1391.549;-67.14
1391.748;-67.07
1391.947;-67.13
1392.146;-67.28
1392.345;-67.43
1392.544;-67.82
1392.743;-67.91
1392.943;-67.8
1393.142;-67.8
1393.341;-67.68
1393.54;-67.63
1393.739;-67.81
1393.938;-67.92
1394.137;-67.99
1394.336;-68.28
1394.535;-68.41
1394.735;-68.66
1394.934;-69.2
1395.133;-69.49
1395.332;-69.84
1395.531;-69.84
1395.73;-70.23
1395.929;-70.36
1396.128;-70.59
1396.327;-70.96
1396.527;-71.52
1396.726;-71.64
1396.925;-72.08
1397.124;-72.16
1397.323;-72.07
1397.522;-72.45
1397.721;-72.61
1397.92;-72.86
1398.12;-73.27
1398.319;-73.07
1398.518;-73.89
1398.717;-73.96
1398.916;-73.8
1399.115;-74.07
1399.314;-74.86
1399.513;-74.6
1399.712;-74.74
1399.912;-74.74
1400.111;-75.02
1400.31;-74.2
1400.509;-74.44
1400.708;-74.74
1400.907;-74.84
1401.106;-74.85
1401.305;-73.83
1401.504;-74.44
1401.704;-73.93
1401.903;-73.9
1402.102;-73.39
1402.301;-73.79
1402.5;-73.49
1402.699;-73.15
1402.898;-73.29
1403.097;-73.19
1403.297;-73.0
1403.496;-73.12
1403.695;-73.13
1403.894;-73.3
1404.093;-73.54
1404.292;-73.46
1404.491;-73.34
1404.69;-73.38
1404.889;-73.79
1405.089;-74.09
1405.288;-74.2
1405.487;-73.86
1405.686;-73.94
1405.885;-73.94
1406.084;-74.11
1406.283;-74.16
1406.482;-74.07
1406.681;-74.53
1406.881;-74.32
1407.08;-74.86
1407.279;-75.27
1407.478;-75.5
1407.677;-75.33
1407.876;-75.65
1408.075;-75.76
1408.274;-75.72
1408.474;-75.38
1408.673;-75.8
1408.872;-76.12
1409.071;-76.1
1409.27;-76.0
1409.469;-77.07
1409.668;-77.18
1409.867;-76.72
1410.066;-76.99
1410.266;-76.63
1410.465;-76.31
1410.664;-76.07
1410.863;-76.34
1411.062;-76.0
1411.261;-76.63
1411.46;-76.15
1411.659;-76.97
1411.858;-76.09
1412.058;-76.09
1412.257;-76.12
1412.456;-76.09
1412.655;-76.51
1412.854;-75.68
1413.053;-75.39
1413.252;-75.88
1413.451;-75.85
1413.65;-75.84
1413.85;-76.24
1414.049;-75.81
1414.248;-75.69
1414.447;-76.01
1414.646;-76.33
1414.845;-76.29
1415.044;-76.52
1415.243;-76.16
1415.443;-75.77
1415.642;-76.14
1415.841;-75.84
1416.04;-75.47
1416.239;-76.01
1416.438;-76.32
1416.637;-76.25
1416.836;-75.52
1417.035;-75.93
1417.235;-76.02
1417.434;-75.36
1417.633;-76.76
1417.832;-76.08
1418.031;-77.55
1418.23;-77.14
1418.429;-76.4
1418.628;-76.52
1418.827;-76.85
1419.027;-76.76
1419.226;-77.25
1419.425;-77.25
1419.624;-77.3
1419.823;-77.83
1420.022;-77.72
1420.221;-77.86
1420.42;-77.23
1420.62;-77.23
1420.819;-77.1
1421.018;-77.3
1421.217;-79.2
1421.416;-77.77
1421.615;-77.58
1421.814;-77.07
1422.013;-78.13
1422.212;-77.58
1422.412;-78.01
1422.611;-78.03
1422.81;-78.62
1423.009;-77.26
1423.208;-78.33
1423.407;-78.43
1423.606;-77.84
1423.805;-78.13
1424.004;-78.15
1424.204;-77.94
1424.403;-78.01
1424.602;-77.84
1424.801;-77.96
1425.0;-77.87
