Wavelength (nm);Intensity (dBm)
1131.0;1131.0
1200.0;-61.03
1200.199;-60.99
1200.398;-60.94
1200.597;-60.94
1200.797;-60.94
1200.996;-60.91
1201.195;-60.92
1201.394;-60.85
1201.593;-60.82
1201.792;-60.78
1201.991;-60.75
1202.19;-60.74
1202.389;-60.64
1202.589;-60.6
1202.788;-60.59
1202.987;-60.57
1203.186;-60.47
1203.385;-60.44
1203.584;-60.48
1203.783;-60.48
1203.982;-60.4
1204.181;-60.37
1204.381;-60.4
1204.58;-60.37
1204.779;-60.36
1204.978;-60.33
1205.177;-60.32
1205.376;-60.33
1205.575;-60.32
1205.774;-60.3
1205.974;-60.24
1206.173;-60.24
1206.372;-60.22
1206.571;-60.19
1206.77;-60.13
1206.969;-60.1
1207.168;-60.08
1207.367;-60.03
1207.566;-59.95
1207.766;-59.91
1207.965;-59.91
1208.164;-59.84
1208.363;-59.75
1208.562;-59.71
1208.761;-59.7
1208.96;-59.63
1209.159;-59.53
1209.358;-59.47
1209.558;-59.44
1209.757;-59.42
1209.956;-59.32
1210.155;-59.23
1210.354;-59.22
1210.553;-59.18
1210.752;-59.09
1210.951;-59.01
1211.15;-58.97
1211.35;-58.96
1211.549;-58.89
1211.748;-58.84
1211.947;-58.79
1212.146;-58.77
1212.345;-58.76
1212.544;-58.71
1212.743;-58.69
1212.943;-58.69
1213.142;-58.69
1213.341;-58.67
1213.54;-58.63
1213.739;-58.66
1213.938;-58.69
1214.137;-58.65
1214.336;-58.63
1214.535;-58.67
1214.735;-58.69
1214.934;-58.64
1215.133;-58.64
1215.332;-58.64
1215.531;-58.64
1215.73;-58.63
1215.929;-58.57
1216.128;-58.55
1216.327;-58.54
1216.527;-58.51
1216.726;-58.47
1216.925;-58.41
1217.124;-58.4
1217.323;-58.37
1217.522;-58.29
1217.721;-58.26
1217.92;-58.25
1218.12;-58.21
1218.319;-58.16
1218.518;-58.12
1218.717;-58.11
1218.916;-58.08
1219.115;-58.03
1219.314;-57.98
1219.513;-57.98
1219.712;-57.97
1219.912;-57.92
1220.111;-57.86
1220.31;-57.84
1220.509;-57.81
1220.708;-57.75
1220.907;-57.67
1221.106;-57.62
1221.305;-57.59
1221.504;-57.49
1221.704;-57.41
1221.903;-57.33
1222.102;-57.27
1222.301;-57.17
1222.5;-57.07
1222.699;-56.99
1222.898;-56.9
1223.097;-56.8
1223.297;-56.72
1223.496;-56.62
1223.695;-56.57
1223.894;-56.47
1224.093;-56.37
1224.292;-56.3
1224.491;-56.23
1224.69;-56.17
1224.889;-56.08
1225.089;-56.05
1225.288;-56.01
1225.487;-55.93
1225.686;-55.9
1225.885;-55.86
1226.084;-55.82
1226.283;-55.77
1226.482;-55.72
1226.681;-55.71
1226.881;-55.68
1227.08;-55.64
1227.279;-55.57
1227.478;-55.55
1227.677;-55.53
1227.876;-55.46
1228.075;-55.42
1228.274;-55.38
1228.474;-55.33
1228.673;-55.28
1228.872;-55.22
1229.071;-55.19
1229.27;-55.16
1229.469;-55.09
1229.668;-55.06
1229.867;-55.02
1230.066;-54.99
1230.266;-54.94
1230.465;-54.9
1230.664;-54.89
1230.863;-54.87
1231.062;-54.84
1231.261;-54.83
1231.46;-54.82
1231.659;-54.81
1231.858;-54.77
1232.058;-54.75
1232.257;-54.72
1232.456;-54.7
1232.655;-54.66
1232.854;-54.61
1233.053;-54.59
1233.252;-54.52
1233.451;-54.45
1233.65;-54.41
1233.85;-54.34
1234.049;-54.27
1234.248;-54.18
1234.447;-54.1
1234.646;-54.03
1234.845;-53.93
1235.044;-53.84
1235.243;-53.74
1235.443;-53.63
1235.642;-53.53
1235.841;-53.41
1236.04;-53.33
1236.239;-53.19
1236.438;-53.06
1236.637;-52.96
1236.836;-52.83
1237.035;-52.72
1237.235;-52.58
1237.434;-52.46
1237.633;-52.35
1237.832;-52.23
1238.031;-52.12
1238.23;-52.0
1238.429;-51.89
1238.628;-51.78
1238.827;-51.66
1239.027;-51.58
1239.226;-51.46
1239.425;-51.37
1239.624;-51.27
1239.823;-51.17
1240.022;-51.1
1240.221;-51.0
1240.42;-50.91
1240.62;-50.82
1240.819;-50.72
1241.018;-50.63
1241.217;-50.52
1241.416;-50.42
1241.615;-50.29
1241.814;-50.17
1242.013;-50.07
1242.212;-49.94
1242.412;-49.82
1242.611;-49.67
1242.81;-49.54
1243.009;-49.39
1243.208;-49.23
1243.407;-49.09
1243.606;-48.91
1243.805;-48.75
1244.004;-48.58
1244.204;-48.4
1244.403;-48.24
1244.602;-48.05
1244.801;-47.87
1245.0;-47.7
1245.199;-47.51
1245.398;-47.33
1245.597;-47.12
1245.797;-46.93
1245.996;-46.73
1246.195;-46.52
1246.394;-46.32
1246.593;-46.1
1246.792;-45.88
1246.991;-45.61
1247.19;-45.43
1247.389;-45.23
1247.589;-44.99
1247.788;-44.77
1247.987;-44.54
1248.186;-44.33
1248.385;-44.13
1248.584;-43.9
1248.783;-43.71
1248.982;-43.51
1249.181;-43.32
1249.381;-43.15
1249.58;-42.96
1249.779;-42.8
1249.978;-42.62
1250.177;-42.48
1250.376;-42.34
1250.575;-42.19
1250.774;-42.07
1250.974;-41.96
1251.173;-41.84
1251.372;-41.75
1251.571;-41.65
1251.77;-41.56
1251.969;-41.48
1252.168;-41.4
1252.367;-41.34
1252.566;-41.29
1252.766;-41.25
1252.965;-41.22
1253.164;-41.2
1253.363;-41.2
1253.562;-41.21
1253.761;-41.23
1253.96;-41.26
1254.159;-41.3
1254.358;-41.36
1254.558;-41.42
1254.757;-41.49
1254.956;-41.55
1255.155;-41.64
1255.354;-41.71
1255.553;-41.78
1255.752;-41.84
1255.951;-41.88
1256.15;-41.92
1256.35;-41.93
1256.549;-41.92
1256.748;-41.89
1256.947;-41.81
1257.146;-41.72
1257.345;-41.6
1257.544;-41.45
1257.743;-41.28
1257.943;-41.05
1258.142;-40.81
1258.341;-40.54
1258.54;-40.25
1258.739;-39.95
1258.938;-39.6
1259.137;-39.25
1259.336;-38.86
1259.535;-38.47
1259.735;-38.09
1259.934;-37.69
1260.133;-37.31
1260.332;-36.9
1260.531;-36.52
1260.73;-36.14
1260.929;-35.69
1261.128;-35.41
1261.327;-35.05
1261.527;-34.73
1261.726;-34.4
1261.925;-34.08
1262.124;-33.79
1262.323;-33.51
1262.522;-33.26
1262.721;-33.01
1262.92;-32.77
1263.12;-32.56
1263.319;-32.33
1263.518;-32.15
1263.717;-31.97
1263.916;-31.8
1264.115;-31.66
1264.314;-31.5
1264.513;-31.39
1264.712;-31.28
1264.912;-31.18
1265.111;-31.11
1265.31;-31.04
1265.509;-31.0
1265.708;-30.96
1265.907;-30.94
1266.106;-30.95
1266.305;-30.96
1266.504;-31.01
1266.704;-31.04
1266.903;-31.1
1267.102;-31.18
1267.301;-31.27
1267.5;-31.38
1267.699;-31.48
1267.898;-31.6
1268.097;-31.75
1268.297;-31.88
1268.496;-32.05
1268.695;-32.18
1268.894;-32.32
1269.093;-32.46
1269.292;-32.57
1269.491;-32.71
1269.69;-32.79
1269.889;-32.85
1270.089;-32.86
1270.288;-32.81
1270.487;-32.73
1270.686;-32.57
1270.885;-32.36
1271.084;-32.09
1271.283;-31.77
1271.482;-31.42
1271.681;-31.0
1271.881;-30.57
1272.08;-30.13
1272.279;-29.69
1272.478;-29.26
1272.677;-28.81
1272.876;-28.38
1273.075;-27.94
1273.274;-27.52
1273.474;-27.13
1273.673;-26.75
1273.872;-26.39
1274.071;-25.95
1274.27;-25.67
1274.469;-25.33
1274.668;-25.0
1274.867;-24.7
1275.066;-24.39
1275.266;-24.12
1275.465;-23.84
1275.664;-23.58
1275.863;-23.34
1276.062;-23.1
1276.261;-22.89
1276.46;-22.66
1276.659;-22.46
1276.858;-22.27
1277.058;-22.1
1277.257;-21.97
1277.456;-21.82
1277.655;-21.7
1277.854;-21.57
1278.053;-21.47
1278.252;-21.39
1278.451;-21.3
1278.65;-21.25
1278.85;-21.19
1279.049;-21.14
1279.248;-21.12
1279.447;-21.09
1279.646;-21.09
1279.845;-21.08
1280.044;-21.09
1280.243;-21.12
1280.443;-21.15
1280.642;-21.21
1280.841;-21.25
1281.04;-21.32
1281.239;-21.4
1281.438;-21.49
1281.637;-21.6
1281.836;-21.69
1282.035;-21.81
1282.235;-21.94
1282.434;-22.08
1282.633;-22.24
1282.832;-22.38
1283.031;-22.53
1283.23;-22.67
1283.429;-22.8
1283.628;-22.95
1283.827;-23.06
1284.027;-23.18
1284.226;-23.26
1284.425;-23.34
1284.624;-23.39
1284.823;-23.39
1285.022;-23.37
1285.221;-23.31
1285.42;-23.22
1285.62;-23.12
1285.819;-22.96
1286.018;-22.79
1286.217;-22.58
1286.416;-22.34
1286.615;-22.1
1286.814;-21.83
1287.013;-21.56
1287.212;-21.26
1287.412;-20.97
1287.611;-20.68
1287.81;-20.38
1288.009;-20.11
1288.208;-19.82
1288.407;-19.54
1288.606;-19.27
1288.805;-19.01
1289.004;-18.77
1289.204;-18.52
1289.403;-18.31
1289.602;-18.08
1289.801;-17.88
1290.0;-17.7
1290.199;-17.51
1290.398;-17.34
1290.597;-17.18
1290.797;-17.03
1290.996;-16.88
1291.195;-16.75
1291.394;-16.63
1291.593;-16.5
1291.792;-16.41
1291.991;-16.32
1292.19;-16.23
1292.389;-16.16
1292.589;-16.09
1292.788;-16.05
1292.987;-16.0
1293.186;-15.97
1293.385;-15.93
1293.584;-15.91
1293.783;-15.9
1293.982;-15.89
1294.181;-15.89
1294.381;-15.89
1294.58;-15.89
1294.779;-15.91
1294.978;-15.92
1295.177;-15.94
1295.376;-15.96
1295.575;-15.97
1295.774;-15.99
1295.974;-15.99
1296.173;-16.02
1296.372;-16.03
1296.571;-16.04
1296.77;-16.05
1296.969;-16.05
1297.168;-16.07
1297.367;-16.06
1297.566;-16.05
1297.766;-16.03
1297.965;-16.01
1298.164;-16.0
1298.363;-15.97
1298.562;-15.94
1298.761;-15.89
1298.96;-15.86
1299.159;-15.82
1299.358;-15.77
1299.558;-15.73
1299.757;-15.67
1299.956;-15.63
1300.155;-15.58
1300.354;-15.53
1300.553;-15.48
1300.752;-15.42
1300.951;-15.39
1301.15;-15.34
1301.35;-15.3
1301.549;-15.29
1301.748;-15.25
1301.947;-15.23
1302.146;-15.21
1302.345;-15.2
1302.544;-15.21
1302.743;-15.21
1302.943;-15.24
1303.142;-15.26
1303.341;-15.3
1303.54;-15.36
1303.739;-15.41
1303.938;-15.49
1304.137;-15.58
1304.336;-15.68
1304.535;-15.79
1304.735;-15.91
1304.934;-16.05
1305.133;-16.2
1305.332;-16.37
1305.531;-16.55
1305.73;-16.74
1305.929;-16.96
1306.128;-17.19
1306.327;-17.45
1306.527;-17.72
1306.726;-18.02
1306.925;-18.4
1307.124;-18.69
1307.323;-19.07
1307.522;-19.47
1307.721;-19.91
1307.92;-20.37
1308.12;-20.87
1308.319;-21.41
1308.518;-21.98
1308.717;-22.6
1308.916;-23.23
1309.115;-23.91
1309.314;-24.62
1309.513;-25.35
1309.712;-26.07
1309.912;-26.75
1310.111;-27.37
1310.31;-27.85
1310.509;-28.15
1310.708;-28.23
1310.907;-28.06
1311.106;-27.71
1311.305;-27.17
1311.504;-26.54
1311.704;-25.86
1311.903;-25.17
1312.102;-24.51
1312.301;-23.86
1312.5;-23.27
1312.699;-22.71
1312.898;-22.18
1313.097;-21.7
1313.297;-21.24
1313.496;-20.84
1313.695;-20.45
1313.894;-20.1
1314.093;-19.8
1314.292;-19.5
1314.491;-19.25
1314.69;-18.99
1314.889;-18.76
1315.089;-18.56
1315.288;-18.38
1315.487;-18.24
1315.686;-18.1
1315.885;-17.98
1316.084;-17.87
1316.283;-17.78
1316.482;-17.73
1316.681;-17.67
1316.881;-17.65
1317.08;-17.63
1317.279;-17.63
1317.478;-17.65
1317.677;-17.67
1317.876;-17.72
1318.075;-17.75
1318.274;-17.82
1318.474;-17.9
1318.673;-17.99
1318.872;-18.09
1319.071;-18.2
1319.27;-18.33
1319.469;-18.44
1319.668;-18.58
1319.867;-18.73
1320.066;-18.87
1320.266;-19.04
1320.465;-19.19
1320.664;-19.37
1320.863;-19.53
1321.062;-19.69
1321.261;-19.88
1321.46;-20.04
1321.659;-20.22
1321.858;-20.37
1322.058;-20.53
1322.257;-20.69
1322.456;-20.83
1322.655;-20.98
1322.854;-21.1
1323.053;-21.22
1323.252;-21.33
1323.451;-21.42
1323.65;-21.52
1323.85;-21.59
1324.049;-21.66
1324.248;-21.71
1324.447;-21.75
1324.646;-21.8
1324.845;-21.82
1325.044;-21.85
1325.243;-21.86
1325.443;-21.88
1325.642;-21.9
1325.841;-21.92
1326.04;-21.94
1326.239;-21.95
1326.438;-21.98
1326.637;-21.99
1326.836;-22.02
1327.035;-22.06
1327.235;-22.1
1327.434;-22.15
1327.633;-22.19
1327.832;-22.26
1328.031;-22.33
1328.23;-22.42
1328.429;-22.52
1328.628;-22.61
1328.827;-22.73
1329.027;-22.85
1329.226;-22.98
1329.425;-23.14
1329.624;-23.28
1329.823;-23.46
1330.022;-23.63
1330.221;-23.82
1330.42;-24.03
1330.62;-24.24
1330.819;-24.49
1331.018;-24.73
1331.217;-25.01
1331.416;-25.28
1331.615;-25.55
1331.814;-25.86
1332.013;-26.17
1332.212;-26.53
1332.412;-26.87
1332.611;-27.26
1332.81;-27.63
1333.009;-28.02
1333.208;-28.43
1333.407;-28.94
1333.606;-29.31
1333.805;-29.75
1334.004;-30.23
1334.204;-30.72
1334.403;-31.24
1334.602;-31.77
1334.801;-32.28
1335.0;-32.76
1335.199;-33.19
1335.398;-33.65
1335.597;-34.15
1335.797;-34.66
1335.996;-35.15
1336.195;-35.51
1336.394;-35.76
1336.593;-35.92
1336.792;-36.1
1336.991;-36.3
1337.19;-36.46
1337.389;-36.54
1337.589;-36.47
1337.788;-36.34
1337.987;-36.22
1338.186;-36.15
1338.385;-36.09
1338.584;-35.97
1338.783;-35.8
1338.982;-35.6
1339.181;-35.45
1339.381;-35.38
1339.58;-35.35
1339.779;-35.36
1339.978;-35.3
1340.177;-35.22
1340.376;-35.13
1340.575;-35.1
1340.774;-35.13
1340.974;-35.21
1341.173;-35.32
1341.372;-35.39
1341.571;-35.44
1341.77;-35.49
1341.969;-35.57
1342.168;-35.72
1342.367;-35.9
1342.566;-36.13
1342.766;-36.35
1342.965;-36.53
1343.164;-36.72
1343.363;-36.92
1343.562;-37.19
1343.761;-37.51
1343.96;-37.87
1344.159;-38.22
1344.358;-38.58
1344.558;-38.93
1344.757;-39.35
1344.956;-39.76
1345.155;-40.16
1345.354;-40.59
1345.553;-41.07
1345.752;-41.6
1345.951;-42.2
1346.15;-42.79
1346.35;-43.4
1346.549;-44.01
1346.748;-44.64
1346.947;-45.32
1347.146;-46.06
1347.345;-46.82
1347.544;-47.62
1347.743;-48.56
1347.943;-49.16
1348.142;-49.86
1348.341;-50.49
1348.54;-50.96
1348.739;-51.3
1348.938;-51.41
1349.137;-51.31
1349.336;-51.01
1349.535;-50.66
1349.735;-50.3
1349.934;-49.93
1350.133;-49.56
1350.332;-49.17
1350.531;-48.73
1350.73;-48.27
1350.929;-47.83
1351.128;-47.46
1351.327;-47.13
1351.527;-46.86
1351.726;-46.64
1351.925;-46.39
1352.124;-46.15
1352.323;-45.99
1352.522;-45.88
1352.721;-45.7
1352.92;-45.57
1353.12;-45.55
1353.319;-45.44
1353.518;-45.38
1353.717;-45.35
1353.916;-45.28
1354.115;-45.25
1354.314;-45.33
1354.513;-45.37
1354.712;-45.58
1354.912;-45.76
1355.111;-45.87
1355.31;-45.92
1355.509;-45.89
1355.708;-46.09
1355.907;-46.36
1356.106;-46.52
1356.305;-46.65
1356.504;-46.79
1356.704;-46.77
1356.903;-46.95
1357.102;-47.38
1357.301;-47.72
1357.5;-48.03
1357.699;-48.33
1357.898;-48.59
1358.097;-48.81
1358.297;-49.15
1358.496;-49.61
1358.695;-49.96
1358.894;-50.39
1359.093;-50.83
1359.292;-51.15
1359.491;-51.79
1359.69;-52.42
1359.889;-53.0
1360.089;-53.47
1360.288;-53.92
1360.487;-54.31
1360.686;-54.84
1360.885;-55.59
1361.084;-56.31
1361.283;-56.92
1361.482;-57.49
1361.681;-57.99
1361.881;-58.46
1362.08;-58.81
1362.279;-59.27
1362.478;-59.54
1362.677;-59.49
1362.876;-59.17
1363.075;-58.8
1363.274;-58.22
1363.474;-57.85
1363.673;-57.52
1363.872;-57.21
1364.071;-56.97
1364.27;-56.74
1364.469;-56.57
1364.668;-56.71
1364.867;-56.51
1365.066;-56.03
1365.266;-55.87
1365.465;-55.54
1365.664;-55.3
1365.863;-55.04
1366.062;-54.79
1366.261;-54.55
1366.46;-54.39
1366.659;-54.33
1366.858;-54.38
1367.058;-54.36
1367.257;-54.32
1367.456;-54.44
1367.655;-54.49
1367.854;-54.67
1368.053;-54.69
1368.252;-54.64
1368.451;-54.88
1368.65;-54.95
1368.85;-55.04
1369.049;-54.99
1369.248;-55.0
1369.447;-54.92
1369.646;-55.04
1369.845;-55.39
1370.044;-55.63
1370.243;-55.84
1370.443;-55.96
1370.642;-56.07
1370.841;-56.43
1371.04;-56.81
1371.239;-57.13
1371.438;-57.25
1371.637;-57.4
1371.836;-57.47
1372.035;-57.77
1372.235;-58.12
1372.434;-58.38
1372.633;-58.68
1372.832;-58.81
1373.031;-58.98
1373.23;-59.2
1373.429;-59.48
1373.628;-59.71
1373.827;-59.9
1374.027;-60.1
1374.226;-60.23
1374.425;-60.44
1374.624;-60.59
1374.823;-60.76
1375.022;-60.94
1375.221;-60.96
1375.42;-60.97
1375.62;-60.98
1375.819;-60.99
1376.018;-61.02
1376.217;-61.04
1376.416;-61.0
1376.615;-60.97
1376.814;-60.94
1377.013;-61.04
1377.212;-61.05
1377.412;-60.97
1377.611;-60.91
1377.81;-60.7
1378.009;-60.62
1378.208;-60.6
1378.407;-60.61
1378.606;-60.73
1378.805;-60.88
1379.004;-60.91
1379.204;-60.89
1379.403;-60.77
1379.602;-60.69
1379.801;-60.67
1380.0;-60.73
1380.199;-60.88
1380.398;-61.02
1380.597;-61.53
1380.797;-61.99
1380.996;-62.17
1381.195;-62.25
1381.394;-62.08
1381.593;-61.86
1381.792;-61.98
1381.991;-62.09
1382.19;-62.28
1382.389;-62.69
1382.589;-63.31
1382.788;-63.91
1382.987;-64.41
1383.186;-64.42
1383.385;-64.41
1383.584;-64.4
1383.783;-64.75
1383.982;-65.14
1384.181;-65.5
1384.381;-65.82
1384.58;-66.12
1384.779;-66.54
1384.978;-67.17
1385.177;-67.77
1385.376;-68.32
1385.575;-68.74
1385.774;-69.29
1385.974;-69.58
1386.173;-70.29
1386.372;-70.81
1386.571;-71.22
1386.77;-71.63
1386.969;-72.06
1387.168;-72.1
1387.367;-72.26
1387.566;-72.85
1387.766;-72.84
1387.965;-73.0
1388.164;-72.96
1388.363;-72.94
1388.562;-72.52
1388.761;-71.94
1388.96;-71.53
1389.159;-70.84
1389.358;-70.4
1389.558;-70.38
1389.757;-69.94
1389.956;-69.58
1390.155;-69.29
1390.354;-68.93
1390.553;-68.71
1390.752;-68.4
1390.951;-68.2
1391.15;-67.85
1391.35;-67.62
1391.549;-67.54
1391.748;-67.37
1391.947;-67.19
1392.146;-67.24
1392.345;-67.26
1392.544;-67.55
1392.743;-67.52
1392.943;-67.46
1393.142;-67.05
1393.341;-66.86
1393.54;-66.68
1393.739;-66.66
1393.938;-66.69
1394.137;-66.81
1394.336;-66.85
1394.535;-66.97
1394.735;-67.15
1394.934;-67.27
1395.133;-67.71
1395.332;-67.88
1395.531;-68.08
1395.73;-68.15
1395.929;-68.17
1396.128;-68.3
1396.327;-68.64
1396.527;-68.96
1396.726;-69.32
1396.925;-69.51
1397.124;-69.62
1397.323;-69.66
1397.522;-69.92
1397.721;-70.22
1397.92;-70.6
1398.12;-70.81
1398.319;-71.1
1398.518;-71.56
1398.717;-72.09
1398.916;-72.55
1399.115;-72.73
1399.314;-73.14
1399.513;-73.9
1399.712;-74.2
1399.912;-74.96
1400.111;-75.11
1400.31;-75.5
1400.509;-75.32
1400.708;-76.5
1400.907;-76.67
1401.106;-76.28
1401.305;-77.4
1401.504;-76.72
1401.704;-76.72
1401.903;-76.35
1402.102;-76.67
1402.301;-77.14
1402.5;-76.71
1402.699;-76.15
1402.898;-75.87
1403.097;-76.17
1403.297;-76.14
1403.496;-75.61
1403.695;-75.61
1403.894;-75.19
1404.093;-75.29
1404.292;-75.57
1404.491;-75.02
1404.69;-74.58
1404.889;-75.39
1405.089;-75.5
1405.288;-75.14
1405.487;-74.96
1405.686;-74.71
1405.885;-74.67
1406.084;-74.58
1406.283;-74.58
1406.482;-74.17
1406.681;-74.95
1406.881;-74.98
1407.08;-75.36
1407.279;-74.99
1407.478;-75.8
1407.677;-75.42
1407.876;-75.54
1408.075;-75.1
1408.274;-75.2
1408.474;-75.62
1408.673;-76.37
1408.872;-77.27
1409.071;-76.18
1409.27;-76.44
1409.469;-76.23
1409.668;-77.13
1409.867;-78.13
1410.066;-77.45
1410.266;-77.49
1410.465;-76.79
1410.664;-76.86
1410.863;-76.64
1411.062;-76.46
1411.261;-78.28
1411.46;-76.86
1411.659;-78.16
1411.858;-77.47
1412.058;-78.04
1412.257;-77.54
1412.456;-78.16
1412.655;-77.35
1412.854;-76.24
1413.053;-76.77
1413.252;-77.24
1413.451;-77.05
1413.65;-77.19
1413.85;-76.38
1414.049;-77.34
1414.248;-77.04
1414.447;-77.08
1414.646;-76.33
1414.845;-76.65
1415.044;-77.02
1415.243;-76.69
1415.443;-76.35
1415.642;-75.9
1415.841;-76.16
1416.04;-76.59
1416.239;-76.17
1416.438;-76.5
1416.637;-76.3
1416.836;-76.67
1417.035;-76.52
1417.235;-76.01
1417.434;-76.94
1417.633;-75.64
1417.832;-76.59
1418.031;-76.48
1418.23;-77.1
1418.429;-76.13
1418.628;-76.91
1418.827;-76.4
1419.027;-77.3
1419.226;-76.94
1419.425;-76.52
1419.624;-77.28
1419.823;-77.06
1420.022;-76.8
1420.221;-77.83
1420.42;-77.06
1420.62;-77.63
1420.819;-76.93
1421.018;-76.94
1421.217;-77.34
1421.416;-78.75
1421.615;-77.26
1421.814;-76.95
1422.013;-77.64
1422.212;-77.33
1422.412;-77.69
1422.611;-77.75
1422.81;-77.43
1423.009;-78.03
1423.208;-78.51
1423.407;-77.26
1423.606;-77.56
1423.805;-77.47
1424.004;-77.26
1424.204;-79.03
1424.403;-77.87
1424.602;-77.17
1424.801;-76.88
1425.0;-77.56
