Wavelength;Intensity_Meas;Intensity_Ref;Difference_dB
1200.0000;-60.5800;-55.6000;-4.9800
1200.1990;-60.5200;-55.5600;-4.9600
1200.3980;-60.5100;-55.5400;-4.9700
1200.5970;-60.5300;-55.5000;-5.0300
1200.7970;-60.5000;-55.4800;-5.0200
1200.9960;-60.4000;-55.4400;-4.9600
1201.1950;-60.4300;-55.3900;-5.0400
1201.3940;-60.4400;-55.3500;-5.0900
1201.5930;-60.4200;-55.3200;-5.1000
1201.7920;-60.3600;-55.2800;-5.0800
1201.9910;-60.3200;-55.2100;-5.1100
1202.1900;-60.3600;-55.1600;-5.2000
1202.3890;-60.3700;-55.1100;-5.2600
1202.5890;-60.3000;-55.0800;-5.2200
1202.7880;-60.2300;-55.0100;-5.2200
1202.9870;-60.2400;-54.9400;-5.3000
1203.1860;-60.2800;-54.8900;-5.3900
1203.3850;-60.2200;-54.8700;-5.3500
1203.5840;-60.1500;-54.8100;-5.3400
1203.7830;-60.1800;-54.7500;-5.4300
1203.9820;-60.2000;-54.7200;-5.4800
1204.1810;-60.2100;-54.6800;-5.5300
1204.3810;-60.1400;-54.6400;-5.5000
1204.5800;-60.1200;-54.6000;-5.5200
1204.7790;-60.1900;-54.5800;-5.6100
1204.9780;-60.2000;-54.5500;-5.6500
1205.1770;-60.1600;-54.5100;-5.6500
1205.3760;-60.1400;-54.4800;-5.6600
1205.5750;-60.1600;-54.4600;-5.7000
1205.7740;-60.2100;-54.4400;-5.7700
1205.9740;-60.1400;-54.4400;-5.7000
1206.1730;-60.0900;-54.4100;-5.6800
1206.3720;-60.0800;-54.3800;-5.7000
1206.5710;-60.1000;-54.3500;-5.7500
1206.7700;-60.0400;-54.3400;-5.7000
1206.9690;-59.8900;-54.3100;-5.5800
1207.1680;-59.8500;-54.2700;-5.5800
1207.3670;-59.8600;-54.2400;-5.6200
1207.5660;-59.7600;-54.2200;-5.5400
1207.7660;-59.6300;-54.1900;-5.4400
1207.9650;-59.5500;-54.1500;-5.4000
1208.1640;-59.5200;-54.0900;-5.4300
1208.3630;-59.4600;-54.0700;-5.3900
1208.5620;-59.3300;-54.0300;-5.3000
1208.7610;-59.2400;-53.9700;-5.2700
1208.9600;-59.2100;-53.9200;-5.2900
1209.1590;-59.1500;-53.8600;-5.2900
1209.3580;-59.0900;-53.8200;-5.2700
1209.5580;-58.9600;-53.7600;-5.2000
1209.7570;-58.9300;-53.7100;-5.2200
1209.9560;-58.9100;-53.6500;-5.2600
1210.1550;-58.8400;-53.6100;-5.2300
1210.3540;-58.7400;-53.5700;-5.1700
1210.5530;-58.7000;-53.4900;-5.2100
1210.7520;-58.6900;-53.4400;-5.2500
1210.9510;-58.6400;-53.4100;-5.2300
1211.1500;-58.5600;-53.3500;-5.2100
1211.3500;-58.5300;-53.3100;-5.2200
1211.5490;-58.5500;-53.2600;-5.2900
1211.7480;-58.5500;-53.2300;-5.3200
1211.9470;-58.5000;-53.2100;-5.2900
1212.1460;-58.4800;-53.1600;-5.3200
1212.3450;-58.5500;-53.1200;-5.4300
1212.5440;-58.5700;-53.1000;-5.4700
1212.7430;-58.5500;-53.0700;-5.4800
1212.9430;-58.5700;-53.0300;-5.5400
1213.1420;-58.5900;-52.9900;-5.6000
1213.3410;-58.6600;-52.9800;-5.6800
1213.5400;-58.6500;-52.9500;-5.7000
1213.7390;-58.6300;-52.9000;-5.7300
1213.9380;-58.6400;-52.8700;-5.7700
1214.1370;-58.6600;-52.8300;-5.8300
1214.3360;-58.6500;-52.8000;-5.8500
1214.5350;-58.5700;-52.7600;-5.8100
1214.7350;-58.5600;-52.7100;-5.8500
1214.9340;-58.5400;-52.6600;-5.8800
1215.1330;-58.4600;-52.6200;-5.8400
1215.3320;-58.3600;-52.5800;-5.7800
1215.5310;-58.2800;-52.5100;-5.7700
1215.7300;-58.2100;-52.4500;-5.7600
1215.9290;-58.1200;-52.4200;-5.7000
1216.1280;-57.9900;-52.3500;-5.6400
1216.3270;-57.8900;-52.2900;-5.6000
1216.5270;-57.8000;-52.2300;-5.5700
1216.7260;-57.7000;-52.1700;-5.5300
1216.9250;-57.5500;-52.1200;-5.4300
1217.1240;-57.4300;-52.0500;-5.3800
1217.3230;-57.3500;-52.0000;-5.3500
1217.5220;-57.2400;-51.9400;-5.3000
1217.7210;-57.1000;-51.8900;-5.2100
1217.9200;-56.9800;-51.8400;-5.1400
1218.1200;-56.8800;-51.7700;-5.1100
1218.3190;-56.8000;-51.7400;-5.0600
1218.5180;-56.6900;-51.6900;-5.0000
1218.7170;-56.6100;-51.6500;-4.9600
1218.9160;-56.5300;-51.6100;-4.9200
1219.1150;-56.4900;-51.5600;-4.9300
1219.3140;-56.4500;-51.5400;-4.9100
1219.5130;-56.3900;-51.5000;-4.8900
1219.7120;-56.3900;-51.4500;-4.9400
1219.9120;-56.4000;-51.4200;-4.9800
1220.1110;-56.3800;-51.3900;-4.9900
1220.3100;-56.4100;-51.3500;-5.0600
1220.5090;-56.4400;-51.3000;-5.1400
1220.7080;-56.4800;-51.2600;-5.2200
1220.9070;-56.5200;-51.2200;-5.3000
1221.1060;-56.5500;-51.1600;-5.3900
1221.3050;-56.6100;-51.1200;-5.4900
1221.5040;-56.6600;-51.0400;-5.6200
1221.7040;-56.7100;-50.9900;-5.7200
1221.9030;-56.7400;-50.9400;-5.8000
1222.1020;-56.7700;-50.8600;-5.9100
1222.3010;-56.8300;-50.8100;-6.0200
1222.5000;-56.8200;-50.7300;-6.0900
1222.6990;-56.8500;-50.6700;-6.1800
1222.8980;-56.8500;-50.5900;-6.2600
1223.0970;-56.8400;-50.5100;-6.3300
1223.2970;-56.8400;-50.4600;-6.3800
1223.4960;-56.7800;-50.3700;-6.4100
1223.6950;-56.7400;-50.3000;-6.4400
1223.8940;-56.6800;-50.2400;-6.4400
1224.0930;-56.6100;-50.1600;-6.4500
1224.2920;-56.5200;-50.1100;-6.4100
1224.4910;-56.4000;-50.0200;-6.3800
1224.6900;-56.3000;-49.9600;-6.3400
1224.8890;-56.1400;-49.9000;-6.2400
1225.0890;-56.0000;-49.8400;-6.1600
1225.2880;-55.7900;-49.7800;-6.0100
1225.4870;-55.6300;-49.7100;-5.9200
1225.6860;-55.4800;-49.6600;-5.8200
1225.8850;-55.2900;-49.6200;-5.6700
1226.0840;-55.1000;-49.5500;-5.5500
1226.2830;-54.9200;-49.5100;-5.4100
1226.4820;-54.7300;-49.4400;-5.2900
1226.6810;-54.5800;-49.4000;-5.1800
1226.8810;-54.4100;-49.3500;-5.0600
1227.0800;-54.2700;-49.2800;-4.9900
1227.2790;-54.1300;-49.2400;-4.8900
1227.4780;-54.0000;-49.1700;-4.8300
1227.6770;-53.9100;-49.1100;-4.8000
1227.8760;-53.8000;-49.0500;-4.7500
1228.0750;-53.7200;-48.9800;-4.7400
1228.2740;-53.6600;-48.9200;-4.7400
1228.4740;-53.5900;-48.8400;-4.7500
1228.6730;-53.5700;-48.7700;-4.8000
1228.8720;-53.5300;-48.7000;-4.8300
1229.0710;-53.5100;-48.6200;-4.8900
1229.2700;-53.5100;-48.5500;-4.9600
1229.4690;-53.4900;-48.4500;-5.0400
1229.6680;-53.5200;-48.3800;-5.1400
1229.8670;-53.5200;-48.3000;-5.2200
1230.0660;-53.5500;-48.2100;-5.3400
1230.2660;-53.5800;-48.1300;-5.4500
1230.4650;-53.6100;-48.0400;-5.5700
1230.6640;-53.6600;-47.9600;-5.7000
1230.8630;-53.7100;-47.8900;-5.8200
1231.0620;-53.7700;-47.8100;-5.9600
1231.2610;-53.8400;-47.7600;-6.0800
1231.4600;-53.9000;-47.6800;-6.2200
1231.6590;-53.9600;-47.6200;-6.3400
1231.8580;-53.9900;-47.5500;-6.4400
1232.0580;-54.0300;-47.5000;-6.5300
1232.2570;-54.0400;-47.4400;-6.6000
1232.4560;-54.0400;-47.3700;-6.6700
1232.6550;-54.0300;-47.3200;-6.7100
1232.8540;-53.9600;-47.2500;-6.7100
1233.0530;-53.9000;-47.2000;-6.7000
1233.2520;-53.8000;-47.1500;-6.6500
1233.4510;-53.6600;-47.0700;-6.5900
1233.6500;-53.5500;-47.0300;-6.5200
1233.8500;-53.3700;-46.9500;-6.4200
1234.0490;-53.2200;-46.8900;-6.3300
1234.2480;-53.0400;-46.8300;-6.2100
1234.4470;-52.8600;-46.7500;-6.1100
1234.6460;-52.7000;-46.6900;-6.0100
1234.8450;-52.5100;-46.6100;-5.9000
1235.0440;-52.3300;-46.5300;-5.8000
1235.2430;-52.1700;-46.4600;-5.7100
1235.4430;-52.0100;-46.3600;-5.6500
1235.6420;-51.8700;-46.2900;-5.5800
1235.8410;-51.7200;-46.1900;-5.5300
1236.0400;-51.6000;-46.1100;-5.4900
1236.2390;-51.4800;-46.0200;-5.4600
1236.4380;-51.3500;-45.9100;-5.4400
1236.6370;-51.2700;-45.8300;-5.4400
1236.8360;-51.1700;-45.7400;-5.4300
1237.0350;-51.1000;-45.6700;-5.4300
1237.2350;-51.0200;-45.5700;-5.4500
1237.4340;-50.9600;-45.4700;-5.4900
1237.6330;-50.9200;-45.3900;-5.5300
1237.8320;-50.8800;-45.3100;-5.5700
1238.0310;-50.8400;-45.2400;-5.6000
1238.2300;-50.8100;-45.1500;-5.6600
1238.4290;-50.7900;-45.0700;-5.7200
1238.6280;-50.7900;-45.0000;-5.7900
1238.8270;-50.7600;-44.9100;-5.8500
1239.0270;-50.7600;-44.8500;-5.9100
1239.2260;-50.7300;-44.7500;-5.9800
1239.4250;-50.7000;-44.6700;-6.0300
1239.6240;-50.6700;-44.6000;-6.0700
1239.8230;-50.6100;-44.5100;-6.1000
1240.0220;-50.5600;-44.4400;-6.1200
1240.2210;-50.4600;-44.3400;-6.1200
1240.4200;-50.3500;-44.2500;-6.1000
1240.6200;-50.2500;-44.1600;-6.0900
1240.8190;-50.1000;-44.0600;-6.0400
1241.0180;-49.9400;-43.9600;-5.9800
1241.2170;-49.7700;-43.8500;-5.9200
1241.4160;-49.6000;-43.7400;-5.8600
1241.6150;-49.4200;-43.6200;-5.8000
1241.8140;-49.2400;-43.5000;-5.7400
1242.0130;-49.0800;-43.4000;-5.6800
1242.2120;-48.9100;-43.2700;-5.6400
1242.4120;-48.7600;-43.1500;-5.6100
1242.6110;-48.6200;-43.0300;-5.5900
1242.8100;-48.5000;-42.9000;-5.6000
1243.0090;-48.4000;-42.7800;-5.6200
1243.2080;-48.2900;-42.6500;-5.6400
1243.4070;-48.2300;-42.5300;-5.7000
1243.6060;-48.1900;-42.4000;-5.7900
1243.8050;-48.1500;-42.2800;-5.8700
1244.0040;-48.1500;-42.1600;-5.9900
1244.2040;-48.1500;-42.0300;-6.1200
1244.4030;-48.1800;-41.9100;-6.2700
1244.6020;-48.2200;-41.7900;-6.4300
1244.8010;-48.2700;-41.6700;-6.6000
1245.0000;-48.3600;-41.5700;-6.7900
1245.1990;-48.4300;-41.4400;-6.9900
1245.3980;-48.5100;-41.3300;-7.1800
1245.5970;-48.5800;-41.2000;-7.3800
1245.7970;-48.6500;-41.0800;-7.5700
1245.9960;-48.7000;-40.9700;-7.7300
1246.1950;-48.7100;-40.8400;-7.8700
1246.3940;-48.7000;-40.7200;-7.9800
1246.5930;-48.6200;-40.5800;-8.0400
1246.7920;-48.5000;-40.4600;-8.0400
1246.9910;-48.3100;-40.3300;-7.9800
1247.1900;-48.0600;-40.1900;-7.8700
1247.3890;-47.7500;-40.0500;-7.7000
1247.5890;-47.3800;-39.9100;-7.4700
1247.7880;-46.9700;-39.7700;-7.2000
1247.9870;-46.5300;-39.6400;-6.8900
1248.1860;-46.0500;-39.4900;-6.5600
1248.3850;-45.5200;-39.3500;-6.1700
1248.5840;-45.1000;-39.2000;-5.9000
1248.7830;-44.6400;-39.0500;-5.5900
1248.9820;-44.1800;-38.9300;-5.2500
1249.1810;-43.7400;-38.7700;-4.9700
1249.3810;-43.3400;-38.6400;-4.7000
1249.5800;-42.9200;-38.5000;-4.4200
1249.7790;-42.5600;-38.3600;-4.2000
1249.9780;-42.2200;-38.2200;-4.0000
1250.1770;-41.9100;-38.0800;-3.8300
1250.3760;-41.6400;-37.9500;-3.6900
1250.5750;-41.3700;-37.8100;-3.5600
1250.7740;-41.1600;-37.6800;-3.4800
1250.9740;-40.9800;-37.5700;-3.4100
1251.1730;-40.8100;-37.4300;-3.3800
1251.3720;-40.7000;-37.3000;-3.4000
1251.5710;-40.6000;-37.1800;-3.4200
1251.7700;-40.5400;-37.0400;-3.5000
1251.9690;-40.5000;-36.9200;-3.5800
1252.1680;-40.4900;-36.7700;-3.7200
1252.3670;-40.5400;-36.6500;-3.8900
1252.5660;-40.6000;-36.5200;-4.0800
1252.7660;-40.7100;-36.3800;-4.3300
1252.9650;-40.8500;-36.2600;-4.5900
1253.1640;-41.0100;-36.1100;-4.9000
1253.3630;-41.2300;-35.9700;-5.2600
1253.5620;-41.4700;-35.8000;-5.6700
1253.7610;-41.7400;-35.6900;-6.0500
1253.9600;-42.0300;-35.5400;-6.4900
1254.1590;-42.3300;-35.4000;-6.9300
1254.3580;-42.6300;-35.2500;-7.3800
1254.5580;-42.9100;-35.1100;-7.8000
1254.7570;-43.1400;-34.9700;-8.1700
1254.9560;-43.2700;-34.8100;-8.4600
1255.1550;-43.3000;-34.6700;-8.6300
1255.3540;-43.2100;-34.5400;-8.6700
1255.5530;-42.9700;-34.4000;-8.5700
1255.7520;-42.6000;-34.2700;-8.3300
1255.9510;-42.1000;-34.1200;-7.9800
1256.1500;-41.5500;-34.0000;-7.5500
1256.3500;-40.9300;-33.8600;-7.0700
1256.5490;-40.2900;-33.7300;-6.5600
1256.7480;-39.6500;-33.6200;-6.0300
1256.9470;-39.0000;-33.4700;-5.5300
1257.1460;-38.3800;-33.3500;-5.0300
1257.3450;-37.7800;-33.2300;-4.5500
1257.5440;-37.2300;-33.1000;-4.1300
1257.7430;-36.7100;-32.9900;-3.7200
1257.9430;-36.1900;-32.8400;-3.3500
1258.1420;-35.6700;-32.7300;-2.9400
1258.3410;-35.3100;-32.5900;-2.7200
1258.5400;-34.9300;-32.4700;-2.4600
1258.7390;-34.5700;-32.3500;-2.2200
1258.9380;-34.2400;-32.2000;-2.0400
1259.1370;-33.9800;-32.0800;-1.9000
1259.3360;-33.7100;-31.9300;-1.7800
1259.5350;-33.5100;-31.8000;-1.7100
1259.7350;-33.3200;-31.6700;-1.6500
1259.9340;-33.1700;-31.5200;-1.6500
1260.1330;-33.0700;-31.4000;-1.6700
1260.3320;-32.9900;-31.2600;-1.7300
1260.5310;-32.9700;-31.1300;-1.8400
1260.7300;-32.9700;-31.0000;-1.9700
1260.9290;-33.0100;-30.8600;-2.1500
1261.1280;-33.1000;-30.7300;-2.3700
1261.3270;-33.2100;-30.5900;-2.6200
1261.5270;-33.3900;-30.4700;-2.9200
1261.7260;-33.6000;-30.3500;-3.2500
1261.9250;-33.8500;-30.2100;-3.6400
1262.1240;-34.1600;-30.0900;-4.0700
1262.3230;-34.4900;-29.9600;-4.5300
1262.5220;-34.8900;-29.8500;-5.0400
1262.7210;-35.3100;-29.7300;-5.5800
1262.9200;-35.7600;-29.6000;-6.1600
1263.1200;-36.2400;-29.4800;-6.7600
1263.3190;-36.7000;-29.3500;-7.3500
1263.5180;-37.1600;-29.2300;-7.9300
1263.7170;-37.5100;-29.1200;-8.3900
1263.9160;-37.7500;-28.9900;-8.7600
1264.1150;-37.8200;-28.8700;-8.9500
1264.3140;-37.6800;-28.7400;-8.9400
1264.5130;-37.3500;-28.6200;-8.7300
1264.7120;-36.8200;-28.5000;-8.3200
1264.9120;-36.1800;-28.3600;-7.8200
1265.1110;-35.4700;-28.2400;-7.2300
1265.3100;-34.7100;-28.1000;-6.6100
1265.5090;-33.9800;-27.9900;-5.9900
1265.7080;-33.2500;-27.8600;-5.3900
1265.9070;-32.5600;-27.7300;-4.8300
1266.1060;-31.9200;-27.6100;-4.3100
1266.3050;-31.3100;-27.4800;-3.8300
1266.5040;-30.7700;-27.3700;-3.4000
1266.7040;-30.2600;-27.2500;-3.0100
1266.9030;-29.8000;-27.1200;-2.6800
1267.1020;-29.3900;-27.0200;-2.3700
1267.3010;-29.0200;-26.8900;-2.1300
1267.5000;-28.7100;-26.7900;-1.9200
1267.6990;-28.4100;-26.6800;-1.7300
1267.8980;-28.1700;-26.5600;-1.6100
1268.0970;-27.9800;-26.4700;-1.5100
1268.2970;-27.8000;-26.3400;-1.4600
1268.4960;-27.6900;-26.2500;-1.4400
1268.6950;-27.5800;-26.1300;-1.4500
1268.8940;-27.5300;-26.0100;-1.5200
1269.0930;-27.5100;-25.9100;-1.6000
1269.2920;-27.5200;-25.8000;-1.7200
1269.4910;-27.5900;-25.7100;-1.8800
1269.6900;-27.6700;-25.5900;-2.0800
1269.8890;-27.8000;-25.4900;-2.3100
1270.0890;-27.9800;-25.3700;-2.6100
1270.2880;-28.1900;-25.2600;-2.9300
1270.4870;-28.4700;-25.1700;-3.3000
1270.6860;-28.7600;-25.0500;-3.7100
1270.8850;-29.1200;-24.9400;-4.1800
1271.0840;-29.5200;-24.8200;-4.7000
1271.2830;-29.9600;-24.7200;-5.2400
1271.4820;-30.4500;-24.6200;-5.8300
1271.6810;-30.9300;-24.5000;-6.4300
1271.8810;-31.4500;-24.4100;-7.0400
1272.0800;-31.9400;-24.2900;-7.6500
1272.2790;-32.3700;-24.1900;-8.1800
1272.4780;-32.7000;-24.0900;-8.6100
1272.6770;-32.8500;-23.9900;-8.8600
1272.8760;-32.8300;-23.9000;-8.9300
1273.0750;-32.5900;-23.7900;-8.8000
1273.2740;-32.1700;-23.7000;-8.4700
1273.4740;-31.6300;-23.6100;-8.0200
1273.6730;-30.9800;-23.5100;-7.4700
1273.8720;-30.3000;-23.4200;-6.8800
1274.0710;-29.5900;-23.3200;-6.2700
1274.2700;-28.9100;-23.2300;-5.6800
1274.4690;-28.2600;-23.1500;-5.1100
1274.6680;-27.6300;-23.0500;-4.5800
1274.8670;-27.0600;-22.9700;-4.0900
1275.0660;-26.5100;-22.8700;-3.6400
1275.2660;-25.9500;-22.7700;-3.1800
1275.4650;-25.5700;-22.6800;-2.8900
1275.6640;-25.1700;-22.5800;-2.5900
1275.8630;-24.8000;-22.5000;-2.3000
1276.0620;-24.4700;-22.3900;-2.0800
1276.2610;-24.2000;-22.3000;-1.9000
1276.4600;-23.9400;-22.2100;-1.7300
1276.6590;-23.7300;-22.1000;-1.6300
1276.8580;-23.5500;-22.0200;-1.5300
1277.0580;-23.4200;-21.9200;-1.5000
1277.2570;-23.3400;-21.8300;-1.5100
1277.4560;-23.2700;-21.7400;-1.5300
1277.6550;-23.2500;-21.6500;-1.6000
1277.8540;-23.2600;-21.5700;-1.6900
1278.0530;-23.3000;-21.4700;-1.8300
1278.2520;-23.4000;-21.3900;-2.0100
1278.4510;-23.5100;-21.3000;-2.2100
1278.6500;-23.6700;-21.2200;-2.4500
1278.8500;-23.8500;-21.1400;-2.7100
1279.0490;-24.0600;-21.0500;-3.0100
1279.2480;-24.3200;-20.9800;-3.3400
1279.4470;-24.5900;-20.8900;-3.7000
1279.6460;-24.9000;-20.8100;-4.0900
1279.8450;-25.2000;-20.7400;-4.4600
1280.0440;-25.5200;-20.6500;-4.8700
1280.2430;-25.8400;-20.5900;-5.2500
1280.4430;-26.1300;-20.5000;-5.6300
1280.6420;-26.3800;-20.4300;-5.9500
1280.8410;-26.5400;-20.3500;-6.1900
1281.0400;-26.6300;-20.2700;-6.3600
1281.2390;-26.6000;-20.2000;-6.4000
1281.4380;-26.4500;-20.1200;-6.3300
1281.6370;-26.2100;-20.0500;-6.1600
1281.8360;-25.8300;-19.9700;-5.8600
1282.0350;-25.4100;-19.8900;-5.5200
1282.2350;-24.9100;-19.8300;-5.0800
1282.4340;-24.3900;-19.7400;-4.6500
1282.6330;-23.8800;-19.6800;-4.2000
1282.8320;-23.3400;-19.6100;-3.7300
1283.0310;-22.8300;-19.5300;-3.3000
1283.2300;-22.3300;-19.4700;-2.8600
1283.4290;-21.8700;-19.4000;-2.4700
1283.6280;-21.4400;-19.3300;-2.1100
1283.8270;-21.0300;-19.2600;-1.7700
1284.0270;-20.6600;-19.1900;-1.4700
1284.2260;-20.3200;-19.1300;-1.1900
1284.4250;-20.0200;-19.0600;-0.9600
1284.6240;-19.7700;-19.0000;-0.7700
1284.8230;-19.5300;-18.9300;-0.6000
1285.0220;-19.3500;-18.8600;-0.4900
1285.2210;-19.1900;-18.8000;-0.3900
1285.4200;-19.0600;-18.7300;-0.3300
1285.6200;-18.9900;-18.6700;-0.3200
1285.8190;-18.9400;-18.5900;-0.3500
1286.0180;-18.9400;-18.5300;-0.4100
1286.2170;-18.9700;-18.4700;-0.5000
1286.4160;-19.0400;-18.3900;-0.6500
1286.6150;-19.1800;-18.3400;-0.8400
1286.8140;-19.3300;-18.2700;-1.0600
1287.0130;-19.5600;-18.2000;-1.3600
1287.2120;-19.8100;-18.1400;-1.6700
1287.4120;-20.1300;-18.0700;-2.0600
1287.6110;-20.5100;-18.0200;-2.4900
1287.8100;-20.9500;-17.9400;-3.0100
1288.0090;-21.4800;-17.8900;-3.5900
1288.2080;-22.0600;-17.8200;-4.2400
1288.4070;-22.7500;-17.7600;-4.9900
1288.6060;-23.5400;-17.7100;-5.8300
1288.8050;-24.4400;-17.6500;-6.7900
1289.0040;-25.5000;-17.6000;-7.9000
1289.2040;-26.6600;-17.5300;-9.1300
1289.4030;-27.9700;-17.4800;-10.4900
1289.6020;-29.6600;-17.4400;-12.2200
1289.8010;-30.6700;-17.3800;-13.2900
1290.0000;-31.4300;-17.3400;-14.0900
1290.1990;-31.3100;-17.2800;-14.0300
1290.3980;-30.3400;-17.2300;-13.1100
1290.5970;-28.9100;-17.2000;-11.7100
1290.7970;-27.4000;-17.1400;-10.2600
1290.9960;-25.7500;-17.1000;-8.6500
1291.1950;-24.6900;-17.0400;-7.6500
1291.3940;-23.5700;-17.0000;-6.5700
1291.5930;-22.5600;-16.9400;-5.6200
1291.7920;-21.6900;-16.9000;-4.7900
1291.9910;-20.9000;-16.8600;-4.0400
1292.1900;-20.2100;-16.8000;-3.4100
1292.3890;-19.5900;-16.7600;-2.8300
1292.5890;-19.0500;-16.7100;-2.3400
1292.7880;-18.5800;-16.6600;-1.9200
1292.9870;-18.1500;-16.6300;-1.5200
1293.1860;-17.8000;-16.5700;-1.2300
1293.3850;-17.4800;-16.5400;-0.9400
1293.5840;-17.2200;-16.4800;-0.7400
1293.7830;-17.0100;-16.4400;-0.5700
1293.9820;-16.8400;-16.4100;-0.4300
1294.1810;-16.7300;-16.3600;-0.3700
1294.3810;-16.6400;-16.3400;-0.3000
1294.5800;-16.6000;-16.2700;-0.3300
1294.7790;-16.6000;-16.2400;-0.3600
1294.9780;-16.6400;-16.2000;-0.4400
1295.1770;-16.7500;-16.1600;-0.5900
1295.3760;-16.8700;-16.1300;-0.7400
1295.5750;-17.0500;-16.0800;-0.9700
1295.7740;-17.2600;-16.0600;-1.2000
1295.9740;-17.5300;-16.0000;-1.5300
1296.1730;-17.8700;-15.9700;-1.9000
1296.3720;-18.2500;-15.9300;-2.3200
1296.5710;-18.6900;-15.8900;-2.8000
1296.7700;-19.2000;-15.8700;-3.3300
1296.9690;-19.7800;-15.8200;-3.9600
1297.1680;-20.4600;-15.8000;-4.6600
1297.3670;-21.2200;-15.7500;-5.4700
1297.5660;-22.0900;-15.7200;-6.3700
1297.7660;-23.0900;-15.6900;-7.4000
1297.9650;-24.2400;-15.6600;-8.5800
1298.1640;-25.5800;-15.6400;-9.9400
1298.3630;-27.0800;-15.6000;-11.4800
1298.5620;-29.0800;-15.5600;-13.5200
1298.7610;-30.2900;-15.5400;-14.7500
1298.9600;-31.2500;-15.5100;-15.7400
1299.1590;-31.0300;-15.5000;-15.5300
1299.3580;-29.7900;-15.4600;-14.3300
1299.5580;-28.1400;-15.4300;-12.7100
1299.7570;-26.5200;-15.4000;-11.1200
1299.9560;-24.8200;-15.3800;-9.4400
1300.1550;-23.7600;-15.3700;-8.3900
1300.3540;-22.6700;-15.3300;-7.3400
1300.5530;-21.6700;-15.3100;-6.3600
1300.7520;-20.8200;-15.2800;-5.5400
1300.9510;-20.0700;-15.2600;-4.8100
1301.1500;-19.4200;-15.2500;-4.1700
1301.3500;-18.8500;-15.2200;-3.6300
1301.5490;-18.3400;-15.2200;-3.1200
1301.7480;-17.9000;-15.1900;-2.7100
1301.9470;-17.5300;-15.1700;-2.3600
1302.1460;-17.2100;-15.1700;-2.0400
1302.3450;-16.9500;-15.1500;-1.8000
1302.5440;-16.7200;-15.1500;-1.5700
1302.7430;-16.5500;-15.1200;-1.4300
1302.9430;-16.4100;-15.1000;-1.3100
1303.1420;-16.3300;-15.1000;-1.2300
1303.3410;-16.2900;-15.0800;-1.2100
1303.5400;-16.2900;-15.0900;-1.2000
1303.7390;-16.3300;-15.0700;-1.2600
1303.9380;-16.4100;-15.0600;-1.3500
1304.1370;-16.5400;-15.0600;-1.4800
1304.3360;-16.7200;-15.0500;-1.6700
1304.5350;-16.9400;-15.0600;-1.8800
1304.7350;-17.2000;-15.0600;-2.1400
1304.9340;-17.5000;-15.0600;-2.4400
1305.1330;-17.8700;-15.0600;-2.8100
1305.3320;-18.2800;-15.0600;-3.2200
1305.5310;-18.7500;-15.0800;-3.6700
1305.7300;-19.2900;-15.0800;-4.2100
1305.9290;-19.8700;-15.0900;-4.7800
1306.1280;-20.5300;-15.1000;-5.4300
1306.3270;-21.2600;-15.1100;-6.1500
1306.5270;-22.0400;-15.1400;-6.9000
1306.7260;-22.9000;-15.1400;-7.7600
1306.9250;-23.7800;-15.1700;-8.6100
1307.1240;-24.6800;-15.1700;-9.5100
1307.3230;-25.5000;-15.1900;-10.3100
1307.5220;-26.1400;-15.2100;-10.9300
1307.7210;-26.4800;-15.2300;-11.2500
1307.9200;-26.4000;-15.2600;-11.1400
1308.1200;-26.0000;-15.2700;-10.7300
1308.3190;-25.3300;-15.2900;-10.0400
1308.5180;-24.5300;-15.3200;-9.2100
1308.7170;-23.6900;-15.3400;-8.3500
1308.9160;-22.8500;-15.3700;-7.4800
1309.1150;-22.0900;-15.3800;-6.7100
1309.3140;-21.3700;-15.4100;-5.9600
1309.5130;-20.7400;-15.4300;-5.3100
1309.7120;-20.1800;-15.4500;-4.7300
1309.9120;-19.6600;-15.4800;-4.1800
1310.1110;-19.2300;-15.5000;-3.7300
1310.3100;-18.8300;-15.5300;-3.3000
1310.5090;-18.5100;-15.5500;-2.9600
1310.7080;-18.2400;-15.5700;-2.6700
1310.9070;-18.0000;-15.5800;-2.4200
1311.1060;-17.8400;-15.6000;-2.2400
1311.3050;-17.6900;-15.6400;-2.0500
1311.5040;-17.6200;-15.6500;-1.9700
1311.7040;-17.5900;-15.6800;-1.9100
1311.9030;-17.6000;-15.6900;-1.9100
1312.1020;-17.6700;-15.7200;-1.9500
1312.3010;-17.7700;-15.7500;-2.0200
1312.5000;-17.9400;-15.7800;-2.1600
1312.6990;-18.1400;-15.8200;-2.3200
1312.8980;-18.4000;-15.8400;-2.5600
1313.0970;-18.7100;-15.8700;-2.8400
1313.2970;-19.0800;-15.9000;-3.1800
1313.4960;-19.5200;-15.9400;-3.5800
1313.6950;-20.0100;-15.9900;-4.0200
1313.8940;-20.5700;-16.0100;-4.5600
1314.0930;-21.2300;-16.0600;-5.1700
1314.2920;-21.9600;-16.1000;-5.8600
1314.4910;-22.8200;-16.1500;-6.6700
1314.6900;-23.7600;-16.2000;-7.5600
1314.8890;-24.8500;-16.2400;-8.6100
1315.0890;-26.0900;-16.3000;-9.7900
1315.2880;-27.4800;-16.3300;-11.1500
1315.4870;-29.3600;-16.3900;-12.9700
1315.6860;-30.5700;-16.4500;-14.1200
1315.8850;-31.7600;-16.5000;-15.2600
1316.0840;-32.0900;-16.5700;-15.5200
1316.2830;-31.4100;-16.6100;-14.8000
1316.4820;-30.0800;-16.6900;-13.3900
1316.6810;-28.6000;-16.7500;-11.8500
1316.8810;-27.2100;-16.8200;-10.3900
1317.0800;-25.7600;-16.9000;-8.8600
1317.2790;-24.8500;-16.9600;-7.8900
1317.4780;-23.9000;-17.0400;-6.8600
1317.6770;-23.0800;-17.1000;-5.9800
1317.8760;-22.3400;-17.1700;-5.1700
1318.0750;-21.7200;-17.2500;-4.4700
1318.2740;-21.1700;-17.3200;-3.8500
1318.4740;-20.7000;-17.4000;-3.3000
1318.6730;-20.3100;-17.4600;-2.8500
1318.8720;-19.9600;-17.5500;-2.4100
1319.0710;-19.7000;-17.6300;-2.0700
1319.2700;-19.4600;-17.7000;-1.7600
1319.4690;-19.2800;-17.7800;-1.5000
1319.6680;-19.1500;-17.8600;-1.2900
1319.8670;-19.0600;-17.9500;-1.1100
1320.0660;-19.0300;-18.0100;-1.0200
1320.2660;-19.0200;-18.0900;-0.9300
1320.4650;-19.0700;-18.1700;-0.9000
1320.6640;-19.1500;-18.2500;-0.9000
1320.8630;-19.2800;-18.3400;-0.9400
1321.0620;-19.4600;-18.4100;-1.0500
1321.2610;-19.6600;-18.5300;-1.1300
1321.4600;-19.9200;-18.5900;-1.3300
1321.6590;-20.2100;-18.6900;-1.5200
1321.8580;-20.5500;-18.7700;-1.7800
1322.0580;-20.9500;-18.8600;-2.0900
1322.2570;-21.3900;-18.9600;-2.4300
1322.4560;-21.9000;-19.0400;-2.8600
1322.6550;-22.4400;-19.1400;-3.3000
1322.8540;-23.0600;-19.2200;-3.8400
1323.0530;-23.7400;-19.3200;-4.4200
1323.2520;-24.5000;-19.4200;-5.0800
1323.4510;-25.3400;-19.5100;-5.8300
1323.6500;-26.2400;-19.6200;-6.6200
1323.8500;-27.2300;-19.7100;-7.5200
1324.0490;-28.2800;-19.8200;-8.4600
1324.2480;-29.6300;-19.9200;-9.7100
1324.4470;-30.4900;-20.0200;-10.4700
1324.6460;-31.4600;-20.1400;-11.3200
1324.8450;-32.1500;-20.2400;-11.9100
1325.0440;-32.4000;-20.3600;-12.0400
1325.2430;-32.1900;-20.4600;-11.7300
1325.4430;-31.5800;-20.5800;-11.0000
1325.6420;-30.7900;-20.7200;-10.0700
1325.8410;-29.9300;-20.8400;-9.0900
1326.0400;-29.0800;-20.9700;-8.1100
1326.2390;-28.3100;-21.0800;-7.2300
1326.4380;-27.5900;-21.2100;-6.3800
1326.6370;-26.9700;-21.3300;-5.6400
1326.8360;-26.4200;-21.4500;-4.9700
1327.0350;-25.8800;-21.5900;-4.2900
1327.2350;-25.5500;-21.7100;-3.8400
1327.4340;-25.2100;-21.8500;-3.3600
1327.6330;-24.9300;-21.9700;-2.9600
1327.8320;-24.7000;-22.1000;-2.6000
1328.0310;-24.5400;-22.2400;-2.3000
1328.2300;-24.4000;-22.3700;-2.0300
1328.4290;-24.3200;-22.5100;-1.8100
1328.6280;-24.2900;-22.6400;-1.6500
1328.8270;-24.2900;-22.7700;-1.5200
1329.0270;-24.3500;-22.9200;-1.4300
1329.2260;-24.4300;-23.0500;-1.3800
1329.4250;-24.5600;-23.1900;-1.3700
1329.6240;-24.7100;-23.3100;-1.4000
1329.8230;-24.9000;-23.4600;-1.4400
1330.0220;-25.1500;-23.6000;-1.5500
1330.2210;-25.4100;-23.7300;-1.6800
1330.4200;-25.7300;-23.8800;-1.8500
1330.6200;-26.0700;-24.0100;-2.0600
1330.8190;-26.4600;-24.1600;-2.3000
1331.0180;-26.8900;-24.3000;-2.5900
1331.2170;-27.3500;-24.4500;-2.9000
1331.4160;-27.8600;-24.6100;-3.2500
1331.6150;-28.3700;-24.7400;-3.6300
1331.8140;-29.0500;-24.9100;-4.1400
1332.0130;-29.5200;-25.0400;-4.4800
1332.2120;-30.1100;-25.2000;-4.9100
1332.4120;-30.7100;-25.3600;-5.3500
1332.6110;-31.3000;-25.5100;-5.7900
1332.8100;-31.8500;-25.6700;-6.1800
1333.0090;-32.3300;-25.8200;-6.5100
1333.2080;-32.7400;-25.9700;-6.7700
1333.4070;-33.0100;-26.1300;-6.8800
1333.6060;-33.1800;-26.2800;-6.9000
1333.8050;-33.2300;-26.4500;-6.7800
1334.0040;-33.1600;-26.6000;-6.5600
1334.2040;-33.0100;-26.7700;-6.2400
1334.4030;-32.7800;-26.9200;-5.8600
1334.6020;-32.5300;-27.0900;-5.4400
1334.8010;-32.2400;-27.2400;-5.0000
1335.0000;-31.9600;-27.4000;-4.5600
1335.1990;-31.7100;-27.5800;-4.1300
1335.3980;-31.4600;-27.7300;-3.7300
1335.5970;-31.2600;-27.9000;-3.3600
1335.7970;-31.0700;-28.0600;-3.0100
1335.9960;-30.9400;-28.2300;-2.7100
1336.1950;-30.8300;-28.4000;-2.4300
1336.3940;-30.7500;-28.5900;-2.1600
1336.5930;-30.7200;-28.7300;-1.9900
1336.7920;-30.7100;-28.8800;-1.8300
1336.9910;-30.7500;-29.0600;-1.6900
1337.1900;-30.8300;-29.2200;-1.6100
1337.3890;-30.9500;-29.3900;-1.5600
1337.5890;-31.1100;-29.5600;-1.5500
1337.7880;-31.3000;-29.7200;-1.5800
1337.9870;-31.5400;-29.9000;-1.6400
1338.1860;-31.8100;-30.0600;-1.7500
1338.3850;-32.1300;-30.2400;-1.8900
1338.5840;-32.4900;-30.4000;-2.0900
1338.7830;-32.9000;-30.5700;-2.3300
1338.9820;-33.3700;-30.7400;-2.6300
1339.1810;-33.8700;-30.9100;-2.9600
1339.3810;-34.4600;-31.1000;-3.3600
1339.5800;-35.0800;-31.2600;-3.8200
1339.7790;-35.7800;-31.4400;-4.3400
1339.9780;-36.5700;-31.6100;-4.9600
1340.1770;-37.4400;-31.7900;-5.6500
1340.3760;-38.6300;-31.9800;-6.6500
1340.5750;-39.5100;-32.1600;-7.3500
1340.7740;-40.7200;-32.3400;-8.3800
1340.9740;-42.0700;-32.5000;-9.5700
1341.1730;-43.6100;-32.6800;-10.9300
1341.3720;-45.3500;-32.8700;-12.4800
1341.5710;-47.2100;-33.0400;-14.1700
1341.7700;-49.4300;-33.2300;-16.2000
1341.9690;-50.2100;-33.4000;-16.8100
1342.1680;-50.0900;-33.5800;-16.5100
1342.3670;-48.9000;-33.7500;-15.1500
1342.5660;-47.3900;-33.9300;-13.4600
1342.7660;-45.6500;-34.1200;-11.5300
1342.9650;-44.6300;-34.2900;-10.3400
1343.1640;-43.5300;-34.4800;-9.0500
1343.3630;-42.6100;-34.6600;-7.9500
1343.5620;-41.8400;-34.8300;-7.0100
1343.7610;-41.1800;-35.0200;-6.1600
1343.9600;-40.6600;-35.1900;-5.4700
1344.1590;-40.2000;-35.3900;-4.8100
1344.3580;-39.8300;-35.5600;-4.2700
1344.5580;-39.5500;-35.7400;-3.8100
1344.7570;-39.3200;-35.9300;-3.3900
1344.9560;-39.1600;-36.0900;-3.0700
1345.1550;-39.0300;-36.2700;-2.7600
1345.3540;-38.9700;-36.4300;-2.5400
1345.5530;-38.9600;-36.6100;-2.3500
1345.7520;-39.0000;-36.7700;-2.2300
1345.9510;-39.1100;-36.9500;-2.1600
1346.1500;-39.2300;-37.1300;-2.1000
1346.3500;-39.4200;-37.3100;-2.1100
1346.5490;-39.6500;-37.5000;-2.1500
1346.7480;-39.9200;-37.6700;-2.2500
1346.9470;-40.2400;-37.8400;-2.4000
1347.1460;-40.6000;-38.0100;-2.5900
1347.3450;-41.0100;-38.1600;-2.8500
1347.5440;-41.4900;-38.3800;-3.1100
1347.7430;-42.0600;-38.6500;-3.4100
1347.9430;-42.6600;-38.8100;-3.8500
1348.1420;-43.3000;-38.9800;-4.3200
1348.3410;-44.0300;-39.1600;-4.8700
1348.5400;-44.7800;-39.3100;-5.4700
1348.7390;-45.6300;-39.4700;-6.1600
1348.9380;-46.5700;-39.6400;-6.9300
1349.1370;-47.6300;-39.7900;-7.8400
1349.3360;-49.0600;-39.9400;-9.1200
1349.5350;-50.1400;-40.1100;-10.0300
1349.7350;-51.5900;-40.2600;-11.3300
1349.9340;-53.1700;-40.4500;-12.7200
1350.1330;-54.8100;-40.6300;-14.1800
1350.3320;-56.2200;-40.8800;-15.3400
1350.5310;-56.9200;-41.0900;-15.8300
1350.7300;-56.5700;-41.2600;-15.3100
1350.9290;-55.4500;-41.4200;-14.0300
1351.1280;-54.1000;-41.5300;-12.5700
1351.3270;-52.8100;-41.6900;-11.1200
1351.5270;-51.6900;-41.8600;-9.8300
1351.7260;-50.7500;-42.0900;-8.6600
1351.9250;-49.8900;-42.2900;-7.6000
1352.1240;-49.1300;-42.4500;-6.6800
1352.3230;-48.5100;-42.6300;-5.8800
1352.5220;-48.0500;-42.8300;-5.2200
1352.7210;-47.5600;-42.9800;-4.5800
1352.9200;-47.1800;-43.1300;-4.0500
1353.1200;-46.9600;-43.3800;-3.5800
1353.3190;-46.6700;-43.4900;-3.1800
1353.5180;-46.4900;-43.6500;-2.8400
1353.7170;-46.3300;-43.8300;-2.5000
1353.9160;-46.2300;-43.9200;-2.3100
1354.1150;-46.1800;-44.0600;-2.1200
1354.3140;-46.2500;-44.2700;-1.9800
1354.5130;-46.3300;-44.4600;-1.8700
1354.7120;-46.5700;-44.7700;-1.8000
1354.9120;-46.8200;-45.0300;-1.7900
1355.1110;-47.0400;-45.2100;-1.8300
1355.3100;-47.2400;-45.3100;-1.9300
1355.5090;-47.3500;-45.3000;-2.0500
1355.7080;-47.7500;-45.5700;-2.1800
1355.9070;-48.2000;-45.8200;-2.3800
1356.1060;-48.7300;-45.9800;-2.7500
1356.3050;-49.0600;-46.0400;-3.0200
1356.5040;-49.5300;-46.1300;-3.4000
1356.7040;-49.8500;-46.0400;-3.8100
1356.9030;-50.4400;-46.1800;-4.2600
1357.1020;-51.3200;-46.5600;-4.7600
1357.3010;-52.1800;-46.7600;-5.4200
1357.5000;-53.1500;-46.9400;-6.2100
1357.6990;-54.1500;-47.0900;-7.0600
1357.8980;-55.1700;-47.1300;-8.0400
1358.0970;-56.2800;-47.1900;-9.0900
1358.2970;-57.6400;-47.3600;-10.2800
1358.4960;-59.5800;-47.5900;-11.9900
1358.6950;-60.8200;-47.7100;-13.1100
1358.8940;-62.2800;-47.8600;-14.4200
1359.0930;-63.3400;-47.9900;-15.3500
1359.2920;-63.3400;-48.0200;-15.3200
1359.4910;-62.8700;-48.4000;-14.4700
1359.6900;-61.7700;-48.7400;-13.0300
1359.8890;-60.3700;-48.8900;-11.4800
1360.0890;-58.9600;-48.9200;-10.0400
1360.2880;-57.8000;-48.9400;-8.8600
1360.4870;-56.7400;-48.9200;-7.8200
1360.6860;-55.8100;-49.0800;-6.7300
1360.8850;-55.4600;-49.4200;-6.0400
1361.0840;-55.0100;-49.7000;-5.3100
1361.2830;-54.4800;-49.8800;-4.6000
1361.4820;-54.0000;-50.0100;-3.9900
1361.6810;-53.7800;-50.2300;-3.5500
1361.8810;-53.4700;-50.3500;-3.1200
1362.0800;-53.3200;-50.5700;-2.7500
1362.2790;-53.3800;-50.9900;-2.3900
1362.4780;-53.4100;-51.2200;-2.1900
1362.6770;-53.2900;-51.3500;-1.9400
1362.8760;-53.0100;-51.2200;-1.7900
1363.0750;-52.8500;-51.1400;-1.7100
1363.2740;-52.5400;-50.9000;-1.6400
1363.4740;-52.6000;-50.9800;-1.6200
1363.6730;-52.7000;-51.0700;-1.6300
1363.8720;-52.9000;-51.2000;-1.7000
1364.0710;-53.2100;-51.4200;-1.7900
1364.2700;-53.5600;-51.6000;-1.9600
1364.4690;-54.0300;-51.9100;-2.1200
1364.6680;-54.7700;-52.4200;-2.3500
1364.8670;-55.3400;-52.6400;-2.7000
1365.0660;-55.7300;-52.6200;-3.1100
1365.2660;-56.3000;-52.7600;-3.5400
1365.4650;-56.6700;-52.7000;-3.9700
1365.6640;-57.2700;-52.7700;-4.5000
1365.8630;-57.9900;-52.8000;-5.1900
1366.0620;-58.7900;-52.8100;-5.9800
1366.2610;-59.4800;-52.8000;-6.6800
1366.4600;-60.3900;-52.8800;-7.5100
1366.6590;-61.5200;-53.0300;-8.4900
1366.8580;-62.8100;-53.2700;-9.5400
1367.0580;-64.1500;-53.4100;-10.7400
1367.2570;-65.5700;-53.5200;-12.0500
1367.4560;-66.9700;-53.7900;-13.1800
1367.6550;-67.9500;-53.9700;-13.9800
1367.8540;-68.4100;-54.2600;-14.1500
1368.0530;-68.0600;-54.3600;-13.7000
1368.2520;-67.0400;-54.3500;-12.6900
1368.4510;-66.3200;-54.6900;-11.6300
1368.6500;-65.2300;-54.7800;-10.4500
1368.8500;-64.1000;-54.9000;-9.2000
1369.0490;-63.0300;-54.8600;-8.1700
1369.2480;-62.0900;-54.8400;-7.2500
1369.4470;-61.2600;-54.7700;-6.4900
1369.6460;-60.6400;-54.8700;-5.7700
1369.8450;-60.3700;-55.2100;-5.1600
1370.0440;-60.0000;-55.4100;-4.5900
1370.2430;-59.6100;-55.5500;-4.0600
1370.4430;-59.1900;-55.5900;-3.6000
1370.6420;-58.8500;-55.6200;-3.2300
1370.8410;-58.8800;-55.9300;-2.9500
1371.0400;-58.8800;-56.2100;-2.6700
1371.2390;-58.8200;-56.4200;-2.4000
1371.4380;-58.6400;-56.4000;-2.2400
1371.6370;-58.5000;-56.4000;-2.1000
1371.8360;-58.3700;-56.3600;-2.0100
1372.0350;-58.5100;-56.5700;-1.9400
1372.2350;-58.7000;-56.7800;-1.9200
1372.4340;-58.8600;-56.8900;-1.9700
1372.6330;-58.9900;-56.9800;-2.0100
1372.8320;-59.1200;-57.0000;-2.1200
1373.0310;-59.3000;-57.0700;-2.2300
1373.2300;-59.6000;-57.1800;-2.4200
1373.4290;-59.9700;-57.3500;-2.6200
1373.6280;-60.3500;-57.4800;-2.8700
1373.8270;-60.7600;-57.5700;-3.1900
1374.0270;-61.2000;-57.7000;-3.5000
1374.2260;-61.6900;-57.8000;-3.8900
1374.4250;-62.2500;-57.9700;-4.2800
1374.6240;-62.9100;-58.0900;-4.8200
1374.8230;-63.5900;-58.3000;-5.2900
1375.0220;-64.2800;-58.5500;-5.7300
1375.2210;-65.0700;-58.5900;-6.4800
1375.4200;-65.8400;-58.6900;-7.1500
1375.6200;-66.5100;-58.7800;-7.7300
1375.8190;-67.2600;-58.9100;-8.3500
1376.0180;-68.1100;-59.0600;-9.0500
1376.2170;-68.7200;-59.2300;-9.4900
1376.4160;-69.2400;-59.3400;-9.9000
1376.6150;-69.5300;-59.4400;-10.0900
1376.8140;-69.7000;-59.6300;-10.0700
1377.0130;-69.7000;-59.8800;-9.8200
1377.2120;-69.5400;-60.0700;-9.4700
1377.4120;-68.9400;-60.1500;-8.7900
1377.6110;-68.4600;-60.2300;-8.2300
1377.8100;-67.8600;-60.2300;-7.6300
1378.0090;-67.3600;-60.3000;-7.0600
1378.2080;-66.9200;-60.4300;-6.4900
1378.4070;-66.5200;-60.6000;-5.9200
1378.6060;-66.3300;-60.8600;-5.4700
1378.8050;-66.1600;-61.1800;-4.9800
1379.0040;-65.9400;-61.3200;-4.6200
1379.2040;-65.5900;-61.3700;-4.2200
1379.4030;-65.3000;-61.3500;-3.9500
1379.6020;-65.0100;-61.3700;-3.6400
1379.8010;-64.8600;-61.4100;-3.4500
1380.0000;-64.8800;-61.5700;-3.3100
1380.1990;-64.9300;-61.7500;-3.1800
1380.3980;-65.0100;-61.9400;-3.0700
1380.5970;-65.5100;-62.5300;-2.9800
1380.7970;-65.9800;-62.9800;-3.0000
1380.9960;-66.2400;-63.1600;-3.0800
1381.1950;-66.3800;-63.2000;-3.1800
1381.3940;-66.2400;-62.9600;-3.2800
1381.5930;-66.0900;-62.6800;-3.4100
1381.7920;-66.4000;-62.7200;-3.6800
1381.9910;-66.6500;-62.7800;-3.8700
1382.1900;-67.0600;-62.9000;-4.1600
1382.3890;-67.6900;-63.2200;-4.4700
1382.5890;-68.5400;-63.7800;-4.7600
1382.7880;-69.4300;-64.2900;-5.1400
1382.9870;-70.2700;-64.5200;-5.7500
1383.1860;-70.7400;-64.3000;-6.4400
1383.3850;-71.1800;-64.0900;-7.0900
1383.5840;-71.5000;-63.8900;-7.6100
1383.7830;-72.0700;-64.0000;-8.0700
1383.9820;-72.8200;-64.1200;-8.7000
1384.1810;-73.6200;-64.2000;-9.4200
1384.3810;-74.4600;-64.2300;-10.2300
1384.5800;-75.2400;-64.2100;-11.0300
1384.7790;-75.7000;-64.3500;-11.3500
1384.9780;-76.0600;-64.6000;-11.4600
1385.1770;-75.7300;-64.8600;-10.8700
1385.3760;-76.0900;-64.9400;-11.1500
1385.5750;-74.7800;-64.9400;-9.8400
1385.7740;-74.4700;-64.9300;-9.5400
1385.9740;-73.9200;-64.9400;-8.9800
1386.1730;-73.2400;-65.0100;-8.2300
1386.3720;-72.8300;-65.1700;-7.6600
1386.5710;-72.0800;-65.1500;-6.9300
1386.7700;-71.6800;-65.1500;-6.5300
1386.9690;-71.1600;-65.2700;-5.8900
1387.1680;-70.5900;-65.2700;-5.3200
1387.3670;-70.2300;-65.3100;-4.9200
1387.5660;-70.1300;-65.4500;-4.6800
1387.7660;-69.9000;-65.6700;-4.2300
1387.9650;-69.9600;-65.9700;-3.9900
1388.1640;-69.9700;-66.2100;-3.7600
1388.3630;-69.9700;-66.3200;-3.6500
1388.5620;-69.6600;-66.2400;-3.4200
1388.7610;-69.3200;-66.1100;-3.2100
1388.9600;-69.1900;-66.1800;-3.0100
1389.1590;-69.2400;-66.0800;-3.1600
1389.3580;-69.3100;-66.0400;-3.2700
1389.5580;-69.3000;-66.1600;-3.1400
1389.7570;-69.4400;-66.3000;-3.1400
1389.9560;-69.7100;-66.4100;-3.3000
1390.1550;-69.8000;-66.4700;-3.3300
1390.3540;-70.2200;-66.4600;-3.7600
1390.5530;-70.2600;-66.6000;-3.6600
1390.7520;-70.6300;-66.5400;-4.0900
1390.9510;-70.9200;-66.7100;-4.2100
1391.1500;-71.4100;-66.7900;-4.6200
1391.3500;-72.0500;-66.8700;-5.1800
1391.5490;-72.3000;-67.0000;-5.3000
1391.7480;-72.7400;-67.0800;-5.6600
1391.9470;-73.1700;-67.1600;-6.0100
1392.1460;-74.1600;-67.3600;-6.8000
1392.3450;-74.4500;-67.5300;-6.9200
1392.5440;-75.0500;-67.9900;-7.0600
1392.7430;-75.6600;-68.2400;-7.4200
1392.9430;-76.7300;-68.1900;-8.5400
1393.1420;-77.1500;-68.0800;-9.0700
1393.3410;-77.1300;-67.8300;-9.3000
1393.5400;-77.4700;-67.8600;-9.6100
1393.7390;-78.2100;-67.8300;-10.3800
1393.9380;-77.7400;-67.9200;-9.8200
1394.1370;-77.0700;-68.1100;-8.9600
1394.3360;-77.2000;-68.1800;-9.0200
1394.5350;-78.2100;-68.2200;-9.9900
1394.7350;-76.9100;-68.3800;-8.5300
1394.9340;-77.1800;-68.6200;-8.5600
1395.1330;-77.3100;-68.9200;-8.3900
1395.3320;-76.8000;-69.0000;-7.8000
1395.5310;-76.2600;-69.2600;-7.0000
1395.7300;-76.0200;-69.2000;-6.8200
1395.9290;-75.2300;-69.1200;-6.1100
1396.1280;-75.1700;-69.2000;-5.9700
1396.3270;-75.0300;-69.3200;-5.7100
1396.5270;-75.1900;-69.6400;-5.5500
1396.7260;-74.9000;-69.8000;-5.1000
1396.9250;-74.7300;-69.8000;-4.9300
1397.1240;-74.1300;-69.5500;-4.5800
1397.3230;-74.0400;-69.5200;-4.5200
1397.5220;-74.0600;-69.5200;-4.5400
1397.7210;-73.8500;-69.4600;-4.3900
1397.9200;-73.8800;-69.5900;-4.2900
1398.1200;-73.8300;-69.8000;-4.0300
1398.3190;-73.4800;-69.7200;-3.7600
1398.5180;-73.8000;-69.6900;-4.1100
1398.7170;-73.9700;-69.8400;-4.1300
1398.9160;-73.7300;-69.8300;-3.9000
1399.1150;-73.7500;-70.0800;-3.6700
1399.3140;-73.9000;-70.1700;-3.7300
1399.5130;-73.8100;-70.4300;-3.3800
1399.7120;-73.8600;-70.6800;-3.1800
1399.9120;-74.4500;-70.7500;-3.7000
1400.1110;-74.3500;-70.9500;-3.4000
1400.3100;-74.6800;-70.7100;-3.9700
1400.5090;-74.6100;-70.7700;-3.8400
1400.7080;-75.0200;-71.2500;-3.7700
1400.9070;-75.3200;-71.3400;-3.9800
1401.1060;-75.1100;-71.5100;-3.6000
1401.3050;-75.1800;-71.5600;-3.6200
1401.5040;-74.7700;-71.4400;-3.3300
1401.7040;-75.1400;-71.3800;-3.7600
1401.9030;-75.0300;-71.6000;-3.4300
1402.1020;-74.5400;-71.3900;-3.1500
1402.3010;-74.6900;-71.3800;-3.3100
1402.5000;-74.7400;-71.5400;-3.2000
1402.6990;-74.9300;-71.5900;-3.3400
1402.8980;-75.1400;-71.7300;-3.4100
1403.0970;-75.1100;-71.8300;-3.2800
1403.2970;-74.9800;-72.0500;-2.9300
1403.4960;-74.7400;-72.1600;-2.5800
1403.6950;-75.0200;-71.8300;-3.1900
1403.8940;-75.2300;-72.1700;-3.0600
1404.0930;-75.7100;-72.3100;-3.4000
1404.2920;-75.2900;-72.4400;-2.8500
1404.4910;-75.5300;-72.7300;-2.8000
1404.6900;-75.3200;-72.8000;-2.5200
1404.8890;-75.8800;-73.0400;-2.8400
1405.0890;-76.1100;-73.2800;-2.8300
1405.2880;-76.5000;-73.5400;-2.9600
1405.4870;-76.7800;-73.3400;-3.4400
1405.6860;-76.2000;-73.0200;-3.1800
1405.8850;-76.6700;-72.9400;-3.7300
1406.0840;-76.2800;-73.1300;-3.1500
1406.2830;-77.0600;-73.4200;-3.6400
1406.4820;-77.1600;-73.2200;-3.9400
1406.6810;-77.3100;-73.2800;-4.0300
1406.8810;-76.9300;-73.3900;-3.5400
1407.0800;-78.1800;-73.5000;-4.6800
1407.2790;-79.1000;-74.4200;-4.6800
1407.4780;-77.2000;-74.1900;-3.0100
1407.6770;-77.0900;-73.8000;-3.2900
1407.8760;-77.8900;-74.1500;-3.7400
1408.0750;-78.8900;-73.8700;-5.0200
1408.2740;-77.9900;-73.8700;-4.1200
1408.4740;-78.7100;-73.5900;-5.1200
1408.6730;-79.5200;-73.7600;-5.7600
1408.8720;-78.7700;-74.0100;-4.7600
1409.0710;-79.9400;-74.0400;-5.9000
1409.2700;-79.7300;-74.3000;-5.4300
1409.4690;-78.8000;-74.6900;-4.1100
1409.6680;-80.0200;-74.3600;-5.6600
1409.8670;-80.1000;-74.7000;-5.4000
1410.0660;-79.1900;-75.2200;-3.9700
1410.2660;-79.1000;-74.3600;-4.7400
1410.4650;-78.5500;-74.3000;-4.2500
1410.6640;-78.8900;-75.0900;-3.8000
1410.8630;-78.8300;-74.9700;-3.8600
1411.0620;-80.5900;-75.3600;-5.2300
1411.2610;-79.4800;-74.8700;-4.6100
1411.4600;-78.1800;-74.9200;-3.2600
1411.6590;-78.0900;-74.7200;-3.3700
1411.8580;-79.0100;-74.5600;-4.4500
1412.0580;-79.9400;-74.8000;-5.1400
1412.2570;-79.0400;-74.8800;-4.1600
1412.4560;-79.0400;-75.2000;-3.8400
1412.6550;-79.1900;-75.2200;-3.9700
1412.8540;-79.4500;-75.4200;-4.0300
1413.0530;-78.6000;-75.0100;-3.5900
1413.2520;-79.2500;-75.2500;-4.0000
1413.4510;-78.3100;-74.8100;-3.5000
1413.6500;-79.1400;-74.6700;-4.4700
1413.8500;-78.5000;-75.3900;-3.1100
1414.0490;-79.2600;-75.7400;-3.5200
1414.2480;-79.5300;-75.8600;-3.6700
1414.4470;-79.5300;-75.4100;-4.1200
1414.6460;-79.0200;-75.5500;-3.4700
1414.8450;-79.5300;-75.7400;-3.7900
1415.0440;-79.9900;-75.0100;-4.9800
1415.2430;-79.1700;-75.4700;-3.7000
1415.4430;-80.5100;-75.1100;-5.4000
1415.6420;-79.2000;-75.3100;-3.8900
1415.8410;-79.5300;-75.9200;-3.6100
1416.0400;-79.2600;-75.7100;-3.5500
1416.2390;-78.9300;-75.2100;-3.7200
1416.4380;-79.0800;-75.0800;-4.0000
1416.6370;-78.7500;-75.6200;-3.1300
1416.8360;-80.7800;-75.4400;-5.3400
1417.0350;-79.5300;-75.3400;-4.1900
1417.2350;-79.2600;-75.2200;-4.0400
1417.4340;-78.9000;-75.5500;-3.3500
1417.6330;-79.2000;-75.8600;-3.3400
1417.8320;-79.5300;-75.6900;-3.8400
1418.0310;-78.5000;-75.8300;-2.6700
1418.2300;-78.6700;-75.3100;-3.3600
1418.4290;-80.5100;-75.3200;-5.1900
1418.6280;-79.6700;-74.9900;-4.6800
1418.8270;-81.4100;-75.8900;-5.5200
1419.0270;-78.3500;-75.9600;-2.3900
1419.2260;-78.7800;-75.7700;-3.0100
1419.4250;-79.9500;-75.9900;-3.9600
1419.6240;-79.0500;-75.6000;-3.4500
1419.8230;-78.5600;-75.8100;-2.7500
1420.0220;-81.0600;-76.3000;-4.7600
1420.2210;-78.7800;-76.2100;-2.5700
1420.4200;-79.1400;-76.4300;-2.7100
1420.6200;-79.2000;-75.8600;-3.3400
1420.8190;-79.7400;-75.0600;-4.6800
1421.0180;-79.0200;-75.2000;-3.8200
1421.2170;-79.2300;-75.3600;-3.8700
1421.4160;-78.9000;-75.7700;-3.1300
1421.6150;-79.5400;-75.5600;-3.9800
1421.8140;-80.1600;-75.6300;-4.5300
1422.0130;-79.0300;-75.9900;-3.0400
1422.2120;-79.2700;-75.6400;-3.6300
1422.4120;-79.0300;-75.2800;-3.7500
1422.6110;-79.1800;-75.6700;-3.5100
1422.8100;-79.0600;-76.0000;-3.0600
1423.0090;-78.7600;-75.8200;-2.9400
1423.2080;-77.9100;-75.3300;-2.5800
1423.4070;-78.6200;-75.3500;-3.2700
1423.6060;-78.2300;-75.2900;-2.9400
1423.8050;-78.6800;-75.9900;-2.6900
1424.0040;-79.4700;-75.4200;-4.0500
1424.2040;-79.1500;-75.3200;-3.8300
1424.4030;-79.0900;-75.6100;-3.4800
1424.6020;-78.0100;-75.4400;-2.5700
1424.8010;-79.3100;-75.1900;-4.1200
1425.0000;-78.7600;-75.3300;-3.4300
