Wavelength;Intensity_Meas;Intensity_Ref;Difference_dB
1200.0000;-60.6900;-55.6000;-5.0900
1200.1990;-60.6700;-55.5600;-5.1100
1200.3980;-60.6700;-55.5400;-5.1300
1200.5970;-60.6600;-55.5000;-5.1600
1200.7970;-60.5800;-55.4800;-5.1000
1200.9960;-60.5400;-55.4400;-5.1000
1201.1950;-60.5900;-55.3900;-5.2000
1201.3940;-60.5800;-55.3500;-5.2300
1201.5930;-60.5500;-55.3200;-5.2300
1201.7920;-60.4800;-55.2800;-5.2000
1201.9910;-60.4600;-55.2100;-5.2500
1202.1900;-60.5200;-55.1600;-5.3600
1202.3890;-60.5000;-55.1100;-5.3900
1202.5890;-60.4200;-55.0800;-5.3400
1202.7880;-60.3900;-55.0100;-5.3800
1202.9870;-60.4100;-54.9400;-5.4700
1203.1860;-60.4300;-54.8900;-5.5400
1203.3850;-60.3400;-54.8700;-5.4700
1203.5840;-60.3200;-54.8100;-5.5100
1203.7830;-60.3300;-54.7500;-5.5800
1203.9820;-60.3600;-54.7200;-5.6400
1204.1810;-60.3400;-54.6800;-5.6600
1204.3810;-60.2800;-54.6400;-5.6400
1204.5800;-60.3000;-54.6000;-5.7000
1204.7790;-60.3700;-54.5800;-5.7900
1204.9780;-60.3700;-54.5500;-5.8200
1205.1770;-60.3400;-54.5100;-5.8300
1205.3760;-60.3200;-54.4800;-5.8400
1205.5750;-60.3700;-54.4600;-5.9100
1205.7740;-60.3900;-54.4400;-5.9500
1205.9740;-60.3500;-54.4400;-5.9100
1206.1730;-60.3100;-54.4100;-5.9000
1206.3720;-60.3100;-54.3800;-5.9300
1206.5710;-60.3100;-54.3500;-5.9600
1206.7700;-60.2500;-54.3400;-5.9100
1206.9690;-60.1400;-54.3100;-5.8300
1207.1680;-60.0900;-54.2700;-5.8200
1207.3670;-60.0500;-54.2400;-5.8100
1207.5660;-59.9800;-54.2200;-5.7600
1207.7660;-59.8300;-54.1900;-5.6400
1207.9650;-59.7700;-54.1500;-5.6200
1208.1640;-59.7600;-54.0900;-5.6700
1208.3630;-59.6700;-54.0700;-5.6000
1208.5620;-59.5600;-54.0300;-5.5300
1208.7610;-59.5000;-53.9700;-5.5300
1208.9600;-59.4600;-53.9200;-5.5400
1209.1590;-59.4000;-53.8600;-5.5400
1209.3580;-59.2900;-53.8200;-5.4700
1209.5580;-59.2200;-53.7600;-5.4600
1209.7570;-59.2000;-53.7100;-5.4900
1209.9560;-59.1700;-53.6500;-5.5200
1210.1550;-59.0800;-53.6100;-5.4700
1210.3540;-58.9800;-53.5700;-5.4100
1210.5530;-58.9400;-53.4900;-5.4500
1210.7520;-58.9200;-53.4400;-5.4800
1210.9510;-58.8600;-53.4100;-5.4500
1211.1500;-58.8000;-53.3500;-5.4500
1211.3500;-58.7700;-53.3100;-5.4600
1211.5490;-58.7700;-53.2600;-5.5100
1211.7480;-58.7700;-53.2300;-5.5400
1211.9470;-58.7000;-53.2100;-5.4900
1212.1460;-58.7100;-53.1600;-5.5500
1212.3450;-58.7600;-53.1200;-5.6400
1212.5440;-58.7800;-53.1000;-5.6800
1212.7430;-58.7600;-53.0700;-5.6900
1212.9430;-58.7700;-53.0300;-5.7400
1213.1420;-58.8400;-52.9900;-5.8500
1213.3410;-58.8600;-52.9800;-5.8800
1213.5400;-58.8500;-52.9500;-5.9000
1213.7390;-58.8700;-52.9000;-5.9700
1213.9380;-58.8800;-52.8700;-6.0100
1214.1370;-58.9100;-52.8300;-6.0800
1214.3360;-58.8700;-52.8000;-6.0700
1214.5350;-58.8000;-52.7600;-6.0400
1214.7350;-58.8200;-52.7100;-6.1100
1214.9340;-58.7900;-52.6600;-6.1300
1215.1330;-58.7100;-52.6200;-6.0900
1215.3320;-58.6000;-52.5800;-6.0200
1215.5310;-58.5500;-52.5100;-6.0400
1215.7300;-58.5000;-52.4500;-6.0500
1215.9290;-58.3800;-52.4200;-5.9600
1216.1280;-58.2800;-52.3500;-5.9300
1216.3270;-58.1700;-52.2900;-5.8800
1216.5270;-58.0900;-52.2300;-5.8600
1216.7260;-57.9800;-52.1700;-5.8100
1216.9250;-57.8500;-52.1200;-5.7300
1217.1240;-57.7300;-52.0500;-5.6800
1217.3230;-57.6300;-52.0000;-5.6300
1217.5220;-57.5200;-51.9400;-5.5800
1217.7210;-57.3800;-51.8900;-5.4900
1217.9200;-57.2500;-51.8400;-5.4100
1218.1200;-57.1600;-51.7700;-5.3900
1218.3190;-57.0500;-51.7400;-5.3100
1218.5180;-56.9400;-51.6900;-5.2500
1218.7170;-56.8400;-51.6500;-5.1900
1218.9160;-56.7600;-51.6100;-5.1500
1219.1150;-56.7100;-51.5600;-5.1500
1219.3140;-56.6100;-51.5400;-5.0700
1219.5130;-56.5700;-51.5000;-5.0700
1219.7120;-56.5700;-51.4500;-5.1200
1219.9120;-56.5500;-51.4200;-5.1300
1220.1110;-56.5300;-51.3900;-5.1400
1220.3100;-56.5200;-51.3500;-5.1700
1220.5090;-56.5600;-51.3000;-5.2600
1220.7080;-56.5900;-51.2600;-5.3300
1220.9070;-56.6100;-51.2200;-5.3900
1221.1060;-56.6500;-51.1600;-5.4900
1221.3050;-56.6900;-51.1200;-5.5700
1221.5040;-56.7400;-51.0400;-5.7000
1221.7040;-56.7700;-50.9900;-5.7800
1221.9030;-56.8000;-50.9400;-5.8600
1222.1020;-56.8500;-50.8600;-5.9900
1222.3010;-56.8800;-50.8100;-6.0700
1222.5000;-56.8800;-50.7300;-6.1500
1222.6990;-56.9200;-50.6700;-6.2500
1222.8980;-56.9300;-50.5900;-6.3400
1223.0970;-56.9400;-50.5100;-6.4300
1223.2970;-56.9200;-50.4600;-6.4600
1223.4960;-56.9000;-50.3700;-6.5300
1223.6950;-56.9000;-50.3000;-6.6000
1223.8940;-56.8700;-50.2400;-6.6300
1224.0930;-56.8300;-50.1600;-6.6700
1224.2920;-56.7500;-50.1100;-6.6400
1224.4910;-56.6900;-50.0200;-6.6700
1224.6900;-56.6100;-49.9600;-6.6500
1224.8890;-56.4700;-49.9000;-6.5700
1225.0890;-56.3600;-49.8400;-6.5200
1225.2880;-56.2100;-49.7800;-6.4300
1225.4870;-56.0500;-49.7100;-6.3400
1225.6860;-55.8900;-49.6600;-6.2300
1225.8850;-55.6600;-49.6200;-6.0400
1226.0840;-55.5100;-49.5500;-5.9600
1226.2830;-55.3300;-49.5100;-5.8200
1226.4820;-55.1500;-49.4400;-5.7100
1226.6810;-54.9600;-49.4000;-5.5600
1226.8810;-54.8000;-49.3500;-5.4500
1227.0800;-54.6500;-49.2800;-5.3700
1227.2790;-54.4800;-49.2400;-5.2400
1227.4780;-54.3400;-49.1700;-5.1700
1227.6770;-54.2200;-49.1100;-5.1100
1227.8760;-54.1100;-49.0500;-5.0600
1228.0750;-54.0100;-48.9800;-5.0300
1228.2740;-53.9200;-48.9200;-5.0000
1228.4740;-53.8500;-48.8400;-5.0100
1228.6730;-53.7900;-48.7700;-5.0200
1228.8720;-53.7300;-48.7000;-5.0300
1229.0710;-53.7000;-48.6200;-5.0800
1229.2700;-53.6600;-48.5500;-5.1100
1229.4690;-53.6400;-48.4500;-5.1900
1229.6680;-53.6300;-48.3800;-5.2500
1229.8670;-53.6200;-48.3000;-5.3200
1230.0660;-53.6400;-48.2100;-5.4300
1230.2660;-53.6400;-48.1300;-5.5100
1230.4650;-53.6700;-48.0400;-5.6300
1230.6640;-53.7100;-47.9600;-5.7500
1230.8630;-53.7700;-47.8900;-5.8800
1231.0620;-53.8300;-47.8100;-6.0200
1231.2610;-53.9000;-47.7600;-6.1400
1231.4600;-53.9800;-47.6800;-6.3000
1231.6590;-54.0600;-47.6200;-6.4400
1231.8580;-54.1100;-47.5500;-6.5600
1232.0580;-54.2000;-47.5000;-6.7000
1232.2570;-54.2400;-47.4400;-6.8000
1232.4560;-54.2900;-47.3700;-6.9200
1232.6550;-54.3100;-47.3200;-6.9900
1232.8540;-54.3000;-47.2500;-7.0500
1233.0530;-54.2800;-47.2000;-7.0800
1233.2520;-54.2200;-47.1500;-7.0700
1233.4510;-54.1300;-47.0700;-7.0600
1233.6500;-54.0100;-47.0300;-6.9800
1233.8500;-53.8700;-46.9500;-6.9200
1234.0490;-53.7500;-46.8900;-6.8600
1234.2480;-53.5600;-46.8300;-6.7300
1234.4470;-53.3900;-46.7500;-6.6400
1234.6460;-53.2000;-46.6900;-6.5100
1234.8450;-53.0200;-46.6100;-6.4100
1235.0440;-52.8300;-46.5300;-6.3000
1235.2430;-52.6500;-46.4600;-6.1900
1235.4430;-52.4800;-46.3600;-6.1200
1235.6420;-52.3000;-46.2900;-6.0100
1235.8410;-52.1200;-46.1900;-5.9300
1236.0400;-51.9900;-46.1100;-5.8800
1236.2390;-51.8200;-46.0200;-5.8000
1236.4380;-51.6900;-45.9100;-5.7800
1236.6370;-51.5600;-45.8300;-5.7300
1236.8360;-51.4400;-45.7400;-5.7000
1237.0350;-51.3400;-45.6700;-5.6700
1237.2350;-51.2300;-45.5700;-5.6600
1237.4340;-51.1500;-45.4700;-5.6800
1237.6330;-51.0700;-45.3900;-5.6800
1237.8320;-51.0200;-45.3100;-5.7100
1238.0310;-50.9700;-45.2400;-5.7300
1238.2300;-50.9300;-45.1500;-5.7800
1238.4290;-50.9100;-45.0700;-5.8400
1238.6280;-50.8800;-45.0000;-5.8800
1238.8270;-50.8600;-44.9100;-5.9500
1239.0270;-50.8700;-44.8500;-6.0200
1239.2260;-50.8500;-44.7500;-6.1000
1239.4250;-50.8500;-44.6700;-6.1800
1239.6240;-50.8300;-44.6000;-6.2300
1239.8230;-50.8000;-44.5100;-6.2900
1240.0220;-50.7600;-44.4400;-6.3200
1240.2210;-50.7000;-44.3400;-6.3600
1240.4200;-50.6300;-44.2500;-6.3800
1240.6200;-50.5300;-44.1600;-6.3700
1240.8190;-50.4100;-44.0600;-6.3500
1241.0180;-50.2700;-43.9600;-6.3100
1241.2170;-50.1100;-43.8500;-6.2600
1241.4160;-49.9700;-43.7400;-6.2300
1241.6150;-49.7700;-43.6200;-6.1500
1241.8140;-49.5900;-43.5000;-6.0900
1242.0130;-49.4200;-43.4000;-6.0200
1242.2120;-49.2500;-43.2700;-5.9800
1242.4120;-49.0900;-43.1500;-5.9400
1242.6110;-48.9100;-43.0300;-5.8800
1242.8100;-48.7700;-42.9000;-5.8700
1243.0090;-48.6300;-42.7800;-5.8500
1243.2080;-48.5100;-42.6500;-5.8600
1243.4070;-48.4200;-42.5300;-5.8900
1243.6060;-48.3200;-42.4000;-5.9200
1243.8050;-48.2600;-42.2800;-5.9800
1244.0040;-48.2000;-42.1600;-6.0400
1244.2040;-48.1700;-42.0300;-6.1400
1244.4030;-48.1800;-41.9100;-6.2700
1244.6020;-48.1600;-41.7900;-6.3700
1244.8010;-48.1900;-41.6700;-6.5200
1245.0000;-48.2300;-41.5700;-6.6600
1245.1990;-48.2900;-41.4400;-6.8500
1245.3980;-48.3700;-41.3300;-7.0400
1245.5970;-48.4300;-41.2000;-7.2300
1245.7970;-48.5200;-41.0800;-7.4400
1245.9960;-48.5900;-40.9700;-7.6200
1246.1950;-48.6600;-40.8400;-7.8200
1246.3940;-48.7300;-40.7200;-8.0100
1246.5930;-48.7400;-40.5800;-8.1600
1246.7920;-48.7300;-40.4600;-8.2700
1246.9910;-48.6500;-40.3300;-8.3200
1247.1900;-48.5300;-40.1900;-8.3400
1247.3890;-48.3500;-40.0500;-8.3000
1247.5890;-48.0600;-39.9100;-8.1500
1247.7880;-47.7400;-39.7700;-7.9700
1247.9870;-47.3500;-39.6400;-7.7100
1248.1860;-46.9200;-39.4900;-7.4300
1248.3850;-46.4700;-39.3500;-7.1200
1248.5840;-45.9700;-39.2000;-6.7700
1248.7830;-45.4200;-39.0500;-6.3700
1248.9820;-45.0000;-38.9300;-6.0700
1249.1810;-44.5400;-38.7700;-5.7700
1249.3810;-44.0700;-38.6400;-5.4300
1249.5800;-43.6100;-38.5000;-5.1100
1249.7790;-43.2000;-38.3600;-4.8400
1249.9780;-42.7900;-38.2200;-4.5700
1250.1770;-42.4300;-38.0800;-4.3500
1250.3760;-42.0700;-37.9500;-4.1200
1250.5750;-41.7500;-37.8100;-3.9400
1250.7740;-41.4700;-37.6800;-3.7900
1250.9740;-41.2000;-37.5700;-3.6300
1251.1730;-40.9700;-37.4300;-3.5400
1251.3720;-40.7500;-37.3000;-3.4500
1251.5710;-40.5800;-37.1800;-3.4000
1251.7700;-40.4400;-37.0400;-3.4000
1251.9690;-40.3100;-36.9200;-3.3900
1252.1680;-40.2300;-36.7700;-3.4600
1252.3670;-40.1600;-36.6500;-3.5100
1252.5660;-40.1400;-36.5200;-3.6200
1252.7660;-40.1500;-36.3800;-3.7700
1252.9650;-40.1900;-36.2600;-3.9300
1253.1640;-40.2600;-36.1100;-4.1500
1253.3630;-40.3600;-35.9700;-4.3900
1253.5620;-40.5100;-35.8000;-4.7100
1253.7610;-40.6900;-35.6900;-5.0000
1253.9600;-40.8800;-35.5400;-5.3400
1254.1590;-41.1200;-35.4000;-5.7200
1254.3580;-41.3500;-35.2500;-6.1000
1254.5580;-41.6100;-35.1100;-6.5000
1254.7570;-41.8600;-34.9700;-6.8900
1254.9560;-42.0700;-34.8100;-7.2600
1255.1550;-42.2700;-34.6700;-7.6000
1255.3540;-42.3600;-34.5400;-7.8200
1255.5530;-42.3900;-34.4000;-7.9900
1255.7520;-42.2900;-34.2700;-8.0200
1255.9510;-42.0700;-34.1200;-7.9500
1256.1500;-41.7600;-34.0000;-7.7600
1256.3500;-41.3200;-33.8600;-7.4600
1256.5490;-40.8200;-33.7300;-7.0900
1256.7480;-40.2700;-33.6200;-6.6500
1256.9470;-39.6700;-33.4700;-6.2000
1257.1460;-39.0800;-33.3500;-5.7300
1257.3450;-38.4500;-33.2300;-5.2200
1257.5440;-37.8800;-33.1000;-4.7800
1257.7430;-37.3000;-32.9900;-4.3100
1257.9430;-36.7400;-32.8400;-3.9000
1258.1420;-36.2400;-32.7300;-3.5100
1258.3410;-35.6400;-32.5900;-3.0500
1258.5400;-35.2800;-32.4700;-2.8100
1258.7390;-34.8400;-32.3500;-2.4900
1258.9380;-34.4600;-32.2000;-2.2600
1259.1370;-34.1000;-32.0800;-2.0200
1259.3360;-33.7700;-31.9300;-1.8400
1259.5350;-33.5000;-31.8000;-1.7000
1259.7350;-33.2300;-31.6700;-1.5600
1259.9340;-33.0200;-31.5200;-1.5000
1260.1330;-32.8400;-31.4000;-1.4400
1260.3320;-32.6800;-31.2600;-1.4200
1260.5310;-32.5900;-31.1300;-1.4600
1260.7300;-32.5100;-31.0000;-1.5100
1260.9290;-32.4700;-30.8600;-1.6100
1261.1280;-32.4700;-30.7300;-1.7400
1261.3270;-32.5100;-30.5900;-1.9200
1261.5270;-32.6100;-30.4700;-2.1400
1261.7260;-32.7200;-30.3500;-2.3700
1261.9250;-32.8900;-30.2100;-2.6800
1262.1240;-33.0900;-30.0900;-3.0000
1262.3230;-33.3400;-29.9600;-3.3800
1262.5220;-33.6600;-29.8500;-3.8100
1262.7210;-34.0000;-29.7300;-4.2700
1262.9200;-34.4100;-29.6000;-4.8100
1263.1200;-34.8500;-29.4800;-5.3700
1263.3190;-35.3500;-29.3500;-6.0000
1263.5180;-35.9100;-29.2300;-6.6800
1263.7170;-36.4600;-29.1200;-7.3400
1263.9160;-37.0400;-28.9900;-8.0500
1264.1150;-37.5600;-28.8700;-8.6900
1264.3140;-38.0000;-28.7400;-9.2600
1264.5130;-38.3300;-28.6200;-9.7100
1264.7120;-38.3200;-28.5000;-9.8200
1264.9120;-38.0900;-28.3600;-9.7300
1265.1110;-37.6000;-28.2400;-9.3600
1265.3100;-36.9300;-28.1000;-8.8300
1265.5090;-36.1400;-27.9900;-8.1500
1265.7080;-35.1800;-27.8600;-7.3200
1265.9070;-34.4700;-27.7300;-6.7400
1266.1060;-33.6700;-27.6100;-6.0600
1266.3050;-32.9200;-27.4800;-5.4400
1266.5040;-32.2100;-27.3700;-4.8400
1266.7040;-31.5700;-27.2500;-4.3200
1266.9030;-30.9600;-27.1200;-3.8400
1267.1020;-30.4100;-27.0200;-3.3900
1267.3010;-29.9200;-26.8900;-3.0300
1267.5000;-29.4700;-26.7900;-2.6800
1267.6990;-29.0800;-26.6800;-2.4000
1267.8980;-28.7100;-26.5600;-2.1500
1268.0970;-28.4100;-26.4700;-1.9400
1268.2970;-28.1400;-26.3400;-1.8000
1268.4960;-27.9100;-26.2500;-1.6600
1268.6950;-27.7200;-26.1300;-1.5900
1268.8940;-27.5500;-26.0100;-1.5400
1269.0930;-27.4200;-25.9100;-1.5100
1269.2920;-27.3500;-25.8000;-1.5500
1269.4910;-27.3000;-25.7100;-1.5900
1269.6900;-27.3000;-25.5900;-1.7100
1269.8890;-27.3200;-25.4900;-1.8300
1270.0890;-27.4000;-25.3700;-2.0300
1270.2880;-27.5200;-25.2600;-2.2600
1270.4870;-27.6900;-25.1700;-2.5200
1270.6860;-27.9000;-25.0500;-2.8500
1270.8850;-28.1500;-24.9400;-3.2100
1271.0840;-28.4600;-24.8200;-3.6400
1271.2830;-28.8200;-24.7200;-4.1000
1271.4820;-29.2200;-24.6200;-4.6000
1271.6810;-29.7000;-24.5000;-5.2000
1271.8810;-30.1900;-24.4100;-5.7800
1272.0800;-30.7500;-24.2900;-6.4600
1272.2790;-31.3100;-24.1900;-7.1200
1272.4780;-31.8800;-24.0900;-7.7900
1272.6770;-32.4400;-23.9900;-8.4500
1272.8760;-32.8800;-23.9000;-8.9800
1273.0750;-33.1900;-23.7900;-9.4000
1273.2740;-33.2900;-23.7000;-9.5900
1273.4740;-33.1500;-23.6100;-9.5400
1273.6730;-32.7900;-23.5100;-9.2800
1273.8720;-32.2200;-23.4200;-8.8000
1274.0710;-31.5500;-23.3200;-8.2300
1274.2700;-30.8000;-23.2300;-7.5700
1274.4690;-30.0400;-23.1500;-6.8900
1274.6680;-29.3000;-23.0500;-6.2500
1274.8670;-28.5700;-22.9700;-5.6000
1275.0660;-27.9000;-22.8700;-5.0300
1275.2660;-27.2600;-22.7700;-4.4900
1275.4650;-26.6800;-22.6800;-4.0000
1275.6640;-26.1400;-22.5800;-3.5600
1275.8630;-25.5800;-22.5000;-3.0800
1276.0620;-25.2100;-22.3900;-2.8200
1276.2610;-24.8200;-22.3000;-2.5200
1276.4600;-24.4800;-22.2100;-2.2700
1276.6590;-24.1600;-22.1000;-2.0600
1276.8580;-23.9000;-22.0200;-1.8800
1277.0580;-23.6800;-21.9200;-1.7600
1277.2570;-23.5000;-21.8300;-1.6700
1277.4560;-23.3700;-21.7400;-1.6300
1277.6550;-23.2600;-21.6500;-1.6100
1277.8540;-23.2000;-21.5700;-1.6300
1278.0530;-23.1600;-21.4700;-1.6900
1278.2520;-23.1700;-21.3900;-1.7800
1278.4510;-23.2300;-21.3000;-1.9300
1278.6500;-23.3100;-21.2200;-2.0900
1278.8500;-23.4400;-21.1400;-2.3000
1279.0490;-23.6000;-21.0500;-2.5500
1279.2480;-23.8000;-20.9800;-2.8200
1279.4470;-24.0400;-20.8900;-3.1500
1279.6460;-24.3200;-20.8100;-3.5100
1279.8450;-24.6500;-20.7400;-3.9100
1280.0440;-24.9800;-20.6500;-4.3300
1280.2430;-25.3700;-20.5900;-4.7800
1280.4430;-25.7700;-20.5000;-5.2700
1280.6420;-26.1800;-20.4300;-5.7500
1280.8410;-26.6000;-20.3500;-6.2500
1281.0400;-26.9600;-20.2700;-6.6900
1281.2390;-27.2800;-20.2000;-7.0800
1281.4380;-27.4900;-20.1200;-7.3700
1281.6370;-27.5400;-20.0500;-7.4900
1281.8360;-27.4700;-19.9700;-7.5000
1282.0350;-27.2000;-19.8900;-7.3100
1282.2350;-26.8000;-19.8300;-6.9700
1282.4340;-26.2800;-19.7400;-6.5400
1282.6330;-25.7100;-19.6800;-6.0300
1282.8320;-25.0900;-19.6100;-5.4800
1283.0310;-24.4400;-19.5300;-4.9100
1283.2300;-23.8200;-19.4700;-4.3500
1283.4290;-23.2000;-19.4000;-3.8000
1283.6280;-22.6200;-19.3300;-3.2900
1283.8270;-22.0800;-19.2600;-2.8200
1284.0270;-21.5700;-19.1900;-2.3800
1284.2260;-21.1100;-19.1300;-1.9800
1284.4250;-20.6700;-19.0600;-1.6100
1284.6240;-20.2800;-19.0000;-1.2800
1284.8230;-19.9400;-18.9300;-1.0100
1285.0220;-19.6200;-18.8600;-0.7600
1285.2210;-19.3600;-18.8000;-0.5600
1285.4200;-19.1100;-18.7300;-0.3800
1285.6200;-18.9100;-18.6700;-0.2400
1285.8190;-18.7600;-18.5900;-0.1700
1286.0180;-18.6400;-18.5300;-0.1100
1286.2170;-18.5700;-18.4700;-0.1000
1286.4160;-18.5100;-18.3900;-0.1200
1286.6150;-18.5200;-18.3400;-0.1800
1286.8140;-18.5600;-18.2700;-0.2900
1287.0130;-18.6400;-18.2000;-0.4400
1287.2120;-18.7800;-18.1400;-0.6400
1287.4120;-18.9500;-18.0700;-0.8800
1287.6110;-19.1800;-18.0200;-1.1600
1287.8100;-19.4500;-17.9400;-1.5100
1288.0090;-19.7800;-17.8900;-1.8900
1288.2080;-20.1800;-17.8200;-2.3600
1288.4070;-20.6300;-17.7600;-2.8700
1288.6060;-21.1600;-17.7100;-3.4500
1288.8050;-21.7800;-17.6500;-4.1300
1289.0040;-22.4900;-17.6000;-4.8900
1289.2040;-23.3100;-17.5300;-5.7800
1289.4030;-24.2300;-17.4800;-6.7500
1289.6020;-25.3200;-17.4400;-7.8800
1289.8010;-26.5300;-17.3800;-9.1500
1290.0000;-27.8900;-17.3400;-10.5500
1290.1990;-29.6400;-17.2800;-12.3600
1290.3980;-30.6700;-17.2300;-13.4400
1290.5970;-31.4300;-17.2000;-14.2300
1290.7970;-31.1500;-17.1400;-14.0100
1290.9960;-30.0100;-17.1000;-12.9100
1291.1950;-28.4700;-17.0400;-11.4300
1291.3940;-26.9200;-17.0000;-9.9200
1291.5930;-25.2600;-16.9400;-8.3200
1291.7920;-24.2200;-16.9000;-7.3200
1291.9910;-23.1100;-16.8600;-6.2500
1292.1900;-22.1200;-16.8000;-5.3200
1292.3890;-21.2600;-16.7600;-4.5000
1292.5890;-20.4700;-16.7100;-3.7600
1292.7880;-19.8000;-16.6600;-3.1400
1292.9870;-19.1900;-16.6300;-2.5600
1293.1860;-18.6700;-16.5700;-2.1000
1293.3850;-18.2100;-16.5400;-1.6700
1293.5840;-17.7900;-16.4800;-1.3100
1293.7830;-17.4500;-16.4400;-1.0100
1293.9820;-17.1400;-16.4100;-0.7300
1294.1810;-16.8900;-16.3600;-0.5300
1294.3810;-16.7000;-16.3400;-0.3600
1294.5800;-16.5200;-16.2700;-0.2500
1294.7790;-16.4200;-16.2400;-0.1800
1294.9780;-16.3300;-16.2000;-0.1300
1295.1770;-16.3100;-16.1600;-0.1500
1295.3760;-16.3200;-16.1300;-0.1900
1295.5750;-16.3600;-16.0800;-0.2800
1295.7740;-16.4700;-16.0600;-0.4100
1295.9740;-16.5900;-16.0000;-0.5900
1296.1730;-16.7800;-15.9700;-0.8100
1296.3720;-17.0100;-15.9300;-1.0800
1296.5710;-17.2800;-15.8900;-1.3900
1296.7700;-17.6300;-15.8700;-1.7600
1296.9690;-18.0000;-15.8200;-2.1800
1297.1680;-18.4600;-15.8000;-2.6600
1297.3670;-18.9700;-15.7500;-3.2200
1297.5660;-19.5500;-15.7200;-3.8300
1297.7660;-20.2300;-15.6900;-4.5400
1297.9650;-20.9900;-15.6600;-5.3300
1298.1640;-21.8700;-15.6400;-6.2300
1298.3630;-22.8600;-15.6000;-7.2600
1298.5620;-23.9700;-15.5600;-8.4100
1298.7610;-25.2500;-15.5400;-9.7100
1298.9600;-26.6300;-15.5100;-11.1200
1299.1590;-28.0600;-15.5000;-12.5600
1299.3580;-29.5100;-15.4600;-14.0500
1299.5580;-29.8600;-15.4300;-14.4300
1299.7570;-29.4700;-15.4000;-14.0700
1299.9560;-28.3600;-15.3800;-12.9800
1300.1550;-26.9300;-15.3700;-11.5600
1300.3540;-25.2700;-15.3300;-9.9400
1300.5530;-24.1700;-15.3100;-8.8600
1300.7520;-23.0000;-15.2800;-7.7200
1300.9510;-21.9700;-15.2600;-6.7100
1301.1500;-21.0400;-15.2500;-5.7900
1301.3500;-20.2400;-15.2200;-5.0200
1301.5490;-19.5300;-15.2200;-4.3100
1301.7480;-18.9000;-15.1900;-3.7100
1301.9470;-18.3500;-15.1700;-3.1800
1302.1460;-17.8700;-15.1700;-2.7000
1302.3450;-17.4500;-15.1500;-2.3000
1302.5440;-17.0900;-15.1500;-1.9400
1302.7430;-16.7800;-15.1200;-1.6600
1302.9430;-16.5300;-15.1000;-1.4300
1303.1420;-16.3100;-15.1000;-1.2100
1303.3410;-16.1600;-15.0800;-1.0800
1303.5400;-16.0100;-15.0900;-0.9200
1303.7390;-15.9600;-15.0700;-0.8900
1303.9380;-15.9200;-15.0600;-0.8600
1304.1370;-15.9400;-15.0600;-0.8800
1304.3360;-15.9900;-15.0500;-0.9400
1304.5350;-16.0800;-15.0600;-1.0200
1304.7350;-16.2200;-15.0600;-1.1600
1304.9340;-16.3800;-15.0600;-1.3200
1305.1330;-16.6200;-15.0600;-1.5600
1305.3320;-16.8900;-15.0600;-1.8300
1305.5310;-17.2000;-15.0800;-2.1200
1305.7300;-17.5800;-15.0800;-2.5000
1305.9290;-17.9900;-15.0900;-2.9000
1306.1280;-18.5900;-15.1000;-3.4900
1306.3270;-19.0300;-15.1100;-3.9200
1306.5270;-19.6500;-15.1400;-4.5100
1306.7260;-20.3600;-15.1400;-5.2200
1306.9250;-21.1200;-15.1700;-5.9500
1307.1240;-22.0100;-15.1700;-6.8400
1307.3230;-22.9600;-15.1900;-7.7700
1307.5220;-24.0000;-15.2100;-8.7900
1307.7210;-25.1200;-15.2300;-9.8900
1307.9200;-26.2200;-15.2600;-10.9600
1308.1200;-27.2100;-15.2700;-11.9400
1308.3190;-27.8300;-15.2900;-12.5400
1308.5180;-27.9400;-15.3200;-12.6200
1308.7170;-27.5000;-15.3400;-12.1600
1308.9160;-26.6500;-15.3700;-11.2800
1309.1150;-25.6600;-15.3800;-10.2800
1309.3140;-24.6000;-15.4100;-9.1900
1309.5130;-23.6200;-15.4300;-8.1900
1309.7120;-22.7100;-15.4500;-7.2600
1309.9120;-21.8900;-15.4800;-6.4100
1310.1110;-21.1700;-15.5000;-5.6700
1310.3100;-20.5200;-15.5300;-4.9900
1310.5090;-19.9700;-15.5500;-4.4200
1310.7080;-19.4500;-15.5700;-3.8800
1310.9070;-19.0200;-15.5800;-3.4400
1311.1060;-18.6700;-15.6000;-3.0700
1311.3050;-18.3400;-15.6400;-2.7000
1311.5040;-18.1100;-15.6500;-2.4600
1311.7040;-17.9000;-15.6800;-2.2200
1311.9030;-17.7500;-15.6900;-2.0600
1312.1020;-17.6600;-15.7200;-1.9400
1312.3010;-17.6100;-15.7500;-1.8600
1312.5000;-17.6300;-15.7800;-1.8500
1312.6990;-17.6600;-15.8200;-1.8400
1312.8980;-17.7600;-15.8400;-1.9200
1313.0970;-17.8900;-15.8700;-2.0200
1313.2970;-18.0800;-15.9000;-2.1800
1313.4960;-18.3400;-15.9400;-2.4000
1313.6950;-18.6200;-15.9900;-2.6300
1313.8940;-18.9700;-16.0100;-2.9600
1314.0930;-19.3700;-16.0600;-3.3100
1314.2920;-19.8400;-16.1000;-3.7400
1314.4910;-20.3800;-16.1500;-4.2300
1314.6900;-20.9800;-16.2000;-4.7800
1314.8890;-21.6800;-16.2400;-5.4400
1315.0890;-22.4500;-16.3000;-6.1500
1315.2880;-23.3300;-16.3300;-7.0000
1315.4870;-24.3300;-16.3900;-7.9400
1315.6860;-25.4300;-16.4500;-8.9800
1315.8850;-26.6700;-16.5000;-10.1700
1316.0840;-27.9700;-16.5700;-11.4000
1316.2830;-29.5600;-16.6100;-12.9500
1316.4820;-30.3800;-16.6900;-13.6900
1316.6810;-30.9100;-16.7500;-14.1600
1316.8810;-30.6600;-16.8200;-13.8400
1317.0800;-29.7900;-16.9000;-12.8900
1317.2790;-28.6100;-16.9600;-11.6500
1317.4780;-27.3700;-17.0400;-10.3300
1317.6770;-26.0200;-17.1000;-8.9200
1317.8760;-25.1300;-17.1700;-7.9600
1318.0750;-24.2100;-17.2500;-6.9600
1318.2740;-23.3800;-17.3200;-6.0600
1318.4740;-22.6600;-17.4000;-5.2600
1318.6730;-22.0400;-17.4600;-4.5800
1318.8720;-21.4800;-17.5500;-3.9300
1319.0710;-21.0300;-17.6300;-3.4000
1319.2700;-20.6000;-17.7000;-2.9000
1319.4690;-20.2600;-17.7800;-2.4800
1319.6680;-19.9700;-17.8600;-2.1100
1319.8670;-19.7300;-17.9500;-1.7800
1320.0660;-19.5500;-18.0100;-1.5400
1320.2660;-19.4100;-18.0900;-1.3200
1320.4650;-19.3200;-18.1700;-1.1500
1320.6640;-19.2700;-18.2500;-1.0200
1320.8630;-19.2600;-18.3400;-0.9200
1321.0620;-19.2900;-18.4100;-0.8800
1321.2610;-19.3700;-18.5300;-0.8400
1321.4600;-19.5000;-18.5900;-0.9100
1321.6590;-19.6400;-18.6900;-0.9500
1321.8580;-19.8500;-18.7700;-1.0800
1322.0580;-20.0800;-18.8600;-1.2200
1322.2570;-20.3700;-18.9600;-1.4100
1322.4560;-20.7100;-19.0400;-1.6700
1322.6550;-21.0700;-19.1400;-1.9300
1322.8540;-21.5000;-19.2200;-2.2800
1323.0530;-21.9700;-19.3200;-2.6500
1323.2520;-22.5000;-19.4200;-3.0800
1323.4510;-23.0900;-19.5100;-3.5800
1323.6500;-23.7200;-19.6200;-4.1000
1323.8500;-24.4300;-19.7100;-4.7200
1324.0490;-25.1900;-19.8200;-5.3700
1324.2480;-26.0100;-19.9200;-6.0900
1324.4470;-26.9000;-20.0200;-6.8800
1324.6460;-27.8200;-20.1400;-7.6800
1324.8450;-28.9600;-20.2400;-8.7200
1325.0440;-29.6800;-20.3600;-9.3200
1325.2430;-30.4800;-20.4600;-10.0200
1325.4430;-31.0600;-20.5800;-10.4800
1325.6420;-31.3500;-20.7200;-10.6300
1325.8410;-31.2600;-20.8400;-10.4200
1326.0400;-30.8900;-20.9700;-9.9200
1326.2390;-30.3300;-21.0800;-9.2500
1326.4380;-29.6600;-21.2100;-8.4500
1326.6370;-28.9800;-21.3300;-7.6500
1326.8360;-28.3000;-21.4500;-6.8500
1327.0350;-27.6800;-21.5900;-6.0900
1327.2350;-27.1200;-21.7100;-5.4100
1327.4340;-26.6200;-21.8500;-4.7700
1327.6330;-26.1100;-21.9700;-4.1400
1327.8320;-25.8100;-22.1000;-3.7100
1328.0310;-25.5000;-22.2400;-3.2600
1328.2300;-25.2300;-22.3700;-2.8600
1328.4290;-25.0200;-22.5100;-2.5100
1328.6280;-24.8500;-22.6400;-2.2100
1328.8270;-24.7300;-22.7700;-1.9600
1329.0270;-24.6700;-22.9200;-1.7500
1329.2260;-24.6200;-23.0500;-1.5700
1329.4250;-24.6400;-23.1900;-1.4500
1329.6240;-24.6800;-23.3100;-1.3700
1329.8230;-24.7600;-23.4600;-1.3000
1330.0220;-24.8800;-23.6000;-1.2800
1330.2210;-25.0400;-23.7300;-1.3100
1330.4200;-25.2400;-23.8800;-1.3600
1330.6200;-25.4600;-24.0100;-1.4500
1330.8190;-25.7400;-24.1600;-1.5800
1331.0180;-26.0400;-24.3000;-1.7400
1331.2170;-26.3800;-24.4500;-1.9300
1331.4160;-26.7700;-24.6100;-2.1600
1331.6150;-27.1700;-24.7400;-2.4300
1331.8140;-27.6300;-24.9100;-2.7200
1332.0130;-28.1000;-25.0400;-3.0600
1332.2120;-28.7200;-25.2000;-3.5200
1332.4120;-29.1600;-25.3600;-3.8000
1332.6110;-29.7100;-25.5100;-4.2000
1332.8100;-30.2800;-25.6700;-4.6100
1333.0090;-30.8400;-25.8200;-5.0200
1333.2080;-31.4000;-25.9700;-5.4300
1333.4070;-31.8900;-26.1300;-5.7600
1333.6060;-32.3500;-26.2800;-6.0700
1333.8050;-32.7100;-26.4500;-6.2600
1334.0040;-32.9800;-26.6000;-6.3800
1334.2040;-33.1500;-26.7700;-6.3800
1334.4030;-33.2000;-26.9200;-6.2800
1334.6020;-33.1600;-27.0900;-6.0700
1334.8010;-33.0200;-27.2400;-5.7800
1335.0000;-32.8300;-27.4000;-5.4300
1335.1990;-32.6100;-27.5800;-5.0300
1335.3980;-32.3600;-27.7300;-4.6300
1335.5970;-32.1300;-27.9000;-4.2300
1335.7970;-31.8900;-28.0600;-3.8300
1335.9960;-31.6800;-28.2300;-3.4500
1336.1950;-31.4900;-28.4000;-3.0900
1336.3940;-31.3200;-28.5900;-2.7300
1336.5930;-31.1900;-28.7300;-2.4600
1336.7920;-31.0800;-28.8800;-2.2000
1336.9910;-31.0300;-29.0600;-1.9700
1337.1900;-30.9900;-29.2200;-1.7700
1337.3890;-31.0000;-29.3900;-1.6100
1337.5890;-31.0500;-29.5600;-1.4900
1337.7880;-31.1300;-29.7200;-1.4100
1337.9870;-31.2600;-29.9000;-1.3600
1338.1860;-31.4000;-30.0600;-1.3400
1338.3850;-31.6000;-30.2400;-1.3600
1338.5840;-31.8300;-30.4000;-1.4300
1338.7830;-32.1000;-30.5700;-1.5300
1338.9820;-32.4200;-30.7400;-1.6800
1339.1810;-32.7800;-30.9100;-1.8700
1339.3810;-33.1900;-31.1000;-2.0900
1339.5800;-33.6300;-31.2600;-2.3700
1339.7790;-34.1400;-31.4400;-2.7000
1339.9780;-34.7000;-31.6100;-3.0900
1340.1770;-35.3200;-31.7900;-3.5300
1340.3760;-36.0200;-31.9800;-4.0400
1340.5750;-36.7800;-32.1600;-4.6200
1340.7740;-37.6100;-32.3400;-5.2700
1340.9740;-38.7300;-32.5000;-6.2300
1341.1730;-39.5900;-32.6800;-6.9100
1341.3720;-40.7200;-32.8700;-7.8500
1341.5710;-42.0100;-33.0400;-8.9700
1341.7700;-43.4800;-33.2300;-10.2500
1341.9690;-45.1000;-33.4000;-11.7000
1342.1680;-46.8800;-33.5800;-13.3000
1342.3670;-49.0300;-33.7500;-15.2800
1342.5660;-50.0100;-33.9300;-16.0800
1342.7660;-50.2900;-34.1200;-16.1700
1342.9650;-49.5000;-34.2900;-15.2100
1343.1640;-48.1400;-34.4800;-13.6600
1343.3630;-46.7200;-34.6600;-12.0600
1343.5620;-45.2200;-34.8300;-10.3900
1343.7610;-44.3200;-35.0200;-9.3000
1343.9600;-43.4000;-35.1900;-8.2100
1344.1590;-42.5900;-35.3900;-7.2000
1344.3580;-41.9200;-35.5600;-6.3600
1344.5580;-41.3600;-35.7400;-5.6200
1344.7570;-40.8900;-35.9300;-4.9600
1344.9560;-40.5000;-36.0900;-4.4100
1345.1550;-40.1700;-36.2700;-3.9000
1345.3540;-39.9400;-36.4300;-3.5100
1345.5530;-39.7400;-36.6100;-3.1300
1345.7520;-39.6200;-36.7700;-2.8500
1345.9510;-39.5500;-36.9500;-2.6000
1346.1500;-39.5300;-37.1300;-2.4000
1346.3500;-39.5800;-37.3100;-2.2700
1346.5490;-39.6600;-37.5000;-2.1600
1346.7480;-39.7800;-37.6700;-2.1100
1346.9470;-39.9400;-37.8400;-2.1000
1347.1460;-40.1400;-38.0100;-2.1300
1347.3450;-40.3900;-38.1600;-2.2300
1347.5440;-40.7200;-38.3800;-2.3400
1347.7430;-41.1200;-38.6500;-2.4700
1347.9430;-41.5400;-38.8100;-2.7300
1348.1420;-41.9900;-38.9800;-3.0100
1348.3410;-42.5100;-39.1600;-3.3500
1348.5400;-43.0300;-39.3100;-3.7200
1348.7390;-43.6400;-39.4700;-4.1700
1348.9380;-44.2900;-39.6400;-4.6500
1349.1370;-45.0400;-39.7900;-5.2500
1349.3360;-45.8600;-39.9400;-5.9200
1349.5350;-46.7700;-40.1100;-6.6600
1349.7350;-47.7900;-40.2600;-7.5300
1349.9340;-49.2000;-40.4500;-8.7500
1350.1330;-50.2800;-40.6300;-9.6500
1350.3320;-51.7600;-40.8800;-10.8800
1350.5310;-53.4400;-41.0900;-12.3500
1350.7300;-55.2500;-41.2600;-13.9900
1350.9290;-56.9600;-41.4200;-15.5400
1351.1280;-58.0100;-41.5300;-16.4800
1351.3270;-57.9400;-41.6900;-16.2500
1351.5270;-56.9400;-41.8600;-15.0800
1351.7260;-55.5700;-42.0900;-13.4800
1351.9250;-54.1300;-42.2900;-11.8400
1352.1240;-52.8300;-42.4500;-10.3800
1352.3230;-51.7500;-42.6300;-9.1200
1352.5220;-50.8800;-42.8300;-8.0500
1352.7210;-50.0300;-42.9800;-7.0500
1352.9200;-49.3400;-43.1300;-6.2100
1353.1200;-48.8500;-43.3800;-5.4700
1353.3190;-48.3100;-43.4900;-4.8200
1353.5180;-47.9000;-43.6500;-4.2500
1353.7170;-47.5700;-43.8300;-3.7400
1353.9160;-47.2600;-43.9200;-3.3400
1354.1150;-47.0300;-44.0600;-2.9700
1354.3140;-46.9400;-44.2700;-2.6700
1354.5130;-46.8600;-44.4600;-2.4000
1354.7120;-46.9600;-44.7700;-2.1900
1354.9120;-47.0700;-45.0300;-2.0400
1355.1110;-47.1300;-45.2100;-1.9200
1355.3100;-47.1700;-45.3100;-1.8600
1355.5090;-47.1300;-45.3000;-1.8300
1355.7080;-47.3900;-45.5700;-1.8200
1355.9070;-47.7100;-45.8200;-1.8900
1356.1060;-47.9700;-45.9800;-1.9900
1356.3050;-48.2300;-46.0400;-2.1900
1356.5040;-48.5200;-46.1300;-2.3900
1356.7040;-48.6700;-46.0400;-2.6300
1356.9030;-49.0700;-46.1800;-2.8900
1357.1020;-49.7400;-46.5600;-3.1800
1357.3010;-50.3900;-46.7600;-3.6300
1357.5000;-51.0600;-46.9400;-4.1200
1357.6990;-51.7700;-47.0900;-4.6800
1357.8980;-52.4600;-47.1300;-5.3300
1358.0970;-53.1900;-47.1900;-6.0000
1358.2970;-54.1400;-47.3600;-6.7800
1358.4960;-55.2700;-47.5900;-7.6800
1358.6950;-56.4400;-47.7100;-8.7300
1358.8940;-57.8000;-47.8600;-9.9400
1359.0930;-59.7200;-47.9900;-11.7300
1359.2920;-60.7900;-48.0200;-12.7700
1359.4910;-62.4200;-48.4000;-14.0200
1359.6900;-63.7300;-48.7400;-14.9900
1359.8890;-64.2000;-48.8900;-15.3100
1360.0890;-63.5200;-48.9200;-14.6000
1360.2880;-62.2800;-48.9400;-13.3400
1360.4870;-60.8600;-48.9200;-11.9400
1360.6860;-59.6200;-49.0800;-10.5400
1360.8850;-58.7400;-49.4200;-9.3200
1361.0840;-57.8700;-49.7000;-8.1700
1361.2830;-56.9600;-49.8800;-7.0800
1361.4820;-56.0500;-50.0100;-6.0400
1361.6810;-55.7100;-50.2300;-5.4800
1361.8810;-55.1700;-50.3500;-4.8200
1362.0800;-54.7900;-50.5700;-4.2200
1362.2790;-54.6700;-50.9900;-3.6800
1362.4780;-54.5200;-51.2200;-3.3000
1362.6770;-54.2200;-51.3500;-2.8700
1362.8760;-53.7600;-51.2200;-2.5400
1363.0750;-53.4300;-51.1400;-2.2900
1363.2740;-53.0100;-50.9000;-2.1100
1363.4740;-52.9100;-50.9800;-1.9300
1363.6730;-52.8900;-51.0700;-1.8200
1363.8720;-52.9500;-51.2000;-1.7500
1364.0710;-53.1300;-51.4200;-1.7100
1364.2700;-53.3400;-51.6000;-1.7400
1364.4690;-53.6700;-51.9100;-1.7600
1364.6680;-54.2900;-52.4200;-1.8700
1364.8670;-54.7000;-52.6400;-2.0600
1365.0660;-54.9300;-52.6200;-2.3100
1365.2660;-55.3100;-52.7600;-2.5500
1365.4650;-55.5300;-52.7000;-2.8300
1365.6640;-55.9500;-52.7700;-3.1800
1365.8630;-56.4300;-52.8000;-3.6300
1366.0620;-56.9300;-52.8100;-4.1200
1366.2610;-57.4300;-52.8000;-4.6300
1366.4600;-58.1100;-52.8800;-5.2300
1366.6590;-59.1400;-53.0300;-6.1100
1366.8580;-59.9600;-53.2700;-6.6900
1367.0580;-60.9900;-53.4100;-7.5800
1367.2570;-62.1300;-53.5200;-8.6100
1367.4560;-63.4400;-53.7900;-9.6500
1367.6550;-64.6900;-53.9700;-10.7200
1367.8540;-66.2100;-54.2600;-11.9500
1368.0530;-67.6000;-54.3600;-13.2400
1368.2520;-68.4900;-54.3500;-14.1400
1368.4510;-68.8600;-54.6900;-14.1700
1368.6500;-68.4800;-54.7800;-13.7000
1368.8500;-67.5600;-54.9000;-12.6600
1369.0490;-66.3600;-54.8600;-11.5000
1369.2480;-65.1700;-54.8400;-10.3300
1369.4470;-64.0300;-54.7700;-9.2600
1369.6460;-63.1300;-54.8700;-8.2600
1369.8450;-62.5900;-55.2100;-7.3800
1370.0440;-61.9800;-55.4100;-6.5700
1370.2430;-61.3500;-55.5500;-5.8000
1370.4430;-60.6900;-55.5900;-5.1000
1370.6420;-60.1900;-55.6200;-4.5700
1370.8410;-60.0600;-55.9300;-4.1300
1371.0400;-59.9000;-56.2100;-3.6900
1371.2390;-59.6800;-56.4200;-3.2600
1371.4380;-59.3100;-56.4000;-2.9100
1371.6370;-59.0600;-56.4000;-2.6600
1371.8360;-58.8100;-56.3600;-2.4500
1372.0350;-58.8200;-56.5700;-2.2500
1372.2350;-58.8800;-56.7800;-2.1000
1372.4340;-58.9000;-56.8900;-2.0100
1372.6330;-58.9000;-56.9800;-1.9200
1372.8320;-58.9200;-57.0000;-1.9200
1373.0310;-58.9900;-57.0700;-1.9200
1373.2300;-59.1600;-57.1800;-1.9800
1373.4290;-59.4200;-57.3500;-2.0700
1373.6280;-59.6400;-57.4800;-2.1600
1373.8270;-59.9000;-57.5700;-2.3300
1374.0270;-60.2300;-57.7000;-2.5300
1374.2260;-60.5600;-57.8000;-2.7600
1374.4250;-60.9800;-57.9700;-3.0100
1374.6240;-61.4100;-58.0900;-3.3200
1374.8230;-61.9200;-58.3000;-3.6200
1375.0220;-62.4900;-58.5500;-3.9400
1375.2210;-63.0200;-58.5900;-4.4300
1375.4200;-63.5000;-58.6900;-4.8100
1375.6200;-64.0700;-58.7800;-5.2900
1375.8190;-64.6300;-58.9100;-5.7200
1376.0180;-65.2700;-59.0600;-6.2100
1376.2170;-65.8600;-59.2300;-6.6300
1376.4160;-66.4700;-59.3400;-7.1300
1376.6150;-66.8700;-59.4400;-7.4300
1376.8140;-67.3000;-59.6300;-7.6700
1377.0130;-67.6800;-59.8800;-7.8000
1377.2120;-67.8800;-60.0700;-7.8100
1377.4120;-67.8600;-60.1500;-7.7100
1377.6110;-67.6600;-60.2300;-7.4300
1377.8100;-67.3600;-60.2300;-7.1300
1378.0090;-67.0800;-60.3000;-6.7800
1378.2080;-66.8400;-60.4300;-6.4100
1378.4070;-66.4800;-60.6000;-5.8800
1378.6060;-66.3800;-60.8600;-5.5200
1378.8050;-66.2500;-61.1800;-5.0700
1379.0040;-65.9800;-61.3200;-4.6600
1379.2040;-65.6200;-61.3700;-4.2500
1379.4030;-65.2400;-61.3500;-3.8900
1379.6020;-64.9400;-61.3700;-3.5700
1379.8010;-64.7800;-61.4100;-3.3700
1380.0000;-64.6100;-61.5700;-3.0400
1380.1990;-64.6400;-61.7500;-2.8900
1380.3980;-64.6500;-61.9400;-2.7100
1380.5970;-65.0900;-62.5300;-2.5600
1380.7970;-65.4200;-62.9800;-2.4400
1380.9960;-65.5800;-63.1600;-2.4200
1381.1950;-65.5700;-63.2000;-2.3700
1381.3940;-65.3200;-62.9600;-2.3600
1381.5930;-65.2000;-62.6800;-2.5200
1381.7920;-65.3200;-62.7200;-2.6000
1381.9910;-65.5600;-62.7800;-2.7800
1382.1900;-65.8600;-62.9000;-2.9600
1382.3890;-66.2800;-63.2200;-3.0600
1382.5890;-67.0500;-63.7800;-3.2700
1382.7880;-67.8400;-64.2900;-3.5500
1382.9870;-68.5200;-64.5200;-4.0000
1383.1860;-68.7700;-64.3000;-4.4700
1383.3850;-69.0500;-64.0900;-4.9600
1383.5840;-69.3400;-63.8900;-5.4500
1383.7830;-69.7800;-64.0000;-5.7800
1383.9820;-70.5900;-64.1200;-6.4700
1384.1810;-71.2600;-64.2000;-7.0600
1384.3810;-71.7800;-64.2300;-7.5500
1384.5800;-72.4000;-64.2100;-8.1900
1384.7790;-72.9000;-64.3500;-8.5500
1384.9780;-74.0300;-64.6000;-9.4300
1385.1770;-74.5900;-64.8600;-9.7300
1385.3760;-75.0000;-64.9400;-10.0600
1385.5750;-74.9000;-64.9400;-9.9600
1385.7740;-74.3200;-64.9300;-9.3900
1385.9740;-74.1400;-64.9400;-9.2000
1386.1730;-73.6100;-65.0100;-8.6000
1386.3720;-73.3700;-65.1700;-8.2000
1386.5710;-72.6100;-65.1500;-7.4600
1386.7700;-72.2000;-65.1500;-7.0500
1386.9690;-71.7300;-65.2700;-6.4600
1387.1680;-71.1800;-65.2700;-5.9100
1387.3670;-70.6200;-65.3100;-5.3100
1387.5660;-70.5500;-65.4500;-5.1000
1387.7660;-70.3000;-65.6700;-4.6300
1387.9650;-70.0800;-65.9700;-4.1100
1388.1640;-69.8900;-66.2100;-3.6800
1388.3630;-69.8300;-66.3200;-3.5100
1388.5620;-69.5100;-66.2400;-3.2700
1388.7610;-69.1900;-66.1100;-3.0800
1388.9600;-69.1000;-66.1800;-2.9200
1389.1590;-68.8800;-66.0800;-2.8000
1389.3580;-68.7600;-66.0400;-2.7200
1389.5580;-68.6700;-66.1600;-2.5100
1389.7570;-68.7600;-66.3000;-2.4600
1389.9560;-68.8800;-66.4100;-2.4700
1390.1550;-69.1300;-66.4700;-2.6600
1390.3540;-69.2400;-66.4600;-2.7800
1390.5530;-69.4000;-66.6000;-2.8000
1390.7520;-69.6400;-66.5400;-3.1000
1390.9510;-69.7200;-66.7100;-3.0100
1391.1500;-70.0000;-66.7900;-3.2100
1391.3500;-70.4600;-66.8700;-3.5900
1391.5490;-70.7500;-67.0000;-3.7500
1391.7480;-71.3100;-67.0800;-4.2300
1391.9470;-71.8400;-67.1600;-4.6800
1392.1460;-71.9300;-67.3600;-4.5700
1392.3450;-72.4400;-67.5300;-4.9100
1392.5440;-73.7400;-67.9900;-5.7500
1392.7430;-74.2800;-68.2400;-6.0400
1392.9430;-75.0400;-68.1900;-6.8500
1393.1420;-75.1300;-68.0800;-7.0500
1393.3410;-75.5000;-67.8300;-7.6700
1393.5400;-76.1300;-67.8600;-8.2700
1393.7390;-76.3900;-67.8300;-8.5600
1393.9380;-76.4900;-67.9200;-8.5700
1394.1370;-76.4000;-68.1100;-8.2900
1394.3360;-77.0700;-68.1800;-8.8900
1394.5350;-76.9000;-68.2200;-8.6800
1394.7350;-77.3700;-68.3800;-8.9900
1394.9340;-76.4400;-68.6200;-7.8200
1395.1330;-77.0900;-68.9200;-8.1700
1395.3320;-76.8600;-69.0000;-7.8600
1395.5310;-76.2600;-69.2600;-7.0000
1395.7300;-75.8100;-69.2000;-6.6100
1395.9290;-75.0500;-69.1200;-5.9300
1396.1280;-74.8400;-69.2000;-5.6400
1396.3270;-75.0100;-69.3200;-5.6900
1396.5270;-74.8200;-69.6400;-5.1800
1396.7260;-74.0000;-69.8000;-4.2000
1396.9250;-73.8000;-69.8000;-4.0000
1397.1240;-73.6000;-69.5500;-4.0500
1397.3230;-73.2300;-69.5200;-3.7100
1397.5220;-72.9600;-69.5200;-3.4400
1397.7210;-73.0600;-69.4600;-3.6000
1397.9200;-72.8800;-69.5900;-3.2900
1398.1200;-72.6900;-69.8000;-2.8900
1398.3190;-72.7700;-69.7200;-3.0500
1398.5180;-72.6300;-69.6900;-2.9400
1398.7170;-72.6800;-69.8400;-2.8400
1398.9160;-72.6700;-69.8300;-2.8400
1399.1150;-72.7000;-70.0800;-2.6200
1399.3140;-73.0400;-70.1700;-2.8700
1399.5130;-73.1200;-70.4300;-2.6900
1399.7120;-73.5400;-70.6800;-2.8600
1399.9120;-74.0100;-70.7500;-3.2600
1400.1110;-74.1600;-70.9500;-3.2100
1400.3100;-73.9300;-70.7100;-3.2200
1400.5090;-74.5500;-70.7700;-3.7800
1400.7080;-75.1600;-71.2500;-3.9100
1400.9070;-74.7400;-71.3400;-3.4000
1401.1060;-75.0400;-71.5100;-3.5300
1401.3050;-75.7200;-71.5600;-4.1600
1401.5040;-75.6800;-71.4400;-4.2400
1401.7040;-75.2900;-71.3800;-3.9100
1401.9030;-75.6000;-71.6000;-4.0000
1402.1020;-75.6800;-71.3900;-4.2900
1402.3010;-75.5800;-71.3800;-4.2000
1402.5000;-75.6700;-71.5400;-4.1300
1402.6990;-75.3200;-71.5900;-3.7300
1402.8980;-75.6200;-71.7300;-3.8900
1403.0970;-76.0000;-71.8300;-4.1700
1403.2970;-75.5000;-72.0500;-3.4500
1403.4960;-75.5300;-72.1600;-3.3700
1403.6950;-76.5000;-71.8300;-4.6700
1403.8940;-76.4800;-72.1700;-4.3100
1404.0930;-76.1900;-72.3100;-3.8800
1404.2920;-76.2800;-72.4400;-3.8400
1404.4910;-75.7200;-72.7300;-2.9900
1404.6900;-76.1400;-72.8000;-3.3400
1404.8890;-75.9300;-73.0400;-2.8900
1405.0890;-76.3300;-73.2800;-3.0500
1405.2880;-75.9300;-73.5400;-2.3900
1405.4870;-76.7600;-73.3400;-3.4200
1405.6860;-76.3600;-73.0200;-3.3400
1405.8850;-76.0800;-72.9400;-3.1400
1406.0840;-76.1700;-73.1300;-3.0400
1406.2830;-76.2700;-73.4200;-2.8500
1406.4820;-75.9300;-73.2200;-2.7100
1406.6810;-76.7700;-73.2800;-3.4900
1406.8810;-77.4500;-73.3900;-4.0600
1407.0800;-76.7300;-73.5000;-3.2300
1407.2790;-76.9300;-74.4200;-2.5100
1407.4780;-78.0100;-74.1900;-3.8200
1407.6770;-77.6700;-73.8000;-3.8700
1407.8760;-77.4900;-74.1500;-3.3400
1408.0750;-78.2100;-73.8700;-4.3400
1408.2740;-77.6200;-73.8700;-3.7500
1408.4740;-77.9900;-73.5900;-4.4000
1408.6730;-78.5500;-73.7600;-4.7900
1408.8720;-77.4300;-74.0100;-3.4200
1409.0710;-78.1600;-74.0400;-4.1200
1409.2700;-78.4100;-74.3000;-4.1100
1409.4690;-77.5400;-74.6900;-2.8500
1409.6680;-79.7300;-74.3600;-5.3700
1409.8670;-79.7300;-74.7000;-5.0300
1410.0660;-79.2500;-75.2200;-4.0300
1410.2660;-78.4400;-74.3600;-4.0800
1410.4650;-78.7100;-74.3000;-4.4100
1410.6640;-79.5200;-75.0900;-4.4300
1410.8630;-79.1900;-74.9700;-4.2200
1411.0620;-79.4500;-75.3600;-4.0900
1411.2610;-78.6900;-74.8700;-3.8200
1411.4600;-78.9200;-74.9200;-4.0000
1411.6590;-79.2900;-74.7200;-4.5700
1411.8580;-79.9400;-74.5600;-5.3800
1412.0580;-79.9400;-74.8000;-5.1400
1412.2570;-78.4400;-74.8800;-3.5600
1412.4560;-79.9100;-75.2000;-4.7100
1412.6550;-79.3800;-75.2200;-4.1600
1412.8540;-79.5200;-75.4200;-4.1000
1413.0530;-79.1000;-75.0100;-4.0900
1413.2520;-79.2900;-75.2500;-4.0400
1413.4510;-78.1800;-74.8100;-3.3700
1413.6500;-78.8700;-74.6700;-4.2000
1413.8500;-78.9000;-75.3900;-3.5100
1414.0490;-78.7200;-75.7400;-2.9800
1414.2480;-79.0200;-75.8600;-3.1600
1414.4470;-78.9000;-75.4100;-3.4900
1414.6460;-79.9500;-75.5500;-4.4000
1414.8450;-80.0300;-75.7400;-4.2900
1415.0440;-79.3600;-75.0100;-4.3500
1415.2430;-80.8700;-75.4700;-5.4000
1415.4430;-79.3900;-75.1100;-4.2800
1415.6420;-79.4900;-75.3100;-4.1800
1415.8410;-79.0200;-75.9200;-3.1000
1416.0400;-79.1400;-75.7100;-3.4300
1416.2390;-79.4600;-75.2100;-4.2500
1416.4380;-78.8100;-75.0800;-3.7300
1416.6370;-79.2600;-75.6200;-3.6400
1416.8360;-78.4500;-75.4400;-3.0100
1417.0350;-79.3000;-75.3400;-3.9600
1417.2350;-78.9900;-75.2200;-3.7700
1417.4340;-79.4300;-75.5500;-3.8800
1417.6330;-79.1100;-75.8600;-3.2500
1417.8320;-78.7200;-75.6900;-3.0300
1418.0310;-79.0200;-75.8300;-3.1900
1418.2300;-80.1900;-75.3100;-4.8800
1418.4290;-80.0300;-75.3200;-4.7100
1418.6280;-79.2600;-74.9900;-4.2700
1418.8270;-80.6000;-75.8900;-4.7100
1419.0270;-79.0800;-75.9600;-3.1200
1419.2260;-79.5300;-75.7700;-3.7600
1419.4250;-79.3900;-75.9900;-3.4000
1419.6240;-79.2600;-75.6000;-3.6600
1419.8230;-78.4800;-75.8100;-2.6700
1420.0220;-79.7400;-76.3000;-3.4400
1420.2210;-78.2900;-76.2100;-2.0800
1420.4200;-79.8800;-76.4300;-3.4500
1420.6200;-78.8400;-75.8600;-2.9800
1420.8190;-80.2300;-75.0600;-5.1700
1421.0180;-79.8800;-75.2000;-4.6800
1421.2170;-79.5300;-75.3600;-4.1700
1421.4160;-78.6100;-75.7700;-2.8400
1421.6150;-78.5700;-75.5600;-3.0100
1421.8140;-79.4700;-75.6300;-3.8400
1422.0130;-79.3400;-75.9900;-3.3500
1422.2120;-80.3600;-75.6400;-4.7200
1422.4120;-79.5400;-75.2800;-4.2600
1422.6110;-79.0900;-75.6700;-3.4200
1422.8100;-78.7900;-76.0000;-2.7900
1423.0090;-78.3600;-75.8200;-2.5400
1423.2080;-79.3100;-75.3300;-3.9800
1423.4070;-79.3400;-75.3500;-3.9900
1423.6060;-80.0400;-75.2900;-4.7500
1423.8050;-78.1500;-75.9900;-2.1600
1424.0040;-79.7100;-75.4200;-4.2900
1424.2040;-78.9700;-75.3200;-3.6500
1424.4030;-79.4700;-75.6100;-3.8600
1424.6020;-78.5700;-75.4400;-3.1300
1424.8010;-78.9100;-75.1900;-3.7200
1425.0000;-79.7500;-75.3300;-4.4200
