Wavelength;Intensity_Meas;Intensity_Ref;Difference_dB
1200.0000;-60.7100;-55.6000;-5.1100
1200.1990;-60.7000;-55.5600;-5.1400
1200.3980;-60.6900;-55.5400;-5.1500
1200.5970;-60.6900;-55.5000;-5.1900
1200.7970;-60.6200;-55.4800;-5.1400
1200.9960;-60.5700;-55.4400;-5.1300
1201.1950;-60.6000;-55.3900;-5.2100
1201.3940;-60.6000;-55.3500;-5.2500
1201.5930;-60.5800;-55.3200;-5.2600
1201.7920;-60.5200;-55.2800;-5.2400
1201.9910;-60.5200;-55.2100;-5.3100
1202.1900;-60.5600;-55.1600;-5.4000
1202.3890;-60.5600;-55.1100;-5.4500
1202.5890;-60.4600;-55.0800;-5.3800
1202.7880;-60.4500;-55.0100;-5.4400
1202.9870;-60.4700;-54.9400;-5.5300
1203.1860;-60.4700;-54.8900;-5.5800
1203.3850;-60.4000;-54.8700;-5.5300
1203.5840;-60.3400;-54.8100;-5.5300
1203.7830;-60.3800;-54.7500;-5.6300
1203.9820;-60.4000;-54.7200;-5.6800
1204.1810;-60.3700;-54.6800;-5.6900
1204.3810;-60.3200;-54.6400;-5.6800
1204.5800;-60.3400;-54.6000;-5.7400
1204.7790;-60.4000;-54.5800;-5.8200
1204.9780;-60.3900;-54.5500;-5.8400
1205.1770;-60.3500;-54.5100;-5.8400
1205.3760;-60.3500;-54.4800;-5.8700
1205.5750;-60.4100;-54.4600;-5.9500
1205.7740;-60.4400;-54.4400;-6.0000
1205.9740;-60.4000;-54.4400;-5.9600
1206.1730;-60.3600;-54.4100;-5.9500
1206.3720;-60.3600;-54.3800;-5.9800
1206.5710;-60.3600;-54.3500;-6.0100
1206.7700;-60.3100;-54.3400;-5.9700
1206.9690;-60.2000;-54.3100;-5.8900
1207.1680;-60.1500;-54.2700;-5.8800
1207.3670;-60.1300;-54.2400;-5.8900
1207.5660;-60.0300;-54.2200;-5.8100
1207.7660;-59.9200;-54.1900;-5.7300
1207.9650;-59.8500;-54.1500;-5.7000
1208.1640;-59.8300;-54.0900;-5.7400
1208.3630;-59.7600;-54.0700;-5.6900
1208.5620;-59.6300;-54.0300;-5.6000
1208.7610;-59.5800;-53.9700;-5.6100
1208.9600;-59.5400;-53.9200;-5.6200
1209.1590;-59.4800;-53.8600;-5.6200
1209.3580;-59.4000;-53.8200;-5.5800
1209.5580;-59.3400;-53.7600;-5.5800
1209.7570;-59.3000;-53.7100;-5.5900
1209.9560;-59.2600;-53.6500;-5.6100
1210.1550;-59.1700;-53.6100;-5.5600
1210.3540;-59.0700;-53.5700;-5.5000
1210.5530;-59.0600;-53.4900;-5.5700
1210.7520;-59.0400;-53.4400;-5.6000
1210.9510;-58.9700;-53.4100;-5.5600
1211.1500;-58.8800;-53.3500;-5.5300
1211.3500;-58.8700;-53.3100;-5.5600
1211.5490;-58.8800;-53.2600;-5.6200
1211.7480;-58.8700;-53.2300;-5.6400
1211.9470;-58.8100;-53.2100;-5.6000
1212.1460;-58.8000;-53.1600;-5.6400
1212.3450;-58.8600;-53.1200;-5.7400
1212.5440;-58.8700;-53.1000;-5.7700
1212.7430;-58.8700;-53.0700;-5.8000
1212.9430;-58.8700;-53.0300;-5.8400
1213.1420;-58.9300;-52.9900;-5.9400
1213.3410;-58.9600;-52.9800;-5.9800
1213.5400;-58.9600;-52.9500;-6.0100
1213.7390;-58.9700;-52.9000;-6.0700
1213.9380;-58.9900;-52.8700;-6.1200
1214.1370;-59.0100;-52.8300;-6.1800
1214.3360;-58.9800;-52.8000;-6.1800
1214.5350;-58.9200;-52.7600;-6.1600
1214.7350;-58.9300;-52.7100;-6.2200
1214.9340;-58.8800;-52.6600;-6.2200
1215.1330;-58.7900;-52.6200;-6.1700
1215.3320;-58.7100;-52.5800;-6.1300
1215.5310;-58.6700;-52.5100;-6.1600
1215.7300;-58.6200;-52.4500;-6.1700
1215.9290;-58.5100;-52.4200;-6.0900
1216.1280;-58.3900;-52.3500;-6.0400
1216.3270;-58.3100;-52.2900;-6.0200
1216.5270;-58.2200;-52.2300;-5.9900
1216.7260;-58.1200;-52.1700;-5.9500
1216.9250;-57.9800;-52.1200;-5.8600
1217.1240;-57.8700;-52.0500;-5.8200
1217.3230;-57.7800;-52.0000;-5.7800
1217.5220;-57.6500;-51.9400;-5.7100
1217.7210;-57.5200;-51.8900;-5.6300
1217.9200;-57.3900;-51.8400;-5.5500
1218.1200;-57.2900;-51.7700;-5.5200
1218.3190;-57.1700;-51.7400;-5.4300
1218.5180;-57.0500;-51.6900;-5.3600
1218.7170;-56.9500;-51.6500;-5.3000
1218.9160;-56.8600;-51.6100;-5.2500
1219.1150;-56.7800;-51.5600;-5.2200
1219.3140;-56.6900;-51.5400;-5.1500
1219.5130;-56.6400;-51.5000;-5.1400
1219.7120;-56.6300;-51.4500;-5.1800
1219.9120;-56.6000;-51.4200;-5.1800
1220.1110;-56.5600;-51.3900;-5.1700
1220.3100;-56.5700;-51.3500;-5.2200
1220.5090;-56.5800;-51.3000;-5.2800
1220.7080;-56.6200;-51.2600;-5.3600
1220.9070;-56.6200;-51.2200;-5.4000
1221.1060;-56.6400;-51.1600;-5.4800
1221.3050;-56.6800;-51.1200;-5.5600
1221.5040;-56.7200;-51.0400;-5.6800
1221.7040;-56.7700;-50.9900;-5.7800
1221.9030;-56.7700;-50.9400;-5.8300
1222.1020;-56.8000;-50.8600;-5.9400
1222.3010;-56.8400;-50.8100;-6.0300
1222.5000;-56.8400;-50.7300;-6.1100
1222.6990;-56.8700;-50.6700;-6.2000
1222.8980;-56.8800;-50.5900;-6.2900
1223.0970;-56.8800;-50.5100;-6.3700
1223.2970;-56.8900;-50.4600;-6.4300
1223.4960;-56.8600;-50.3700;-6.4900
1223.6950;-56.8700;-50.3000;-6.5700
1223.8940;-56.8400;-50.2400;-6.6000
1224.0930;-56.8100;-50.1600;-6.6500
1224.2920;-56.7700;-50.1100;-6.6600
1224.4910;-56.7100;-50.0200;-6.6900
1224.6900;-56.6500;-49.9600;-6.6900
1224.8890;-56.5400;-49.9000;-6.6400
1225.0890;-56.4500;-49.8400;-6.6100
1225.2880;-56.3200;-49.7800;-6.5400
1225.4870;-56.1800;-49.7100;-6.4700
1225.6860;-56.0300;-49.6600;-6.3700
1225.8850;-55.8500;-49.6200;-6.2300
1226.0840;-55.6400;-49.5500;-6.0900
1226.2830;-55.4800;-49.5100;-5.9700
1226.4820;-55.3000;-49.4400;-5.8600
1226.6810;-55.1200;-49.4000;-5.7200
1226.8810;-54.9600;-49.3500;-5.6100
1227.0800;-54.8000;-49.2800;-5.5200
1227.2790;-54.6300;-49.2400;-5.3900
1227.4780;-54.4800;-49.1700;-5.3100
1227.6770;-54.3600;-49.1100;-5.2500
1227.8760;-54.2400;-49.0500;-5.1900
1228.0750;-54.1400;-48.9800;-5.1600
1228.2740;-54.0400;-48.9200;-5.1200
1228.4740;-53.9500;-48.8400;-5.1100
1228.6730;-53.8900;-48.7700;-5.1200
1228.8720;-53.8200;-48.7000;-5.1200
1229.0710;-53.7700;-48.6200;-5.1500
1229.2700;-53.7300;-48.5500;-5.1800
1229.4690;-53.7000;-48.4500;-5.2500
1229.6680;-53.6800;-48.3800;-5.3000
1229.8670;-53.6600;-48.3000;-5.3600
1230.0660;-53.6700;-48.2100;-5.4600
1230.2660;-53.6600;-48.1300;-5.5300
1230.4650;-53.6700;-48.0400;-5.6300
1230.6640;-53.7100;-47.9600;-5.7500
1230.8630;-53.7600;-47.8900;-5.8700
1231.0620;-53.8200;-47.8100;-6.0100
1231.2610;-53.8800;-47.7600;-6.1200
1231.4600;-53.9600;-47.6800;-6.2800
1231.6590;-54.0500;-47.6200;-6.4300
1231.8580;-54.1200;-47.5500;-6.5700
1232.0580;-54.2000;-47.5000;-6.7000
1232.2570;-54.2600;-47.4400;-6.8200
1232.4560;-54.3200;-47.3700;-6.9500
1232.6550;-54.3700;-47.3200;-7.0500
1232.8540;-54.3600;-47.2500;-7.1100
1233.0530;-54.3700;-47.2000;-7.1700
1233.2520;-54.3200;-47.1500;-7.1700
1233.4510;-54.2400;-47.0700;-7.1700
1233.6500;-54.1500;-47.0300;-7.1200
1233.8500;-54.0300;-46.9500;-7.0800
1234.0490;-53.9000;-46.8900;-7.0100
1234.2480;-53.7200;-46.8300;-6.8900
1234.4470;-53.5500;-46.7500;-6.8000
1234.6460;-53.3800;-46.6900;-6.6900
1234.8450;-53.1900;-46.6100;-6.5800
1235.0440;-53.0100;-46.5300;-6.4800
1235.2430;-52.8200;-46.4600;-6.3600
1235.4430;-52.6300;-46.3600;-6.2700
1235.6420;-52.4600;-46.2900;-6.1700
1235.8410;-52.2800;-46.1900;-6.0900
1236.0400;-52.1400;-46.1100;-6.0300
1236.2390;-51.9600;-46.0200;-5.9400
1236.4380;-51.8000;-45.9100;-5.8900
1236.6370;-51.6700;-45.8300;-5.8400
1236.8360;-51.5300;-45.7400;-5.7900
1237.0350;-51.4300;-45.6700;-5.7600
1237.2350;-51.3000;-45.5700;-5.7300
1237.4340;-51.2000;-45.4700;-5.7300
1237.6330;-51.1200;-45.3900;-5.7300
1237.8320;-51.0500;-45.3100;-5.7400
1238.0310;-50.9900;-45.2400;-5.7500
1238.2300;-50.9300;-45.1500;-5.7800
1238.4290;-50.9000;-45.0700;-5.8300
1238.6280;-50.8800;-45.0000;-5.8800
1238.8270;-50.8500;-44.9100;-5.9400
1239.0270;-50.8600;-44.8500;-6.0100
1239.2260;-50.8300;-44.7500;-6.0800
1239.4250;-50.8200;-44.6700;-6.1500
1239.6240;-50.8100;-44.6000;-6.2100
1239.8230;-50.7800;-44.5100;-6.2700
1240.0220;-50.7600;-44.4400;-6.3200
1240.2210;-50.6900;-44.3400;-6.3500
1240.4200;-50.6300;-44.2500;-6.3800
1240.6200;-50.5400;-44.1600;-6.3800
1240.8190;-50.4300;-44.0600;-6.3700
1241.0180;-50.3000;-43.9600;-6.3400
1241.2170;-50.1500;-43.8500;-6.3000
1241.4160;-50.0000;-43.7400;-6.2600
1241.6150;-49.8200;-43.6200;-6.2000
1241.8140;-49.6400;-43.5000;-6.1400
1242.0130;-49.4800;-43.4000;-6.0800
1242.2120;-49.3000;-43.2700;-6.0300
1242.4120;-49.1400;-43.1500;-5.9900
1242.6110;-48.9600;-43.0300;-5.9300
1242.8100;-48.8200;-42.9000;-5.9200
1243.0090;-48.6800;-42.7800;-5.9000
1243.2080;-48.5500;-42.6500;-5.9000
1243.4070;-48.4500;-42.5300;-5.9200
1243.6060;-48.3400;-42.4000;-5.9400
1243.8050;-48.2700;-42.2800;-5.9900
1244.0040;-48.2100;-42.1600;-6.0500
1244.2040;-48.1600;-42.0300;-6.1300
1244.4030;-48.1500;-41.9100;-6.2400
1244.6020;-48.1300;-41.7900;-6.3400
1244.8010;-48.1400;-41.6700;-6.4700
1245.0000;-48.1800;-41.5700;-6.6100
1245.1990;-48.2200;-41.4400;-6.7800
1245.3980;-48.2900;-41.3300;-6.9600
1245.5970;-48.3400;-41.2000;-7.1400
1245.7970;-48.4300;-41.0800;-7.3500
1245.9960;-48.5100;-40.9700;-7.5400
1246.1950;-48.5800;-40.8400;-7.7400
1246.3940;-48.6600;-40.7200;-7.9400
1246.5930;-48.6800;-40.5800;-8.1000
1246.7920;-48.6900;-40.4600;-8.2300
1246.9910;-48.6500;-40.3300;-8.3200
1247.1900;-48.5600;-40.1900;-8.3700
1247.3890;-48.4100;-40.0500;-8.3600
1247.5890;-48.1600;-39.9100;-8.2500
1247.7880;-47.8700;-39.7700;-8.1000
1247.9870;-47.5100;-39.6400;-7.8700
1248.1860;-47.1000;-39.4900;-7.6100
1248.3850;-46.6600;-39.3500;-7.3100
1248.5840;-46.1700;-39.2000;-6.9700
1248.7830;-45.6300;-39.0500;-6.5800
1248.9820;-45.2100;-38.9300;-6.2800
1249.1810;-44.7300;-38.7700;-5.9600
1249.3810;-44.2700;-38.6400;-5.6300
1249.5800;-43.7900;-38.5000;-5.2900
1249.7790;-43.3700;-38.3600;-5.0100
1249.9780;-42.9400;-38.2200;-4.7200
1250.1770;-42.5500;-38.0800;-4.4700
1250.3760;-42.2000;-37.9500;-4.2500
1250.5750;-41.8400;-37.8100;-4.0300
1250.7740;-41.5300;-37.6800;-3.8500
1250.9740;-41.2400;-37.5700;-3.6700
1251.1730;-40.9800;-37.4300;-3.5500
1251.3720;-40.7600;-37.3000;-3.4600
1251.5710;-40.5500;-37.1800;-3.3700
1251.7700;-40.3800;-37.0400;-3.3400
1251.9690;-40.2200;-36.9200;-3.3000
1252.1680;-40.1000;-36.7700;-3.3300
1252.3670;-40.0100;-36.6500;-3.3600
1252.5660;-39.9500;-36.5200;-3.4300
1252.7660;-39.9300;-36.3800;-3.5500
1252.9650;-39.9300;-36.2600;-3.6700
1253.1640;-39.9500;-36.1100;-3.8400
1253.3630;-40.0200;-35.9700;-4.0500
1253.5620;-40.1200;-35.8000;-4.3200
1253.7610;-40.2500;-35.6900;-4.5600
1253.9600;-40.3900;-35.5400;-4.8500
1254.1590;-40.5600;-35.4000;-5.1600
1254.3580;-40.7400;-35.2500;-5.4900
1254.5580;-40.9400;-35.1100;-5.8300
1254.7570;-41.1400;-34.9700;-6.1700
1254.9560;-41.3000;-34.8100;-6.4900
1255.1550;-41.4600;-34.6700;-6.7900
1255.3540;-41.5500;-34.5400;-7.0100
1255.5530;-41.5700;-34.4000;-7.1700
1255.7520;-41.5200;-34.2700;-7.2500
1255.9510;-41.3500;-34.1200;-7.2300
1256.1500;-41.1100;-34.0000;-7.1100
1256.3500;-40.7700;-33.8600;-6.9100
1256.5490;-40.3500;-33.7300;-6.6200
1256.7480;-39.8900;-33.6200;-6.2700
1256.9470;-39.3600;-33.4700;-5.8900
1257.1460;-38.8200;-33.3500;-5.4700
1257.3450;-38.2600;-33.2300;-5.0300
1257.5440;-37.7100;-33.1000;-4.6100
1257.7430;-37.1800;-32.9900;-4.1900
1257.9430;-36.6400;-32.8400;-3.8000
1258.1420;-36.1400;-32.7300;-3.4100
1258.3410;-35.5800;-32.5900;-2.9900
1258.5400;-35.2200;-32.4700;-2.7500
1258.7390;-34.7900;-32.3500;-2.4400
1258.9380;-34.4000;-32.2000;-2.2000
1259.1370;-34.0600;-32.0800;-1.9800
1259.3360;-33.7200;-31.9300;-1.7900
1259.5350;-33.4400;-31.8000;-1.6400
1259.7350;-33.1800;-31.6700;-1.5100
1259.9340;-32.9500;-31.5200;-1.4300
1260.1330;-32.7800;-31.4000;-1.3800
1260.3320;-32.6200;-31.2600;-1.3600
1260.5310;-32.5200;-31.1300;-1.3900
1260.7300;-32.4300;-31.0000;-1.4300
1260.9290;-32.3900;-30.8600;-1.5300
1261.1280;-32.4000;-30.7300;-1.6700
1261.3270;-32.4300;-30.5900;-1.8400
1261.5270;-32.5200;-30.4700;-2.0500
1261.7260;-32.6400;-30.3500;-2.2900
1261.9250;-32.8000;-30.2100;-2.5900
1262.1240;-33.0200;-30.0900;-2.9300
1262.3230;-33.2700;-29.9600;-3.3100
1262.5220;-33.6100;-29.8500;-3.7600
1262.7210;-33.9700;-29.7300;-4.2400
1262.9200;-34.4000;-29.6000;-4.8000
1263.1200;-34.9000;-29.4800;-5.4200
1263.3190;-35.4500;-29.3500;-6.1000
1263.5180;-36.0900;-29.2300;-6.8600
1263.7170;-36.7500;-29.1200;-7.6300
1263.9160;-37.4700;-28.9900;-8.4800
1264.1150;-38.3300;-28.8700;-9.4600
1264.3140;-38.8700;-28.7400;-10.1300
1264.5130;-39.3700;-28.6200;-10.7500
1264.7120;-39.5800;-28.5000;-11.0800
1264.9120;-39.4400;-28.3600;-11.0800
1265.1110;-38.9000;-28.2400;-10.6600
1265.3100;-38.1100;-28.1000;-10.0100
1265.5090;-37.1600;-27.9900;-9.1700
1265.7080;-36.1600;-27.8600;-8.3000
1265.9070;-35.0200;-27.7300;-7.2900
1266.1060;-34.2400;-27.6100;-6.6300
1266.3050;-33.3800;-27.4800;-5.9000
1266.5040;-32.5800;-27.3700;-5.2100
1266.7040;-31.8500;-27.2500;-4.6000
1266.9030;-31.1800;-27.1200;-4.0600
1267.1020;-30.5700;-27.0200;-3.5500
1267.3010;-30.0300;-26.8900;-3.1400
1267.5000;-29.5400;-26.7900;-2.7500
1267.6990;-29.1000;-26.6800;-2.4200
1267.8980;-28.7000;-26.5600;-2.1400
1268.0970;-28.3500;-26.4700;-1.8800
1268.2970;-28.0600;-26.3400;-1.7200
1268.4960;-27.7900;-26.2500;-1.5400
1268.6950;-27.5700;-26.1300;-1.4400
1268.8940;-27.3700;-26.0100;-1.3600
1269.0930;-27.2200;-25.9100;-1.3100
1269.2920;-27.1100;-25.8000;-1.3100
1269.4910;-27.0400;-25.7100;-1.3300
1269.6900;-27.0100;-25.5900;-1.4200
1269.8890;-27.0000;-25.4900;-1.5100
1270.0890;-27.0400;-25.3700;-1.6700
1270.2880;-27.1400;-25.2600;-1.8800
1270.4870;-27.2600;-25.1700;-2.0900
1270.6860;-27.4400;-25.0500;-2.3900
1270.8850;-27.6500;-24.9400;-2.7100
1271.0840;-27.9100;-24.8200;-3.0900
1271.2830;-28.2300;-24.7200;-3.5100
1271.4820;-28.5800;-24.6200;-3.9600
1271.6810;-28.9900;-24.5000;-4.4900
1271.8810;-29.4200;-24.4100;-5.0100
1272.0800;-29.9000;-24.2900;-5.6100
1272.2790;-30.4000;-24.1900;-6.2100
1272.4780;-30.8900;-24.0900;-6.8000
1272.6770;-31.3900;-23.9900;-7.4000
1272.8760;-31.7900;-23.9000;-7.8900
1273.0750;-32.1100;-23.7900;-8.3200
1273.2740;-32.2600;-23.7000;-8.5600
1273.4740;-32.2300;-23.6100;-8.6200
1273.6730;-32.0100;-23.5100;-8.5000
1273.8720;-31.5900;-23.4200;-8.1700
1274.0710;-31.0600;-23.3200;-7.7400
1274.2700;-30.4200;-23.2300;-7.1900
1274.4690;-29.7400;-23.1500;-6.5900
1274.6680;-29.0600;-23.0500;-6.0100
1274.8670;-28.3700;-22.9700;-5.4000
1275.0660;-27.7300;-22.8700;-4.8600
1275.2660;-27.1100;-22.7700;-4.3400
1275.4650;-26.5400;-22.6800;-3.8600
1275.6640;-25.9200;-22.5800;-3.3400
1275.8630;-25.5200;-22.5000;-3.0200
1276.0620;-25.0900;-22.3900;-2.7000
1276.2610;-24.6800;-22.3000;-2.3800
1276.4600;-24.3400;-22.2100;-2.1300
1276.6590;-24.0000;-22.1000;-1.9000
1276.8580;-23.7300;-22.0200;-1.7100
1277.0580;-23.5000;-21.9200;-1.5800
1277.2570;-23.3100;-21.8300;-1.4800
1277.4560;-23.1600;-21.7400;-1.4200
1277.6550;-23.0400;-21.6500;-1.3900
1277.8540;-22.9600;-21.5700;-1.3900
1278.0530;-22.9100;-21.4700;-1.4400
1278.2520;-22.9000;-21.3900;-1.5100
1278.4510;-22.9400;-21.3000;-1.6400
1278.6500;-23.0000;-21.2200;-1.7800
1278.8500;-23.1000;-21.1400;-1.9600
1279.0490;-23.2300;-21.0500;-2.1800
1279.2480;-23.4000;-20.9800;-2.4200
1279.4470;-23.6200;-20.8900;-2.7300
1279.6460;-23.8500;-20.8100;-3.0400
1279.8450;-24.1400;-20.7400;-3.4000
1280.0440;-24.4400;-20.6500;-3.7900
1280.2430;-24.7800;-20.5900;-4.1900
1280.4430;-25.1400;-20.5000;-4.6400
1280.6420;-25.5100;-20.4300;-5.0800
1280.8410;-25.8900;-20.3500;-5.5400
1281.0400;-26.2200;-20.2700;-5.9500
1281.2390;-26.5200;-20.2000;-6.3200
1281.4380;-26.7500;-20.1200;-6.6300
1281.6370;-26.8500;-20.0500;-6.8000
1281.8360;-26.8400;-19.9700;-6.8700
1282.0350;-26.6700;-19.8900;-6.7800
1282.2350;-26.3700;-19.8300;-6.5400
1282.4340;-25.9700;-19.7400;-6.2300
1282.6330;-25.4800;-19.6800;-5.8000
1282.8320;-24.9400;-19.6100;-5.3300
1283.0310;-24.3500;-19.5300;-4.8200
1283.2300;-23.7800;-19.4700;-4.3100
1283.4290;-23.2000;-19.4000;-3.8000
1283.6280;-22.6400;-19.3300;-3.3100
1283.8270;-22.1300;-19.2600;-2.8700
1284.0270;-21.6200;-19.1900;-2.4300
1284.2260;-21.1600;-19.1300;-2.0300
1284.4250;-20.7400;-19.0600;-1.6800
1284.6240;-20.3500;-19.0000;-1.3500
1284.8230;-20.0100;-18.9300;-1.0800
1285.0220;-19.6800;-18.8600;-0.8200
1285.2210;-19.4200;-18.8000;-0.6200
1285.4200;-19.1700;-18.7300;-0.4400
1285.6200;-18.9700;-18.6700;-0.3000
1285.8190;-18.8200;-18.5900;-0.2300
1286.0180;-18.6900;-18.5300;-0.1600
1286.2170;-18.6100;-18.4700;-0.1400
1286.4160;-18.5500;-18.3900;-0.1600
1286.6150;-18.5500;-18.3400;-0.2100
1286.8140;-18.6000;-18.2700;-0.3300
1287.0130;-18.6600;-18.2000;-0.4600
1287.2120;-18.8000;-18.1400;-0.6600
1287.4120;-18.9500;-18.0700;-0.8800
1287.6110;-19.1600;-18.0200;-1.1400
1287.8100;-19.4400;-17.9400;-1.5000
1288.0090;-19.7500;-17.8900;-1.8600
1288.2080;-20.1400;-17.8200;-2.3200
1288.4070;-20.5600;-17.7600;-2.8000
1288.6060;-21.0800;-17.7100;-3.3700
1288.8050;-21.6700;-17.6500;-4.0200
1289.0040;-22.3500;-17.6000;-4.7500
1289.2040;-23.1300;-17.5300;-5.6000
1289.4030;-23.9900;-17.4800;-6.5100
1289.6020;-24.9900;-17.4400;-7.5500
1289.8010;-26.0900;-17.3800;-8.7100
1290.0000;-27.2800;-17.3400;-9.9400
1290.1990;-28.7300;-17.2800;-11.4500
1290.3980;-29.5400;-17.2300;-12.3100
1290.5970;-30.1200;-17.2000;-12.9200
1290.7970;-29.9300;-17.1400;-12.7900
1290.9960;-29.0600;-17.1000;-11.9600
1291.1950;-27.8100;-17.0400;-10.7700
1291.3940;-26.4700;-17.0000;-9.4700
1291.5930;-24.9700;-16.9400;-8.0300
1291.7920;-24.0000;-16.9000;-7.1000
1291.9910;-22.9600;-16.8600;-6.1000
1292.1900;-22.0100;-16.8000;-5.2100
1292.3890;-21.1800;-16.7600;-4.4200
1292.5890;-20.4200;-16.7100;-3.7100
1292.7880;-19.7500;-16.6600;-3.0900
1292.9870;-19.1700;-16.6300;-2.5400
1293.1860;-18.6500;-16.5700;-2.0800
1293.3850;-18.2100;-16.5400;-1.6700
1293.5840;-17.7900;-16.4800;-1.3100
1293.7830;-17.4500;-16.4400;-1.0100
1293.9820;-17.1500;-16.4100;-0.7400
1294.1810;-16.9100;-16.3600;-0.5500
1294.3810;-16.7200;-16.3400;-0.3800
1294.5800;-16.5500;-16.2700;-0.2800
1294.7790;-16.4500;-16.2400;-0.2100
1294.9780;-16.3700;-16.2000;-0.1700
1295.1770;-16.3500;-16.1600;-0.1900
1295.3760;-16.3700;-16.1300;-0.2400
1295.5750;-16.4100;-16.0800;-0.3300
1295.7740;-16.5200;-16.0600;-0.4600
1295.9740;-16.6500;-16.0000;-0.6500
1296.1730;-16.8400;-15.9700;-0.8700
1296.3720;-17.0900;-15.9300;-1.1600
1296.5710;-17.3600;-15.8900;-1.4700
1296.7700;-17.7200;-15.8700;-1.8500
1296.9690;-18.1000;-15.8200;-2.2800
1297.1680;-18.5700;-15.8000;-2.7700
1297.3670;-19.1000;-15.7500;-3.3500
1297.5660;-19.7000;-15.7200;-3.9800
1297.7660;-20.4000;-15.6900;-4.7100
1297.9650;-21.1900;-15.6600;-5.5300
1298.1640;-22.1100;-15.6400;-6.4700
1298.3630;-23.1500;-15.6000;-7.5500
1298.5620;-24.3400;-15.5600;-8.7800
1298.7610;-25.7200;-15.5400;-10.1800
1298.9600;-27.2600;-15.5100;-11.7500
1299.1590;-29.2800;-15.5000;-13.7800
1299.3580;-30.4100;-15.4600;-14.9500
1299.5580;-31.0800;-15.4300;-15.6500
1299.7570;-30.5400;-15.4000;-15.1400
1299.9560;-29.1200;-15.3800;-13.7400
1300.1550;-27.4600;-15.3700;-12.0900
1300.3540;-25.6200;-15.3300;-10.2900
1300.5530;-24.4300;-15.3100;-9.1200
1300.7520;-23.2000;-15.2800;-7.9200
1300.9510;-22.1400;-15.2600;-6.8800
1301.1500;-21.1900;-15.2500;-5.9400
1301.3500;-20.3600;-15.2200;-5.1400
1301.5490;-19.6500;-15.2200;-4.4300
1301.7480;-19.0100;-15.1900;-3.8200
1301.9470;-18.4600;-15.1700;-3.2900
1302.1460;-17.9700;-15.1700;-2.8000
1302.3450;-17.5500;-15.1500;-2.4000
1302.5440;-17.1900;-15.1500;-2.0400
1302.7430;-16.8800;-15.1200;-1.7600
1302.9430;-16.6300;-15.1000;-1.5300
1303.1420;-16.4200;-15.1000;-1.3200
1303.3410;-16.2600;-15.0800;-1.1800
1303.5400;-16.1500;-15.0900;-1.0600
1303.7390;-16.0700;-15.0700;-1.0000
1303.9380;-16.0400;-15.0600;-0.9800
1304.1370;-16.0600;-15.0600;-1.0000
1304.3360;-16.1200;-15.0500;-1.0700
1304.5350;-16.2200;-15.0600;-1.1600
1304.7350;-16.3600;-15.0600;-1.3000
1304.9340;-16.5200;-15.0600;-1.4600
1305.1330;-16.7600;-15.0600;-1.7000
1305.3320;-17.0200;-15.0600;-1.9600
1305.5310;-17.3400;-15.0800;-2.2600
1305.7300;-17.7200;-15.0800;-2.6400
1305.9290;-18.1200;-15.0900;-3.0300
1306.1280;-18.7100;-15.1000;-3.6100
1306.3270;-19.1400;-15.1100;-4.0300
1306.5270;-19.7500;-15.1400;-4.6100
1306.7260;-20.4100;-15.1400;-5.2700
1306.9250;-21.1300;-15.1700;-5.9600
1307.1240;-21.9500;-15.1700;-6.7800
1307.3230;-22.8000;-15.1900;-7.6100
1307.5220;-23.7100;-15.2100;-8.5000
1307.7210;-24.6000;-15.2300;-9.3700
1307.9200;-25.4300;-15.2600;-10.1700
1308.1200;-26.1000;-15.2700;-10.8300
1308.3190;-26.4300;-15.2900;-11.1400
1308.5180;-26.4200;-15.3200;-11.1000
1308.7170;-26.0000;-15.3400;-10.6600
1308.9160;-25.3400;-15.3700;-9.9700
1309.1150;-24.5700;-15.3800;-9.1900
1309.3140;-23.7300;-15.4100;-8.3200
1309.5130;-22.9400;-15.4300;-7.5100
1309.7120;-22.1700;-15.4500;-6.7200
1309.9120;-21.4700;-15.4800;-5.9900
1310.1110;-20.8500;-15.5000;-5.3500
1310.3100;-20.2800;-15.5300;-4.7500
1310.5090;-19.8000;-15.5500;-4.2500
1310.7080;-19.3400;-15.5700;-3.7700
1310.9070;-18.9700;-15.5800;-3.3900
1311.1060;-18.6500;-15.6000;-3.0500
1311.3050;-18.3800;-15.6400;-2.7400
1311.5040;-18.1900;-15.6500;-2.5400
1311.7040;-18.0100;-15.6800;-2.3300
1311.9030;-17.9100;-15.6900;-2.2200
1312.1020;-17.8300;-15.7200;-2.1100
1312.3010;-17.8100;-15.7500;-2.0600
1312.5000;-17.8600;-15.7800;-2.0800
1312.6990;-17.9300;-15.8200;-2.1100
1312.8980;-18.0700;-15.8400;-2.2300
1313.0970;-18.2300;-15.8700;-2.3600
1313.2970;-18.4600;-15.9000;-2.5600
1313.4960;-18.7400;-15.9400;-2.8000
1313.6950;-19.0600;-15.9900;-3.0700
1313.8940;-19.4500;-16.0100;-3.4400
1314.0930;-19.8900;-16.0600;-3.8300
1314.2920;-20.4100;-16.1000;-4.3100
1314.4910;-20.9900;-16.1500;-4.8400
1314.6900;-21.6400;-16.2000;-5.4400
1314.8890;-22.3900;-16.2400;-6.1500
1315.0890;-23.2100;-16.3000;-6.9100
1315.2880;-24.1500;-16.3300;-7.8200
1315.4870;-25.1800;-16.3900;-8.7900
1315.6860;-26.2900;-16.4500;-9.8400
1315.8850;-27.4500;-16.5000;-10.9500
1316.0840;-28.7900;-16.5700;-12.2200
1316.2830;-29.4900;-16.6100;-12.8800
1316.4820;-29.9300;-16.6900;-13.2400
1316.6810;-29.7700;-16.7500;-13.0200
1316.8810;-29.0700;-16.8200;-12.2500
1317.0800;-28.0900;-16.9000;-11.1900
1317.2790;-27.0000;-16.9600;-10.0400
1317.4780;-25.7700;-17.0400;-8.7300
1317.6770;-24.9600;-17.1000;-7.8600
1317.8760;-24.0700;-17.1700;-6.9000
1318.0750;-23.2900;-17.2500;-6.0400
1318.2740;-22.5800;-17.3200;-5.2600
1318.4740;-21.9700;-17.4000;-4.5700
1318.6730;-21.4400;-17.4600;-3.9800
1318.8720;-20.9700;-17.5500;-3.4200
1319.0710;-20.5800;-17.6300;-2.9500
1319.2700;-20.2300;-17.7000;-2.5300
1319.4690;-19.9500;-17.7800;-2.1700
1319.6680;-19.7100;-17.8600;-1.8500
1319.8670;-19.5200;-17.9500;-1.5700
1320.0660;-19.3800;-18.0100;-1.3700
1320.2660;-19.2800;-18.0900;-1.1900
1320.4650;-19.2500;-18.1700;-1.0800
1320.6640;-19.2300;-18.2500;-0.9800
1320.8630;-19.2600;-18.3400;-0.9200
1321.0620;-19.3400;-18.4100;-0.9300
1321.2610;-19.4500;-18.5300;-0.9200
1321.4600;-19.6100;-18.5900;-1.0200
1321.6590;-19.8000;-18.6900;-1.1100
1321.8580;-20.0400;-18.7700;-1.2700
1322.0580;-20.3200;-18.8600;-1.4600
1322.2570;-20.6400;-18.9600;-1.6800
1322.4560;-21.0200;-19.0400;-1.9800
1322.6550;-21.4300;-19.1400;-2.2900
1322.8540;-21.9000;-19.2200;-2.6800
1323.0530;-22.4100;-19.3200;-3.0900
1323.2520;-22.9900;-19.4200;-3.5700
1323.4510;-23.6200;-19.5100;-4.1100
1323.6500;-24.3000;-19.6200;-4.6800
1323.8500;-25.0500;-19.7100;-5.3400
1324.0490;-25.8300;-19.8200;-6.0100
1324.2480;-26.6800;-19.9200;-6.7600
1324.4470;-27.5500;-20.0200;-7.5300
1324.6460;-28.4200;-20.1400;-8.2800
1324.8450;-29.4100;-20.2400;-9.1700
1325.0440;-29.9500;-20.3600;-9.5900
1325.2430;-30.4400;-20.4600;-9.9800
1325.4430;-30.6300;-20.5800;-10.0500
1325.6420;-30.5500;-20.7200;-9.8300
1325.8410;-30.1900;-20.8400;-9.3500
1326.0400;-29.6700;-20.9700;-8.7000
1326.2390;-29.0600;-21.0800;-7.9800
1326.4380;-28.4300;-21.2100;-7.2200
1326.6370;-27.8200;-21.3300;-6.4900
1326.8360;-27.2400;-21.4500;-5.7900
1327.0350;-26.7200;-21.5900;-5.1300
1327.2350;-26.1600;-21.7100;-4.4500
1327.4340;-25.8400;-21.8500;-3.9900
1327.6330;-25.4800;-21.9700;-3.5100
1327.8320;-25.1800;-22.1000;-3.0800
1328.0310;-24.9400;-22.2400;-2.7000
1328.2300;-24.7300;-22.3700;-2.3600
1328.4290;-24.5800;-22.5100;-2.0700
1328.6280;-24.4700;-22.6400;-1.8300
1328.8270;-24.4000;-22.7700;-1.6300
1329.0270;-24.3800;-22.9200;-1.4600
1329.2260;-24.3900;-23.0500;-1.3400
1329.4250;-24.4500;-23.1900;-1.2600
1329.6240;-24.5300;-23.3100;-1.2200
1329.8230;-24.6500;-23.4600;-1.1900
1330.0220;-24.8200;-23.6000;-1.2200
1330.2210;-25.0100;-23.7300;-1.2800
1330.4200;-25.2600;-23.8800;-1.3800
1330.6200;-25.5100;-24.0100;-1.5000
1330.8190;-25.8300;-24.1600;-1.6700
1331.0180;-26.1600;-24.3000;-1.8600
1331.2170;-26.5400;-24.4500;-2.0900
1331.4160;-26.9600;-24.6100;-2.3500
1331.6150;-27.3900;-24.7400;-2.6500
1331.8140;-27.8700;-24.9100;-2.9600
1332.0130;-28.3500;-25.0400;-3.3100
1332.2120;-29.0000;-25.2000;-3.8000
1332.4120;-29.4200;-25.3600;-4.0600
1332.6110;-29.9700;-25.5100;-4.4600
1332.8100;-30.5000;-25.6700;-4.8300
1333.0090;-31.0100;-25.8200;-5.1900
1333.2080;-31.4900;-25.9700;-5.5200
1333.4070;-31.8900;-26.1300;-5.7600
1333.6060;-32.2300;-26.2800;-5.9500
1333.8050;-32.4700;-26.4500;-6.0200
1334.0040;-32.6000;-26.6000;-6.0000
1334.2040;-32.6500;-26.7700;-5.8800
1334.4030;-32.5900;-26.9200;-5.6700
1334.6020;-32.4800;-27.0900;-5.3900
1334.8010;-32.3000;-27.2400;-5.0600
1335.0000;-32.1000;-27.4000;-4.7000
1335.1990;-31.8800;-27.5800;-4.3000
1335.3980;-31.6500;-27.7300;-3.9200
1335.5970;-31.4600;-27.9000;-3.5600
1335.7970;-31.2600;-28.0600;-3.2000
1335.9960;-31.1100;-28.2300;-2.8800
1336.1950;-30.9600;-28.4000;-2.5600
1336.3940;-30.8500;-28.5900;-2.2600
1336.5930;-30.7700;-28.7300;-2.0400
1336.7920;-30.7200;-28.8800;-1.8400
1336.9910;-30.7200;-29.0600;-1.6600
1337.1900;-30.7400;-29.2200;-1.5200
1337.3890;-30.8000;-29.3900;-1.4100
1337.5890;-30.9000;-29.5600;-1.3400
1337.7880;-31.0300;-29.7200;-1.3100
1337.9870;-31.2200;-29.9000;-1.3200
1338.1860;-31.4200;-30.0600;-1.3600
1338.3850;-31.6700;-30.2400;-1.4300
1338.5840;-31.9600;-30.4000;-1.5600
1338.7830;-32.2800;-30.5700;-1.7100
1338.9820;-32.6700;-30.7400;-1.9300
1339.1810;-33.0900;-30.9100;-2.1800
1339.3810;-33.5700;-31.1000;-2.4700
1339.5800;-34.0900;-31.2600;-2.8300
1339.7790;-34.6700;-31.4400;-3.2300
1339.9780;-35.3200;-31.6100;-3.7100
1340.1770;-36.0400;-31.7900;-4.2500
1340.3760;-36.8400;-31.9800;-4.8600
1340.5750;-37.7100;-32.1600;-5.5500
1340.7740;-38.9100;-32.3400;-6.5700
1340.9740;-39.7900;-32.5000;-7.2900
1341.1730;-41.0000;-32.6800;-8.3200
1341.3720;-42.3600;-32.8700;-9.4900
1341.5710;-43.9200;-33.0400;-10.8800
1341.7700;-45.6700;-33.2300;-12.4400
1341.9690;-47.5600;-33.4000;-14.1600
1342.1680;-49.7800;-33.5800;-16.2000
1342.3670;-50.5400;-33.7500;-16.7900
1342.5660;-50.3900;-33.9300;-16.4600
1342.7660;-49.1900;-34.1200;-15.0700
1342.9650;-47.6700;-34.2900;-13.3800
1343.1640;-45.9500;-34.4800;-11.4700
1343.3630;-44.9300;-34.6600;-10.2700
1343.5620;-43.8400;-34.8300;-9.0100
1343.7610;-42.9400;-35.0200;-7.9200
1343.9600;-42.1800;-35.1900;-6.9900
1344.1590;-41.5400;-35.3900;-6.1500
1344.3580;-41.0100;-35.5600;-5.4500
1344.5580;-40.5700;-35.7400;-4.8300
1344.7570;-40.2100;-35.9300;-4.2800
1344.9560;-39.9200;-36.0900;-3.8300
1345.1550;-39.6900;-36.2700;-3.4200
1345.3540;-39.5300;-36.4300;-3.1000
1345.5530;-39.4200;-36.6100;-2.8100
1345.7520;-39.3700;-36.7700;-2.6000
1345.9510;-39.3800;-36.9500;-2.4300
1346.1500;-39.4200;-37.1300;-2.2900
1346.3500;-39.5400;-37.3100;-2.2300
1346.5490;-39.6800;-37.5000;-2.1800
1346.7480;-39.8800;-37.6700;-2.2100
1346.9470;-40.1000;-37.8400;-2.2600
1347.1460;-40.3800;-38.0100;-2.3700
1347.3450;-40.7000;-38.1600;-2.5400
1347.5440;-41.1000;-38.3800;-2.7200
1347.7430;-41.5800;-38.6500;-2.9300
1347.9430;-42.0800;-38.8100;-3.2700
1348.1420;-42.6300;-38.9800;-3.6500
1348.3410;-43.2400;-39.1600;-4.0800
1348.5400;-43.8700;-39.3100;-4.5600
1348.7390;-44.5800;-39.4700;-5.1100
1348.9380;-45.3700;-39.6400;-5.7300
1349.1370;-46.2700;-39.7900;-6.4800
1349.3360;-47.2400;-39.9400;-7.3000
1349.5350;-48.3600;-40.1100;-8.2500
1349.7350;-49.8900;-40.2600;-9.6300
1349.9340;-51.0300;-40.4500;-10.5800
1350.1330;-52.6100;-40.6300;-11.9800
1350.3320;-54.3700;-40.8800;-13.4900
1350.5310;-56.1500;-41.0900;-15.0600
1350.7300;-57.5200;-41.2600;-16.2600
1350.9290;-57.8300;-41.4200;-16.4100
1351.1280;-56.9700;-41.5300;-15.4400
1351.3270;-55.6000;-41.6900;-13.9100
1351.5270;-54.1700;-41.8600;-12.3100
1351.7260;-52.9100;-42.0900;-10.8200
1351.9250;-51.7500;-42.2900;-9.4600
1352.1240;-50.7200;-42.4500;-8.2700
1352.3230;-49.9000;-42.6300;-7.2700
1352.5220;-49.2500;-42.8300;-6.4200
1352.7210;-48.6000;-42.9800;-5.6200
1352.9200;-48.0800;-43.1300;-4.9500
1353.1200;-47.7300;-43.3800;-4.3500
1353.3190;-47.3200;-43.4900;-3.8300
1353.5180;-47.0300;-43.6500;-3.3800
1353.7170;-46.8100;-43.8300;-2.9800
1353.9160;-46.5900;-43.9200;-2.6700
1354.1150;-46.4500;-44.0600;-2.3900
1354.3140;-46.4500;-44.2700;-2.1800
1354.5130;-46.4400;-44.4600;-1.9800
1354.7120;-46.6200;-44.7700;-1.8500
1354.9120;-46.8000;-45.0300;-1.7700
1355.1110;-46.9400;-45.2100;-1.7300
1355.3100;-47.0500;-45.3100;-1.7400
1355.5090;-47.0900;-45.3000;-1.7900
1355.7080;-47.4200;-45.5700;-1.8500
1355.9070;-47.8100;-45.8200;-1.9900
1356.1060;-48.1500;-45.9800;-2.1700
1356.3050;-48.4900;-46.0400;-2.4500
1356.5040;-48.8600;-46.1300;-2.7300
1356.7040;-49.0900;-46.0400;-3.0500
1356.9030;-49.5800;-46.1800;-3.4000
1357.1020;-50.3500;-46.5600;-3.7900
1357.3010;-51.1000;-46.7600;-4.3400
1357.5000;-51.9100;-46.9400;-4.9700
1357.6990;-52.7500;-47.0900;-5.6600
1357.8980;-53.5900;-47.1300;-6.4600
1358.0970;-54.4900;-47.1900;-7.3000
1358.2970;-55.6300;-47.3600;-8.2700
1358.4960;-56.9500;-47.5900;-9.3600
1358.6950;-58.3400;-47.7100;-10.6300
1358.8940;-60.3400;-47.8600;-12.4800
1359.0930;-61.6000;-47.9900;-13.6100
1359.2920;-62.8100;-48.0200;-14.7900
1359.4910;-63.7200;-48.4000;-15.3200
1359.6900;-63.6800;-48.7400;-14.9400
1359.8890;-62.5800;-48.8900;-13.6900
1360.0890;-61.1200;-48.9200;-12.2000
1360.2880;-59.7600;-48.9400;-10.8200
1360.4870;-58.4900;-48.9200;-9.5700
1360.6860;-57.4800;-49.0800;-8.4000
1360.8850;-56.8300;-49.4200;-7.4100
1361.0840;-56.0700;-49.7000;-6.3700
1361.2830;-55.5100;-49.8800;-5.6300
1361.4820;-54.8800;-50.0100;-4.8700
1361.6810;-54.5600;-50.2300;-4.3300
1361.8810;-54.1400;-50.3500;-3.7900
1362.0800;-53.8900;-50.5700;-3.3200
1362.2790;-53.8700;-50.9900;-2.8800
1362.4780;-53.8200;-51.2200;-2.6000
1362.6770;-53.6200;-51.3500;-2.2700
1362.8760;-53.2600;-51.2200;-2.0400
1363.0750;-53.0200;-51.1400;-1.8800
1363.2740;-52.6500;-50.9000;-1.7500
1363.4740;-52.6400;-50.9800;-1.6600
1363.6730;-52.7000;-51.0700;-1.6300
1363.8720;-52.8400;-51.2000;-1.6400
1364.0710;-53.0800;-51.4200;-1.6600
1364.2700;-53.3700;-51.6000;-1.7700
1364.4690;-53.7700;-51.9100;-1.8600
1364.6680;-54.4600;-52.4200;-2.0400
1364.8670;-54.9600;-52.6400;-2.3200
1365.0660;-55.2800;-52.6200;-2.6600
1365.2660;-55.7700;-52.7600;-3.0100
1365.4650;-56.0500;-52.7000;-3.3500
1365.6640;-56.5800;-52.7700;-3.8100
1365.8630;-57.1800;-52.8000;-4.3800
1366.0620;-57.8200;-52.8100;-5.0100
1366.2610;-58.5600;-52.8000;-5.7600
1366.4600;-59.2700;-52.8800;-6.3900
1366.6590;-60.2500;-53.0300;-7.2200
1366.8580;-61.4300;-53.2700;-8.1600
1367.0580;-62.6900;-53.4100;-9.2800
1367.2570;-64.0100;-53.5200;-10.4900
1367.4560;-65.4400;-53.7900;-11.6500
1367.6550;-66.7300;-53.9700;-12.7600
1367.8540;-68.0000;-54.2600;-13.7400
1368.0530;-68.5500;-54.3600;-14.1900
1368.2520;-68.1400;-54.3500;-13.7900
1368.4510;-67.7900;-54.6900;-13.1000
1368.6500;-66.7600;-54.7800;-11.9800
1368.8500;-65.4700;-54.9000;-10.5700
1369.0490;-64.2700;-54.8600;-9.4100
1369.2480;-63.1800;-54.8400;-8.3400
1369.4470;-62.2600;-54.7700;-7.4900
1369.6460;-61.5300;-54.8700;-6.6600
1369.8450;-61.1600;-55.2100;-5.9500
1370.0440;-60.6900;-55.4100;-5.2800
1370.2430;-60.2100;-55.5500;-4.6600
1370.4430;-59.7200;-55.5900;-4.1300
1370.6420;-59.3300;-55.6200;-3.7100
1370.8410;-59.3000;-55.9300;-3.3700
1371.0400;-59.2400;-56.2100;-3.0300
1371.2390;-59.1200;-56.4200;-2.7000
1371.4380;-58.8600;-56.4000;-2.4600
1371.6370;-58.7000;-56.4000;-2.3000
1371.8360;-58.5000;-56.3600;-2.1400
1372.0350;-58.6000;-56.5700;-2.0300
1372.2350;-58.7400;-56.7800;-1.9600
1372.4340;-58.8500;-56.8900;-1.9600
1372.6330;-58.9500;-56.9800;-1.9700
1372.8320;-59.0300;-57.0000;-2.0300
1373.0310;-59.1900;-57.0700;-2.1200
1373.2300;-59.4400;-57.1800;-2.2600
1373.4290;-59.7800;-57.3500;-2.4300
1373.6280;-60.1000;-57.4800;-2.6200
1373.8270;-60.4600;-57.5700;-2.8900
1374.0270;-60.9000;-57.7000;-3.2000
1374.2260;-61.3100;-57.8000;-3.5100
1374.4250;-61.8400;-57.9700;-3.8700
1374.6240;-62.4100;-58.0900;-4.3200
1374.8230;-63.0900;-58.3000;-4.7900
1375.0220;-63.7900;-58.5500;-5.2400
1375.2210;-64.4400;-58.5900;-5.8500
1375.4200;-65.1100;-58.6900;-6.4200
1375.6200;-65.8700;-58.7800;-7.0900
1375.8190;-66.5000;-58.9100;-7.5900
1376.0180;-67.3100;-59.0600;-8.2500
1376.2170;-68.0100;-59.2300;-8.7800
1376.4160;-68.5700;-59.3400;-9.2300
1376.6150;-68.9900;-59.4400;-9.5500
1376.8140;-69.3200;-59.6300;-9.6900
1377.0130;-69.4600;-59.8800;-9.5800
1377.2120;-69.4200;-60.0700;-9.3500
1377.4120;-69.1200;-60.1500;-8.9700
1377.6110;-68.7200;-60.2300;-8.4900
1377.8100;-68.1100;-60.2300;-7.8800
1378.0090;-67.5800;-60.3000;-7.2800
1378.2080;-67.1100;-60.4300;-6.6800
1378.4070;-66.7900;-60.6000;-6.1900
1378.6060;-66.6200;-60.8600;-5.7600
1378.8050;-66.3900;-61.1800;-5.2100
1379.0040;-66.0700;-61.3200;-4.7500
1379.2040;-65.7500;-61.3700;-4.3800
1379.4030;-65.4200;-61.3500;-4.0700
1379.6020;-65.1500;-61.3700;-3.7800
1379.8010;-64.9000;-61.4100;-3.4900
1380.0000;-64.8700;-61.5700;-3.3000
1380.1990;-64.8900;-61.7500;-3.1400
1380.3980;-64.9600;-61.9400;-3.0200
1380.5970;-65.4700;-62.5300;-2.9400
1380.7970;-65.8900;-62.9800;-2.9100
1380.9960;-66.0900;-63.1600;-2.9300
1381.1950;-66.1900;-63.2000;-2.9900
1381.3940;-65.9800;-62.9600;-3.0200
1381.5930;-65.8900;-62.6800;-3.2100
1381.7920;-66.1100;-62.7200;-3.3900
1381.9910;-66.3800;-62.7800;-3.6000
1382.1900;-66.7100;-62.9000;-3.8100
1382.3890;-67.3200;-63.2200;-4.1000
1382.5890;-68.1400;-63.7800;-4.3600
1382.7880;-69.1400;-64.2900;-4.8500
1382.9870;-69.7700;-64.5200;-5.2500
1383.1860;-70.1800;-64.3000;-5.8800
1383.3850;-70.4800;-64.0900;-6.3900
1383.5840;-71.0100;-63.8900;-7.1200
1383.7830;-71.6700;-64.0000;-7.6700
1383.9820;-72.5600;-64.1200;-8.4400
1384.1810;-73.0400;-64.2000;-8.8400
1384.3810;-74.4900;-64.2300;-10.2600
1384.5800;-74.5300;-64.2100;-10.3200
1384.7790;-75.1400;-64.3500;-10.7900
1384.9780;-75.8500;-64.6000;-11.2500
1385.1770;-75.9700;-64.8600;-11.1100
1385.3760;-75.8600;-64.9400;-10.9200
1385.5750;-75.5100;-64.9400;-10.5700
1385.7740;-74.4600;-64.9300;-9.5300
1385.9740;-74.1200;-64.9400;-9.1800
1386.1730;-73.5600;-65.0100;-8.5500
1386.3720;-73.0400;-65.1700;-7.8700
1386.5710;-72.3600;-65.1500;-7.2100
1386.7700;-71.9200;-65.1500;-6.7700
1386.9690;-71.3200;-65.2700;-6.0500
1387.1680;-71.0300;-65.2700;-5.7600
1387.3670;-70.5300;-65.3100;-5.2200
1387.5660;-70.0900;-65.4500;-4.6400
1387.7660;-70.0200;-65.6700;-4.3500
1387.9650;-69.9500;-65.9700;-3.9800
1388.1640;-70.0000;-66.2100;-3.7900
1388.3630;-69.9800;-66.3200;-3.6600
1388.5620;-69.7000;-66.2400;-3.4600
1388.7610;-69.6300;-66.1100;-3.5200
1388.9600;-69.4200;-66.1800;-3.2400
1389.1590;-69.1900;-66.0800;-3.1100
1389.3580;-69.0500;-66.0400;-3.0100
1389.5580;-69.2700;-66.1600;-3.1100
1389.7570;-69.3100;-66.3000;-3.0100
1389.9560;-69.6300;-66.4100;-3.2200
1390.1550;-69.6200;-66.4700;-3.1500
1390.3540;-70.0300;-66.4600;-3.5700
1390.5530;-70.1200;-66.6000;-3.5200
1390.7520;-70.3700;-66.5400;-3.8300
1390.9510;-70.7500;-66.7100;-4.0400
1391.1500;-71.2300;-66.7900;-4.4400
1391.3500;-71.5900;-66.8700;-4.7200
1391.5490;-71.8400;-67.0000;-4.8400
1391.7480;-72.3300;-67.0800;-5.2500
1391.9470;-72.8800;-67.1600;-5.7200
1392.1460;-73.7200;-67.3600;-6.3600
1392.3450;-74.4000;-67.5300;-6.8700
1392.5440;-74.9100;-67.9900;-6.9200
1392.7430;-76.0700;-68.2400;-7.8300
1392.9430;-76.8800;-68.1900;-8.6900
1393.1420;-76.7100;-68.0800;-8.6300
1393.3410;-77.5400;-67.8300;-9.7100
1393.5400;-77.5200;-67.8600;-9.6600
1393.7390;-77.5200;-67.8300;-9.6900
1393.9380;-77.9000;-67.9200;-9.9800
1394.1370;-78.3900;-68.1100;-10.2800
1394.3360;-77.8300;-68.1800;-9.6500
1394.5350;-77.6200;-68.2200;-9.4000
1394.7350;-77.9200;-68.3800;-9.5400
1394.9340;-77.2200;-68.6200;-8.6000
1395.1330;-76.1900;-68.9200;-7.2700
1395.3320;-76.9100;-69.0000;-7.9100
1395.5310;-76.6800;-69.2600;-7.4200
1395.7300;-77.1100;-69.2000;-7.9100
1395.9290;-75.2800;-69.1200;-6.1600
1396.1280;-75.2300;-69.2000;-6.0300
1396.3270;-74.6700;-69.3200;-5.3500
1396.5270;-75.0100;-69.6400;-5.3700
1396.7260;-74.6400;-69.8000;-4.8400
1396.9250;-74.2200;-69.8000;-4.4200
1397.1240;-74.0500;-69.5500;-4.5000
1397.3230;-73.9300;-69.5200;-4.4100
1397.5220;-73.6300;-69.5200;-4.1100
1397.7210;-73.7900;-69.4600;-4.3300
1397.9200;-73.6500;-69.5900;-4.0600
1398.1200;-73.3300;-69.8000;-3.5300
1398.3190;-73.4700;-69.7200;-3.7500
1398.5180;-74.1900;-69.6900;-4.5000
1398.7170;-73.4800;-69.8400;-3.6400
1398.9160;-73.0500;-69.8300;-3.2200
1399.1150;-73.4000;-70.0800;-3.3200
1399.3140;-74.0100;-70.1700;-3.8400
1399.5130;-74.0800;-70.4300;-3.6500
1399.7120;-74.7400;-70.6800;-4.0600
1399.9120;-74.2600;-70.7500;-3.5100
1400.1110;-74.7100;-70.9500;-3.7600
1400.3100;-74.3200;-70.7100;-3.6100
1400.5090;-74.6200;-70.7700;-3.8500
1400.7080;-75.1100;-71.2500;-3.8600
1400.9070;-75.1500;-71.3400;-3.8100
1401.1060;-75.5000;-71.5100;-3.9900
1401.3050;-75.1100;-71.5600;-3.5500
1401.5040;-75.1100;-71.4400;-3.6700
1401.7040;-75.2600;-71.3800;-3.8800
1401.9030;-74.9700;-71.6000;-3.3700
1402.1020;-74.8900;-71.3900;-3.5000
1402.3010;-74.8600;-71.3800;-3.4800
1402.5000;-75.3800;-71.5400;-3.8400
1402.6990;-75.1100;-71.5900;-3.5200
1402.8980;-75.0400;-71.7300;-3.3100
1403.0970;-75.6700;-71.8300;-3.8400
1403.2970;-74.9700;-72.0500;-2.9200
1403.4960;-75.4100;-72.1600;-3.2500
1403.6950;-75.1400;-71.8300;-3.3100
1403.8940;-75.6900;-72.1700;-3.5200
1404.0930;-75.5300;-72.3100;-3.2200
1404.2920;-75.2600;-72.4400;-2.8200
1404.4910;-75.8100;-72.7300;-3.0800
1404.6900;-75.6400;-72.8000;-2.8400
1404.8890;-75.9300;-73.0400;-2.8900
1405.0890;-76.4800;-73.2800;-3.2000
1405.2880;-76.1100;-73.5400;-2.5700
1405.4870;-76.6300;-73.3400;-3.2900
1405.6860;-75.9700;-73.0200;-2.9500
1405.8850;-75.9100;-72.9400;-2.9700
1406.0840;-76.5000;-73.1300;-3.3700
1406.2830;-76.2700;-73.4200;-2.8500
1406.4820;-76.7200;-73.2200;-3.5000
1406.6810;-76.6600;-73.2800;-3.3800
1406.8810;-76.6600;-73.3900;-3.2700
1407.0800;-77.7300;-73.5000;-4.2300
1407.2790;-78.0400;-74.4200;-3.6200
1407.4780;-77.8200;-74.1900;-3.6300
1407.6770;-77.6400;-73.8000;-3.8400
1407.8760;-78.4900;-74.1500;-4.3400
1408.0750;-78.8300;-73.8700;-4.9600
1408.2740;-78.4900;-73.8700;-4.6200
1408.4740;-79.4500;-73.5900;-5.8600
1408.6730;-78.4400;-73.7600;-4.6800
1408.8720;-78.2800;-74.0100;-4.2700
1409.0710;-78.4100;-74.0400;-4.3700
1409.2700;-79.0700;-74.3000;-4.7700
1409.4690;-80.0200;-74.6900;-5.3300
1409.6680;-78.9500;-74.3600;-4.5900
1409.8670;-78.6900;-74.7000;-3.9900
1410.0660;-79.7600;-75.2200;-4.5400
1410.2660;-80.1400;-74.3600;-5.7800
1410.4650;-80.5500;-74.3000;-6.2500
1410.6640;-79.3200;-75.0900;-4.2300
1410.8630;-78.8900;-74.9700;-3.9200
1411.0620;-79.2900;-75.3600;-3.9300
1411.2610;-79.0100;-74.8700;-4.1400
1411.4600;-77.8200;-74.9200;-2.9000
1411.6590;-78.1100;-74.7200;-3.3900
1411.8580;-78.3900;-74.5600;-3.8300
1412.0580;-78.7700;-74.8000;-3.9700
1412.2570;-78.8900;-74.8800;-4.0100
1412.4560;-79.2500;-75.2000;-4.0500
1412.6550;-80.7200;-75.2200;-5.5000
1412.8540;-79.3500;-75.4200;-3.9300
1413.0530;-78.1300;-75.0100;-3.1200
1413.2520;-78.4900;-75.2500;-3.2400
1413.4510;-78.7700;-74.8100;-3.9600
1413.6500;-79.3300;-74.6700;-4.6600
1413.8500;-78.9300;-75.3900;-3.5400
1414.0490;-79.0800;-75.7400;-3.3400
1414.2480;-79.3300;-75.8600;-3.4700
1414.4470;-79.3600;-75.4100;-3.9500
1414.6460;-79.5300;-75.5500;-3.9800
1414.8450;-78.6700;-75.7400;-2.9300
1415.0440;-80.4300;-75.0100;-5.4200
1415.2430;-79.5300;-75.4700;-4.0600
1415.4430;-78.3500;-75.1100;-3.2400
1415.6420;-79.4300;-75.3100;-4.1200
1415.8410;-79.3600;-75.9200;-3.4400
1416.0400;-79.7400;-75.7100;-4.0300
1416.2390;-78.6700;-75.2100;-3.4600
1416.4380;-78.7800;-75.0800;-3.7000
1416.6370;-79.1400;-75.6200;-3.5200
1416.8360;-78.8700;-75.4400;-3.4300
1417.0350;-79.7000;-75.3400;-4.3600
1417.2350;-79.7000;-75.2200;-4.4800
1417.4340;-78.2700;-75.5500;-2.7200
1417.6330;-79.1400;-75.8600;-3.2800
1417.8320;-80.1100;-75.6900;-4.4200
1418.0310;-79.2600;-75.8300;-3.4300
1418.2300;-79.6700;-75.3100;-4.3600
1418.4290;-80.4300;-75.3200;-5.1100
1418.6280;-79.7400;-74.9900;-4.7500
1418.8270;-79.7700;-75.8900;-3.8800
1419.0270;-80.0700;-75.9600;-4.1100
1419.2260;-79.3900;-75.7700;-3.6200
1419.4250;-79.9500;-75.9900;-3.9600
1419.6240;-79.2000;-75.6000;-3.6000
1419.8230;-79.1100;-75.8100;-3.3000
1420.0220;-78.3500;-76.3000;-2.0500
1420.2210;-78.3500;-76.2100;-2.1400
1420.4200;-79.0200;-76.4300;-2.5900
1420.6200;-79.5300;-75.8600;-3.6700
1420.8190;-80.1900;-75.0600;-5.1300
1421.0180;-78.5300;-75.2000;-3.3300
1421.2170;-79.3600;-75.3600;-4.0000
1421.4160;-80.7300;-75.7700;-4.9600
1421.6150;-78.4300;-75.5600;-2.8700
1421.8140;-79.1500;-75.6300;-3.5200
1422.0130;-79.1200;-75.9900;-3.1300
1422.2120;-78.1100;-75.6400;-2.4700
1422.4120;-79.4000;-75.2800;-4.1200
1422.6110;-78.5700;-75.6700;-2.9000
1422.8100;-78.1500;-76.0000;-2.1500
1423.0090;-78.5700;-75.8200;-2.7500
1423.2080;-80.2000;-75.3300;-4.8700
1423.4070;-78.7900;-75.3500;-3.4400
1423.6060;-78.7900;-75.2900;-3.5000
1423.8050;-78.4600;-75.9900;-2.4700
1424.0040;-79.2700;-75.4200;-3.8500
1424.2040;-79.8200;-75.3200;-4.5000
1424.4030;-78.6200;-75.6100;-3.0100
1424.6020;-78.6200;-75.4400;-3.1800
1424.8010;-78.3000;-75.1900;-3.1100
1425.0000;-78.5700;-75.3300;-3.2400
