Wavelength;Intensity_Meas;Intensity_Ref;Difference_dB
1200.0000;-60.8600;-55.6000;-5.2600
1200.1990;-60.8400;-55.5600;-5.2800
1200.3980;-60.8600;-55.5400;-5.3200
1200.5970;-60.8600;-55.5000;-5.3600
1200.7970;-60.8200;-55.4800;-5.3400
1200.9960;-60.7800;-55.4400;-5.3400
1201.1950;-60.7700;-55.3900;-5.3800
1201.3940;-60.8300;-55.3500;-5.4800
1201.5930;-60.7700;-55.3200;-5.4500
1201.7920;-60.6800;-55.2800;-5.4000
1201.9910;-60.6800;-55.2100;-5.4700
1202.1900;-60.7000;-55.1600;-5.5400
1202.3890;-60.6800;-55.1100;-5.5700
1202.5890;-60.5700;-55.0800;-5.4900
1202.7880;-60.5300;-55.0100;-5.5200
1202.9870;-60.5600;-54.9400;-5.6200
1203.1860;-60.5300;-54.8900;-5.6400
1203.3850;-60.4300;-54.8700;-5.5600
1203.5840;-60.3800;-54.8100;-5.5700
1203.7830;-60.3900;-54.7500;-5.6400
1203.9820;-60.4200;-54.7200;-5.7000
1204.1810;-60.3700;-54.6800;-5.6900
1204.3810;-60.3500;-54.6400;-5.7100
1204.5800;-60.3500;-54.6000;-5.7500
1204.7790;-60.4000;-54.5800;-5.8200
1204.9780;-60.4000;-54.5500;-5.8500
1205.1770;-60.3600;-54.5100;-5.8500
1205.3760;-60.3600;-54.4800;-5.8800
1205.5750;-60.4300;-54.4600;-5.9700
1205.7740;-60.4700;-54.4400;-6.0300
1205.9740;-60.4600;-54.4400;-6.0200
1206.1730;-60.4300;-54.4100;-6.0200
1206.3720;-60.4500;-54.3800;-6.0700
1206.5710;-60.4500;-54.3500;-6.1000
1206.7700;-60.3800;-54.3400;-6.0400
1206.9690;-60.3200;-54.3100;-6.0100
1207.1680;-60.2800;-54.2700;-6.0100
1207.3670;-60.2900;-54.2400;-6.0500
1207.5660;-60.2200;-54.2200;-6.0000
1207.7660;-60.0900;-54.1900;-5.9000
1207.9650;-60.0800;-54.1500;-5.9300
1208.1640;-60.0600;-54.0900;-5.9700
1208.3630;-60.0000;-54.0700;-5.9300
1208.5620;-59.9000;-54.0300;-5.8700
1208.7610;-59.8600;-53.9700;-5.8900
1208.9600;-59.8400;-53.9200;-5.9200
1209.1590;-59.8200;-53.8600;-5.9600
1209.3580;-59.7100;-53.8200;-5.8900
1209.5580;-59.6300;-53.7600;-5.8700
1209.7570;-59.5800;-53.7100;-5.8700
1209.9560;-59.5800;-53.6500;-5.9300
1210.1550;-59.4800;-53.6100;-5.8700
1210.3540;-59.3400;-53.5700;-5.7700
1210.5530;-59.3400;-53.4900;-5.8500
1210.7520;-59.2900;-53.4400;-5.8500
1210.9510;-59.2300;-53.4100;-5.8200
1211.1500;-59.1300;-53.3500;-5.7800
1211.3500;-59.0900;-53.3100;-5.7800
1211.5490;-59.0800;-53.2600;-5.8200
1211.7480;-59.0400;-53.2300;-5.8100
1211.9470;-59.0000;-53.2100;-5.7900
1212.1460;-58.9700;-53.1600;-5.8100
1212.3450;-59.0100;-53.1200;-5.8900
1212.5440;-59.0000;-53.1000;-5.9000
1212.7430;-58.9600;-53.0700;-5.8900
1212.9430;-58.9900;-53.0300;-5.9600
1213.1420;-59.0500;-52.9900;-6.0600
1213.3410;-59.0500;-52.9800;-6.0700
1213.5400;-59.0600;-52.9500;-6.1100
1213.7390;-59.0500;-52.9000;-6.1500
1213.9380;-59.1000;-52.8700;-6.2300
1214.1370;-59.1000;-52.8300;-6.2700
1214.3360;-59.0600;-52.8000;-6.2600
1214.5350;-59.0200;-52.7600;-6.2600
1214.7350;-59.0400;-52.7100;-6.3300
1214.9340;-59.0300;-52.6600;-6.3700
1215.1330;-58.9600;-52.6200;-6.3400
1215.3320;-58.9000;-52.5800;-6.3200
1215.5310;-58.8700;-52.5100;-6.3600
1215.7300;-58.8200;-52.4500;-6.3700
1215.9290;-58.7500;-52.4200;-6.3300
1216.1280;-58.6600;-52.3500;-6.3100
1216.3270;-58.6100;-52.2900;-6.3200
1216.5270;-58.5400;-52.2300;-6.3100
1216.7260;-58.4500;-52.1700;-6.2800
1216.9250;-58.3600;-52.1200;-6.2400
1217.1240;-58.2500;-52.0500;-6.2000
1217.3230;-58.1700;-52.0000;-6.1700
1217.5220;-58.0700;-51.9400;-6.1300
1217.7210;-57.9400;-51.8900;-6.0500
1217.9200;-57.8100;-51.8400;-5.9700
1218.1200;-57.7100;-51.7700;-5.9400
1218.3190;-57.5900;-51.7400;-5.8500
1218.5180;-57.4400;-51.6900;-5.7500
1218.7170;-57.3100;-51.6500;-5.6600
1218.9160;-57.2200;-51.6100;-5.6100
1219.1150;-57.1100;-51.5600;-5.5500
1219.3140;-57.0100;-51.5400;-5.4700
1219.5130;-56.9200;-51.5000;-5.4200
1219.7120;-56.8600;-51.4500;-5.4100
1219.9120;-56.8100;-51.4200;-5.3900
1220.1110;-56.7300;-51.3900;-5.3400
1220.3100;-56.7000;-51.3500;-5.3500
1220.5090;-56.6800;-51.3000;-5.3800
1220.7080;-56.6500;-51.2600;-5.3900
1220.9070;-56.6400;-51.2200;-5.4200
1221.1060;-56.6200;-51.1600;-5.4600
1221.3050;-56.6300;-51.1200;-5.5100
1221.5040;-56.6200;-51.0400;-5.5800
1221.7040;-56.6200;-50.9900;-5.6300
1221.9030;-56.6200;-50.9400;-5.6800
1222.1020;-56.6200;-50.8600;-5.7600
1222.3010;-56.6300;-50.8100;-5.8200
1222.5000;-56.6100;-50.7300;-5.8800
1222.6990;-56.6200;-50.6700;-5.9500
1222.8980;-56.6300;-50.5900;-6.0400
1223.0970;-56.6400;-50.5100;-6.1300
1223.2970;-56.6600;-50.4600;-6.2000
1223.4960;-56.6500;-50.3700;-6.2800
1223.6950;-56.6700;-50.3000;-6.3700
1223.8940;-56.7200;-50.2400;-6.4800
1224.0930;-56.7100;-50.1600;-6.5500
1224.2920;-56.7300;-50.1100;-6.6200
1224.4910;-56.7200;-50.0200;-6.7000
1224.6900;-56.7300;-49.9600;-6.7700
1224.8890;-56.7000;-49.9000;-6.8000
1225.0890;-56.6700;-49.8400;-6.8300
1225.2880;-56.6200;-49.7800;-6.8400
1225.4870;-56.5400;-49.7100;-6.8300
1225.6860;-56.4400;-49.6600;-6.7800
1225.8850;-56.3400;-49.6200;-6.7200
1226.0840;-56.2000;-49.5500;-6.6500
1226.2830;-56.0600;-49.5100;-6.5500
1226.4820;-55.8800;-49.4400;-6.4400
1226.6810;-55.6800;-49.4000;-6.2800
1226.8810;-55.5500;-49.3500;-6.2000
1227.0800;-55.3800;-49.2800;-6.1000
1227.2790;-55.2200;-49.2400;-5.9800
1227.4780;-55.0400;-49.1700;-5.8700
1227.6770;-54.9000;-49.1100;-5.7900
1227.8760;-54.7400;-49.0500;-5.6900
1228.0750;-54.5900;-48.9800;-5.6100
1228.2740;-54.4900;-48.9200;-5.5700
1228.4740;-54.3400;-48.8400;-5.5000
1228.6730;-54.2300;-48.7700;-5.4600
1228.8720;-54.1200;-48.7000;-5.4200
1229.0710;-54.0100;-48.6200;-5.3900
1229.2700;-53.9400;-48.5500;-5.3900
1229.4690;-53.8300;-48.4500;-5.3800
1229.6680;-53.7600;-48.3800;-5.3800
1229.8670;-53.6900;-48.3000;-5.3900
1230.0660;-53.6500;-48.2100;-5.4400
1230.2660;-53.6100;-48.1300;-5.4800
1230.4650;-53.5600;-48.0400;-5.5200
1230.6640;-53.5500;-47.9600;-5.5900
1230.8630;-53.5700;-47.8900;-5.6800
1231.0620;-53.5800;-47.8100;-5.7700
1231.2610;-53.6400;-47.7600;-5.8800
1231.4600;-53.7000;-47.6800;-6.0200
1231.6590;-53.7800;-47.6200;-6.1600
1231.8580;-53.8500;-47.5500;-6.3000
1232.0580;-53.9400;-47.5000;-6.4400
1232.2570;-54.0400;-47.4400;-6.6000
1232.4560;-54.1300;-47.3700;-6.7600
1232.6550;-54.2100;-47.3200;-6.8900
1232.8540;-54.2800;-47.2500;-7.0300
1233.0530;-54.3400;-47.2000;-7.1400
1233.2520;-54.3800;-47.1500;-7.2300
1233.4510;-54.3800;-47.0700;-7.3100
1233.6500;-54.3600;-47.0300;-7.3300
1233.8500;-54.3200;-46.9500;-7.3700
1234.0490;-54.2400;-46.8900;-7.3500
1234.2480;-54.1500;-46.8300;-7.3200
1234.4470;-54.0100;-46.7500;-7.2600
1234.6460;-53.8800;-46.6900;-7.1900
1234.8450;-53.7200;-46.6100;-7.1100
1235.0440;-53.5500;-46.5300;-7.0200
1235.2430;-53.3900;-46.4600;-6.9300
1235.4430;-53.1900;-46.3600;-6.8300
1235.6420;-53.0200;-46.2900;-6.7300
1235.8410;-52.8200;-46.1900;-6.6300
1236.0400;-52.6400;-46.1100;-6.5300
1236.2390;-52.4600;-46.0200;-6.4400
1236.4380;-52.2600;-45.9100;-6.3500
1236.6370;-52.1000;-45.8300;-6.2700
1236.8360;-51.9300;-45.7400;-6.1900
1237.0350;-51.7700;-45.6700;-6.1000
1237.2350;-51.6200;-45.5700;-6.0500
1237.4340;-51.4700;-45.4700;-6.0000
1237.6330;-51.3600;-45.3900;-5.9700
1237.8320;-51.2400;-45.3100;-5.9300
1238.0310;-51.1400;-45.2400;-5.9000
1238.2300;-51.0700;-45.1500;-5.9200
1238.4290;-51.0000;-45.0700;-5.9300
1238.6280;-50.9500;-45.0000;-5.9500
1238.8270;-50.8900;-44.9100;-5.9800
1239.0270;-50.8700;-44.8500;-6.0200
1239.2260;-50.8500;-44.7500;-6.1000
1239.4250;-50.8100;-44.6700;-6.1400
1239.6240;-50.8100;-44.6000;-6.2100
1239.8230;-50.7800;-44.5100;-6.2700
1240.0220;-50.7600;-44.4400;-6.3200
1240.2210;-50.7300;-44.3400;-6.3900
1240.4200;-50.6700;-44.2500;-6.4200
1240.6200;-50.6300;-44.1600;-6.4700
1240.8190;-50.5300;-44.0600;-6.4700
1241.0180;-50.4200;-43.9600;-6.4600
1241.2170;-50.3100;-43.8500;-6.4600
1241.4160;-50.1800;-43.7400;-6.4400
1241.6150;-50.0300;-43.6200;-6.4100
1241.8140;-49.8600;-43.5000;-6.3600
1242.0130;-49.7000;-43.4000;-6.3000
1242.2120;-49.5300;-43.2700;-6.2600
1242.4120;-49.3600;-43.1500;-6.2100
1242.6110;-49.1900;-43.0300;-6.1600
1242.8100;-49.0200;-42.9000;-6.1200
1243.0090;-48.8600;-42.7800;-6.0800
1243.2080;-48.7100;-42.6500;-6.0600
1243.4070;-48.5800;-42.5300;-6.0500
1243.6060;-48.4600;-42.4000;-6.0600
1243.8050;-48.3400;-42.2800;-6.0600
1244.0040;-48.2300;-42.1600;-6.0700
1244.2040;-48.1600;-42.0300;-6.1300
1244.4030;-48.0900;-41.9100;-6.1800
1244.6020;-48.0500;-41.7900;-6.2600
1244.8010;-48.0100;-41.6700;-6.3400
1245.0000;-48.0100;-41.5700;-6.4400
1245.1990;-48.0200;-41.4400;-6.5800
1245.3980;-48.0400;-41.3300;-6.7100
1245.5970;-48.0900;-41.2000;-6.8900
1245.7970;-48.1400;-41.0800;-7.0600
1245.9960;-48.2100;-40.9700;-7.2400
1246.1950;-48.3000;-40.8400;-7.4600
1246.3940;-48.3900;-40.7200;-7.6700
1246.5930;-48.4900;-40.5800;-7.9100
1246.7920;-48.5500;-40.4600;-8.0900
1246.9910;-48.6100;-40.3300;-8.2800
1247.1900;-48.6300;-40.1900;-8.4400
1247.3890;-48.6000;-40.0500;-8.5500
1247.5890;-48.5100;-39.9100;-8.6000
1247.7880;-48.3600;-39.7700;-8.5900
1247.9870;-48.1300;-39.6400;-8.4900
1248.1860;-47.8200;-39.4900;-8.3300
1248.3850;-47.4600;-39.3500;-8.1100
1248.5840;-47.0500;-39.2000;-7.8500
1248.7830;-46.5900;-39.0500;-7.5400
1248.9820;-46.1100;-38.9300;-7.1800
1249.1810;-45.5400;-38.7700;-6.7700
1249.3810;-45.1300;-38.6400;-6.4900
1249.5800;-44.6200;-38.5000;-6.1200
1249.7790;-44.1400;-38.3600;-5.7800
1249.9780;-43.6800;-38.2200;-5.4600
1250.1770;-43.2200;-38.0800;-5.1400
1250.3760;-42.8000;-37.9500;-4.8500
1250.5750;-42.3900;-37.8100;-4.5800
1250.7740;-42.0000;-37.6800;-4.3200
1250.9740;-41.6600;-37.5700;-4.0900
1251.1730;-41.3200;-37.4300;-3.8900
1251.3720;-41.0300;-37.3000;-3.7300
1251.5710;-40.7500;-37.1800;-3.5700
1251.7700;-40.5000;-37.0400;-3.4600
1251.9690;-40.2800;-36.9200;-3.3600
1252.1680;-40.0800;-36.7700;-3.3100
1252.3670;-39.9100;-36.6500;-3.2600
1252.5660;-39.7700;-36.5200;-3.2500
1252.7660;-39.6600;-36.3800;-3.2800
1252.9650;-39.6000;-36.2600;-3.3400
1253.1640;-39.5400;-36.1100;-3.4300
1253.3630;-39.5300;-35.9700;-3.5600
1253.5620;-39.5400;-35.8000;-3.7400
1253.7610;-39.5900;-35.6900;-3.9000
1253.9600;-39.6800;-35.5400;-4.1400
1254.1590;-39.7900;-35.4000;-4.3900
1254.3580;-39.9400;-35.2500;-4.6900
1254.5580;-40.0900;-35.1100;-4.9800
1254.7570;-40.2700;-34.9700;-5.3000
1254.9560;-40.4700;-34.8100;-5.6600
1255.1550;-40.6700;-34.6700;-6.0000
1255.3540;-40.8500;-34.5400;-6.3100
1255.5530;-41.0100;-34.4000;-6.6100
1255.7520;-41.1200;-34.2700;-6.8500
1255.9510;-41.1700;-34.1200;-7.0500
1256.1500;-41.1400;-34.0000;-7.1400
1256.3500;-41.0300;-33.8600;-7.1700
1256.5490;-40.8000;-33.7300;-7.0700
1256.7480;-40.4900;-33.6200;-6.8700
1256.9470;-40.1000;-33.4700;-6.6300
1257.1460;-39.6400;-33.3500;-6.2900
1257.3450;-39.1400;-33.2300;-5.9100
1257.5440;-38.6000;-33.1000;-5.5000
1257.7430;-38.0500;-32.9900;-5.0600
1257.9430;-37.4800;-32.8400;-4.6400
1258.1420;-36.9300;-32.7300;-4.2000
1258.3410;-36.4000;-32.5900;-3.8100
1258.5400;-35.7900;-32.4700;-3.3200
1258.7390;-35.3900;-32.3500;-3.0400
1258.9380;-34.9200;-32.2000;-2.7200
1259.1370;-34.5000;-32.0800;-2.4200
1259.3360;-34.1000;-31.9300;-2.1700
1259.5350;-33.7400;-31.8000;-1.9400
1259.7350;-33.4100;-31.6700;-1.7400
1259.9340;-33.1000;-31.5200;-1.5800
1260.1330;-32.8500;-31.4000;-1.4500
1260.3320;-32.6200;-31.2600;-1.3600
1260.5310;-32.4400;-31.1300;-1.3100
1260.7300;-32.2900;-31.0000;-1.2900
1260.9290;-32.1600;-30.8600;-1.3000
1261.1280;-32.0900;-30.7300;-1.3600
1261.3270;-32.0400;-30.5900;-1.4500
1261.5270;-32.0500;-30.4700;-1.5800
1261.7260;-32.0900;-30.3500;-1.7400
1261.9250;-32.1600;-30.2100;-1.9500
1262.1240;-32.2900;-30.0900;-2.2000
1262.3230;-32.4600;-29.9600;-2.5000
1262.5220;-32.6800;-29.8500;-2.8300
1262.7210;-32.9600;-29.7300;-3.2300
1262.9200;-33.2700;-29.6000;-3.6700
1263.1200;-33.6500;-29.4800;-4.1700
1263.3190;-34.1000;-29.3500;-4.7500
1263.5180;-34.6100;-29.2300;-5.3800
1263.7170;-35.2100;-29.1200;-6.0900
1263.9160;-35.8700;-28.9900;-6.8800
1264.1150;-36.6200;-28.8700;-7.7500
1264.3140;-37.4300;-28.7400;-8.6900
1264.5130;-38.4600;-28.6200;-9.8400
1264.7120;-39.1200;-28.5000;-10.6200
1264.9120;-39.7700;-28.3600;-11.4100
1265.1110;-40.1300;-28.2400;-11.8900
1265.3100;-40.0000;-28.1000;-11.9000
1265.5090;-39.4300;-27.9900;-11.4400
1265.7080;-38.5100;-27.8600;-10.6500
1265.9070;-37.4300;-27.7300;-9.7000
1266.1060;-36.3300;-27.6100;-8.7200
1266.3050;-35.0700;-27.4800;-7.5900
1266.5040;-34.2600;-27.3700;-6.8900
1266.7040;-33.3300;-27.2500;-6.0800
1266.9030;-32.5000;-27.1200;-5.3800
1267.1020;-31.7200;-27.0200;-4.7000
1267.3010;-31.0300;-26.8900;-4.1400
1267.5000;-30.4300;-26.7900;-3.6400
1267.6990;-29.8600;-26.6800;-3.1800
1267.8980;-29.3600;-26.5600;-2.8000
1268.0970;-28.9100;-26.4700;-2.4400
1268.2970;-28.5100;-26.3400;-2.1700
1268.4960;-28.1700;-26.2500;-1.9200
1268.6950;-27.8500;-26.1300;-1.7200
1268.8940;-27.5900;-26.0100;-1.5800
1269.0930;-27.3500;-25.9100;-1.4400
1269.2920;-27.1600;-25.8000;-1.3600
1269.4910;-27.0300;-25.7100;-1.3200
1269.6900;-26.9100;-25.5900;-1.3200
1269.8890;-26.8500;-25.4900;-1.3600
1270.0890;-26.8100;-25.3700;-1.4400
1270.2880;-26.8300;-25.2600;-1.5700
1270.4870;-26.9000;-25.1700;-1.7300
1270.6860;-26.9900;-25.0500;-1.9400
1270.8850;-27.1500;-24.9400;-2.2100
1271.0840;-27.3300;-24.8200;-2.5100
1271.2830;-27.5800;-24.7200;-2.8600
1271.4820;-27.8800;-24.6200;-3.2600
1271.6810;-28.2100;-24.5000;-3.7100
1271.8810;-28.6200;-24.4100;-4.2100
1272.0800;-29.0500;-24.2900;-4.7600
1272.2790;-29.5300;-24.1900;-5.3400
1272.4780;-30.0500;-24.0900;-5.9600
1272.6770;-30.5900;-23.9900;-6.6000
1272.8760;-31.1400;-23.9000;-7.2400
1273.0750;-31.6300;-23.7900;-7.8400
1273.2740;-32.0500;-23.7000;-8.3500
1273.4740;-32.3300;-23.6100;-8.7200
1273.6730;-32.4200;-23.5100;-8.9100
1273.8720;-32.3000;-23.4200;-8.8800
1274.0710;-31.9600;-23.3200;-8.6400
1274.2700;-31.4600;-23.2300;-8.2300
1274.4690;-30.8200;-23.1500;-7.6700
1274.6680;-30.1200;-23.0500;-7.0700
1274.8670;-29.4100;-22.9700;-6.4400
1275.0660;-28.6800;-22.8700;-5.8100
1275.2660;-27.9900;-22.7700;-5.2200
1275.4650;-27.3300;-22.6800;-4.6500
1275.6640;-26.7200;-22.5800;-4.1400
1275.8630;-26.1600;-22.5000;-3.6600
1276.0620;-25.5500;-22.3900;-3.1600
1276.2610;-25.1700;-22.3000;-2.8700
1276.4600;-24.7400;-22.2100;-2.5300
1276.6590;-24.3700;-22.1000;-2.2700
1276.8580;-24.0300;-22.0200;-2.0100
1277.0580;-23.7400;-21.9200;-1.8200
1277.2570;-23.5000;-21.8300;-1.6700
1277.4560;-23.2900;-21.7400;-1.5500
1277.6550;-23.1300;-21.6500;-1.4800
1277.8540;-22.9900;-21.5700;-1.4200
1278.0530;-22.9000;-21.4700;-1.4300
1278.2520;-22.8500;-21.3900;-1.4600
1278.4510;-22.8300;-21.3000;-1.5300
1278.6500;-22.8700;-21.2200;-1.6500
1278.8500;-22.9100;-21.1400;-1.7700
1279.0490;-23.0200;-21.0500;-1.9700
1279.2480;-23.1600;-20.9800;-2.1800
1279.4470;-23.3300;-20.8900;-2.4400
1279.6460;-23.5600;-20.8100;-2.7500
1279.8450;-23.8000;-20.7400;-3.0600
1280.0440;-24.1100;-20.6500;-3.4600
1280.2430;-24.4400;-20.5900;-3.8500
1280.4430;-24.8100;-20.5000;-4.3100
1280.6420;-25.2300;-20.4300;-4.8000
1280.8410;-25.6400;-20.3500;-5.2900
1281.0400;-26.0800;-20.2700;-5.8100
1281.2390;-26.5100;-20.2000;-6.3100
1281.4380;-26.8900;-20.1200;-6.7700
1281.6370;-27.2100;-20.0500;-7.1600
1281.8360;-27.3900;-19.9700;-7.4200
1282.0350;-27.4400;-19.8900;-7.5500
1282.2350;-27.3000;-19.8300;-7.4700
1282.4340;-27.0000;-19.7400;-7.2600
1282.6330;-26.5700;-19.6800;-6.8900
1282.8320;-26.0000;-19.6100;-6.3900
1283.0310;-25.3900;-19.5300;-5.8600
1283.2300;-24.7400;-19.4700;-5.2700
1283.4290;-24.0800;-19.4000;-4.6800
1283.6280;-23.4500;-19.3300;-4.1200
1283.8270;-22.8300;-19.2600;-3.5700
1284.0270;-22.2600;-19.1900;-3.0700
1284.2260;-21.7100;-19.1300;-2.5800
1284.4250;-21.2100;-19.0600;-2.1500
1284.6240;-20.7500;-19.0000;-1.7500
1284.8230;-20.3200;-18.9300;-1.3900
1285.0220;-19.9600;-18.8600;-1.1000
1285.2210;-19.6000;-18.8000;-0.8000
1285.4200;-19.3100;-18.7300;-0.5800
1285.6200;-19.0400;-18.6700;-0.3700
1285.8190;-18.8200;-18.5900;-0.2300
1286.0180;-18.6500;-18.5300;-0.1200
1286.2170;-18.4900;-18.4700;-0.0200
1286.4160;-18.3900;-18.3900;0.0000
1286.6150;-18.3300;-18.3400;0.0100
1286.8140;-18.3100;-18.2700;-0.0400
1287.0130;-18.3400;-18.2000;-0.1400
1287.2120;-18.3800;-18.1400;-0.2400
1287.4120;-18.5000;-18.0700;-0.4300
1287.6110;-18.6400;-18.0200;-0.6200
1287.8100;-18.8300;-17.9400;-0.8900
1288.0090;-19.0900;-17.8900;-1.2000
1288.2080;-19.3800;-17.8200;-1.5600
1288.4070;-19.7400;-17.7600;-1.9800
1288.6060;-20.1500;-17.7100;-2.4400
1288.8050;-20.6400;-17.6500;-2.9900
1289.0040;-21.2100;-17.6000;-3.6100
1289.2040;-21.8400;-17.5300;-4.3100
1289.4030;-22.5900;-17.4800;-5.1100
1289.6020;-23.4100;-17.4400;-5.9700
1289.8010;-24.3500;-17.3800;-6.9700
1290.0000;-25.4100;-17.3400;-8.0700
1290.1990;-26.5600;-17.2800;-9.2800
1290.3980;-27.7800;-17.2300;-10.5500
1290.5970;-29.1300;-17.2000;-11.9300
1290.7970;-29.7300;-17.1400;-12.5900
1290.9960;-29.8200;-17.1000;-12.7200
1291.1950;-29.2000;-17.0400;-12.1600
1291.3940;-28.0700;-17.0000;-11.0700
1291.5930;-26.7400;-16.9400;-9.8000
1291.7920;-25.2300;-16.9000;-8.3300
1291.9910;-24.2200;-16.8600;-7.3600
1292.1900;-23.1400;-16.8000;-6.3400
1292.3890;-22.1500;-16.7600;-5.3900
1292.5890;-21.2800;-16.7100;-4.5700
1292.7880;-20.4900;-16.6600;-3.8300
1292.9870;-19.8000;-16.6300;-3.1700
1293.1860;-19.2000;-16.5700;-2.6300
1293.3850;-18.6500;-16.5400;-2.1100
1293.5840;-18.1800;-16.4800;-1.7000
1293.7830;-17.7500;-16.4400;-1.3100
1293.9820;-17.3900;-16.4100;-0.9800
1294.1810;-17.0900;-16.3600;-0.7300
1294.3810;-16.8300;-16.3400;-0.4900
1294.5800;-16.6200;-16.2700;-0.3500
1294.7790;-16.4500;-16.2400;-0.2100
1294.9780;-16.3300;-16.2000;-0.1300
1295.1770;-16.2500;-16.1600;-0.0900
1295.3760;-16.2100;-16.1300;-0.0800
1295.5750;-16.2100;-16.0800;-0.1300
1295.7740;-16.2500;-16.0600;-0.1900
1295.9740;-16.3400;-16.0000;-0.3400
1296.1730;-16.4700;-15.9700;-0.5000
1296.3720;-16.6500;-15.9300;-0.7200
1296.5710;-16.8700;-15.8900;-0.9800
1296.7700;-17.1400;-15.8700;-1.2700
1296.9690;-17.4800;-15.8200;-1.6600
1297.1680;-17.8600;-15.8000;-2.0600
1297.3670;-18.3100;-15.7500;-2.5600
1297.5660;-18.8200;-15.7200;-3.1000
1297.7660;-19.4100;-15.6900;-3.7200
1297.9650;-20.1000;-15.6600;-4.4400
1298.1640;-20.8700;-15.6400;-5.2300
1298.3630;-21.7600;-15.6000;-6.1600
1298.5620;-22.7700;-15.5600;-7.2100
1298.7610;-23.9300;-15.5400;-8.3900
1298.9600;-25.2900;-15.5100;-9.7800
1299.1590;-26.8000;-15.5000;-11.3000
1299.3580;-28.8600;-15.4600;-13.4000
1299.5580;-30.0600;-15.4300;-14.6300
1299.7570;-31.0000;-15.4000;-15.6000
1299.9560;-30.7400;-15.3800;-15.3600
1300.1550;-29.4300;-15.3700;-14.0600
1300.3540;-27.7700;-15.3300;-12.4400
1300.5530;-26.1100;-15.3100;-10.8000
1300.7520;-24.4200;-15.2800;-9.1400
1300.9510;-23.3500;-15.2600;-8.0900
1301.1500;-22.2500;-15.2500;-7.0000
1301.3500;-21.2900;-15.2200;-6.0700
1301.5490;-20.4300;-15.2200;-5.2100
1301.7480;-19.6900;-15.1900;-4.5000
1301.9470;-19.0200;-15.1700;-3.8500
1302.1460;-18.4600;-15.1700;-3.2900
1302.3450;-17.9600;-15.1500;-2.8100
1302.5440;-17.5300;-15.1500;-2.3800
1302.7430;-17.1700;-15.1200;-2.0500
1302.9430;-16.8300;-15.1000;-1.7300
1303.1420;-16.5800;-15.1000;-1.4800
1303.3410;-16.3600;-15.0800;-1.2800
1303.5400;-16.1900;-15.0900;-1.1000
1303.7390;-16.0500;-15.0700;-0.9800
1303.9380;-15.9800;-15.0600;-0.9200
1304.1370;-15.9700;-15.0600;-0.9100
1304.3360;-15.9600;-15.0500;-0.9100
1304.5350;-16.0100;-15.0600;-0.9500
1304.7350;-16.0900;-15.0600;-1.0300
1304.9340;-16.2200;-15.0600;-1.1600
1305.1330;-16.4000;-15.0600;-1.3400
1305.3320;-16.6000;-15.0600;-1.5400
1305.5310;-16.8700;-15.0800;-1.7900
1305.7300;-17.1700;-15.0800;-2.0900
1305.9290;-17.5200;-15.0900;-2.4300
1306.1280;-17.9400;-15.1000;-2.8400
1306.3270;-18.4700;-15.1100;-3.3600
1306.5270;-18.9200;-15.1400;-3.7800
1306.7260;-19.4800;-15.1400;-4.3400
1306.9250;-20.1100;-15.1700;-4.9400
1307.1240;-20.8300;-15.1700;-5.6600
1307.3230;-21.5900;-15.1900;-6.4000
1307.5220;-22.4200;-15.2100;-7.2100
1307.7210;-23.2600;-15.2300;-8.0300
1307.9200;-24.1100;-15.2600;-8.8500
1308.1200;-24.9100;-15.2700;-9.6400
1308.3190;-25.5500;-15.2900;-10.2600
1308.5180;-25.9600;-15.3200;-10.6400
1308.7170;-26.0100;-15.3400;-10.6700
1308.9160;-25.7300;-15.3700;-10.3600
1309.1150;-25.2100;-15.3800;-9.8300
1309.3140;-24.5100;-15.4100;-9.1000
1309.5130;-23.7700;-15.4300;-8.3400
1309.7120;-23.0000;-15.4500;-7.5500
1309.9120;-22.2800;-15.4800;-6.8000
1310.1110;-21.6000;-15.5000;-6.1000
1310.3100;-20.9800;-15.5300;-5.4500
1310.5090;-20.4500;-15.5500;-4.9000
1310.7080;-19.9400;-15.5700;-4.3700
1310.9070;-19.5200;-15.5800;-3.9400
1311.1060;-19.1400;-15.6000;-3.5400
1311.3050;-18.8200;-15.6400;-3.1800
1311.5040;-18.5700;-15.6500;-2.9200
1311.7040;-18.3500;-15.6800;-2.6700
1311.9030;-18.2000;-15.6900;-2.5100
1312.1020;-18.0800;-15.7200;-2.3600
1312.3010;-18.0300;-15.7500;-2.2800
1312.5000;-18.0200;-15.7800;-2.2400
1312.6990;-18.0500;-15.8200;-2.2300
1312.8980;-18.1400;-15.8400;-2.3000
1313.0970;-18.2600;-15.8700;-2.3900
1313.2970;-18.4400;-15.9000;-2.5400
1313.4960;-18.6700;-15.9400;-2.7300
1313.6950;-18.9400;-15.9900;-2.9500
1313.8940;-19.2700;-16.0100;-3.2600
1314.0930;-19.6500;-16.0600;-3.5900
1314.2920;-20.1000;-16.1000;-4.0000
1314.4910;-20.5900;-16.1500;-4.4400
1314.6900;-21.1600;-16.2000;-4.9600
1314.8890;-21.7900;-16.2400;-5.5500
1315.0890;-22.4900;-16.3000;-6.1900
1315.2880;-23.2700;-16.3300;-6.9400
1315.4870;-24.1100;-16.3900;-7.7200
1315.6860;-25.0200;-16.4500;-8.5700
1315.8850;-25.9400;-16.5000;-9.4400
1316.0840;-26.8500;-16.5700;-10.2800
1316.2830;-27.6200;-16.6100;-11.0100
1316.4820;-28.1600;-16.6900;-11.4700
1316.6810;-28.3300;-16.7500;-11.5800
1316.8810;-28.0800;-16.8200;-11.2600
1317.0800;-27.5300;-16.9000;-10.6300
1317.2790;-26.7800;-16.9600;-9.8200
1317.4780;-25.9300;-17.0400;-8.8900
1317.6770;-25.0900;-17.1000;-7.9900
1317.8760;-24.2700;-17.1700;-7.1000
1318.0750;-23.5300;-17.2500;-6.2800
1318.2740;-22.8500;-17.3200;-5.5300
1318.4740;-22.2400;-17.4000;-4.8400
1318.6730;-21.7200;-17.4600;-4.2600
1318.8720;-21.2400;-17.5500;-3.6900
1319.0710;-20.8400;-17.6300;-3.2100
1319.2700;-20.4700;-17.7000;-2.7700
1319.4690;-20.1600;-17.7800;-2.3800
1319.6680;-19.9200;-17.8600;-2.0600
1319.8670;-19.7100;-17.9500;-1.7600
1320.0660;-19.5600;-18.0100;-1.5500
1320.2660;-19.4400;-18.0900;-1.3500
1320.4650;-19.3700;-18.1700;-1.2000
1320.6640;-19.3500;-18.2500;-1.1000
1320.8630;-19.3500;-18.3400;-1.0100
1321.0620;-19.4100;-18.4100;-1.0000
1321.2610;-19.4900;-18.5300;-0.9600
1321.4600;-19.6300;-18.5900;-1.0400
1321.6590;-19.7900;-18.6900;-1.1000
1321.8580;-20.0000;-18.7700;-1.2300
1322.0580;-20.2600;-18.8600;-1.4000
1322.2570;-20.5400;-18.9600;-1.5800
1322.4560;-20.8900;-19.0400;-1.8500
1322.6550;-21.2500;-19.1400;-2.1100
1322.8540;-21.6800;-19.2200;-2.4600
1323.0530;-22.1400;-19.3200;-2.8200
1323.2520;-22.6500;-19.4200;-3.2300
1323.4510;-23.2200;-19.5100;-3.7100
1323.6500;-23.8100;-19.6200;-4.1900
1323.8500;-24.4600;-19.7100;-4.7500
1324.0490;-25.1300;-19.8200;-5.3100
1324.2480;-25.8400;-19.9200;-5.9200
1324.4470;-26.5600;-20.0200;-6.5400
1324.6460;-27.2600;-20.1400;-7.1200
1324.8450;-27.9200;-20.2400;-7.6800
1325.0440;-28.5700;-20.3600;-8.2100
1325.2430;-28.8900;-20.4600;-8.4300
1325.4430;-29.1000;-20.5800;-8.5200
1325.6420;-29.1300;-20.7200;-8.4100
1325.8410;-28.9500;-20.8400;-8.1100
1326.0400;-28.6200;-20.9700;-7.6500
1326.2390;-28.2200;-21.0800;-7.1400
1326.4380;-27.7400;-21.2100;-6.5300
1326.6370;-27.2700;-21.3300;-5.9400
1326.8360;-26.7900;-21.4500;-5.3400
1327.0350;-26.2800;-21.5900;-4.6900
1327.2350;-25.9400;-21.7100;-4.2300
1327.4340;-25.5800;-21.8500;-3.7300
1327.6330;-25.2700;-21.9700;-3.3000
1327.8320;-24.9800;-22.1000;-2.8800
1328.0310;-24.7600;-22.2400;-2.5200
1328.2300;-24.5700;-22.3700;-2.2000
1328.4290;-24.4200;-22.5100;-1.9100
1328.6280;-24.3200;-22.6400;-1.6800
1328.8270;-24.2500;-22.7700;-1.4800
1329.0270;-24.2400;-22.9200;-1.3200
1329.2260;-24.2400;-23.0500;-1.1900
1329.4250;-24.2900;-23.1900;-1.1000
1329.6240;-24.3600;-23.3100;-1.0500
1329.8230;-24.4700;-23.4600;-1.0100
1330.0220;-24.6300;-23.6000;-1.0300
1330.2210;-24.8100;-23.7300;-1.0800
1330.4200;-25.0300;-23.8800;-1.1500
1330.6200;-25.2700;-24.0100;-1.2600
1330.8190;-25.5500;-24.1600;-1.3900
1331.0180;-25.8700;-24.3000;-1.5700
1331.2170;-26.2200;-24.4500;-1.7700
1331.4160;-26.6000;-24.6100;-1.9900
1331.6150;-26.9800;-24.7400;-2.2400
1331.8140;-27.4100;-24.9100;-2.5000
1332.0130;-27.8500;-25.0400;-2.8100
1332.2120;-28.3100;-25.2000;-3.1100
1332.4120;-28.8800;-25.3600;-3.5200
1332.6110;-29.2700;-25.5100;-3.7600
1332.8100;-29.7300;-25.6700;-4.0600
1333.0090;-30.1600;-25.8200;-4.3400
1333.2080;-30.5700;-25.9700;-4.6000
1333.4070;-30.9100;-26.1300;-4.7800
1333.6060;-31.2000;-26.2800;-4.9200
1333.8050;-31.4200;-26.4500;-4.9700
1334.0040;-31.5600;-26.6000;-4.9600
1334.2040;-31.6300;-26.7700;-4.8600
1334.4030;-31.6200;-26.9200;-4.7000
1334.6020;-31.5700;-27.0900;-4.4800
1334.8010;-31.4500;-27.2400;-4.2100
1335.0000;-31.3200;-27.4000;-3.9200
1335.1990;-31.1800;-27.5800;-3.6000
1335.3980;-31.0200;-27.7300;-3.2900
1335.5970;-30.8800;-27.9000;-2.9800
1335.7970;-30.7300;-28.0600;-2.6700
1335.9960;-30.6200;-28.2300;-2.3900
1336.1950;-30.5300;-28.4000;-2.1300
1336.3940;-30.4500;-28.5900;-1.8600
1336.5930;-30.4100;-28.7300;-1.6800
1336.7920;-30.3800;-28.8800;-1.5000
1336.9910;-30.4000;-29.0600;-1.3400
1337.1900;-30.4400;-29.2200;-1.2200
1337.3890;-30.5200;-29.3900;-1.1300
1337.5890;-30.6400;-29.5600;-1.0800
1337.7880;-30.7800;-29.7200;-1.0600
1337.9870;-30.9800;-29.9000;-1.0800
1338.1860;-31.1900;-30.0600;-1.1300
1338.3850;-31.4500;-30.2400;-1.2100
1338.5840;-31.7400;-30.4000;-1.3400
1338.7830;-32.0700;-30.5700;-1.5000
1338.9820;-32.4600;-30.7400;-1.7200
1339.1810;-32.8800;-30.9100;-1.9700
1339.3810;-33.3500;-31.1000;-2.2500
1339.5800;-33.8600;-31.2600;-2.6000
1339.7790;-34.4400;-31.4400;-3.0000
1339.9780;-35.0800;-31.6100;-3.4700
1340.1770;-35.7800;-31.7900;-3.9900
1340.3760;-36.5600;-31.9800;-4.5800
1340.5750;-37.4100;-32.1600;-5.2500
1340.7740;-38.3400;-32.3400;-6.0000
1340.9740;-39.6100;-32.5000;-7.1100
1341.1730;-40.5500;-32.6800;-7.8700
1341.3720;-41.8200;-32.8700;-8.9500
1341.5710;-43.2400;-33.0400;-10.2000
1341.7700;-44.8300;-33.2300;-11.6000
1341.9690;-46.5100;-33.4000;-13.1100
1342.1680;-48.1200;-33.5800;-14.5400
1342.3670;-49.5100;-33.7500;-15.7600
1342.5660;-49.5600;-33.9300;-15.6300
1342.7660;-48.8300;-34.1200;-14.7100
1342.9650;-47.6300;-34.2900;-13.3400
1343.1640;-46.1200;-34.4800;-11.6400
1343.3630;-45.1600;-34.6600;-10.5000
1343.5620;-44.1200;-34.8300;-9.2900
1343.7610;-43.2300;-35.0200;-8.2100
1343.9600;-42.4900;-35.1900;-7.3000
1344.1590;-41.8500;-35.3900;-6.4600
1344.3580;-41.3200;-35.5600;-5.7600
1344.5580;-40.8800;-35.7400;-5.1400
1344.7570;-40.5200;-35.9300;-4.5900
1344.9560;-40.2400;-36.0900;-4.1500
1345.1550;-40.0100;-36.2700;-3.7400
1345.3540;-39.8500;-36.4300;-3.4200
1345.5530;-39.7400;-36.6100;-3.1300
1345.7520;-39.7000;-36.7700;-2.9300
1345.9510;-39.7200;-36.9500;-2.7700
1346.1500;-39.7600;-37.1300;-2.6300
1346.3500;-39.8800;-37.3100;-2.5700
1346.5490;-40.0400;-37.5000;-2.5400
1346.7480;-40.2300;-37.6700;-2.5600
1346.9470;-40.4800;-37.8400;-2.6400
1347.1460;-40.7600;-38.0100;-2.7500
1347.3450;-41.0900;-38.1600;-2.9300
1347.5440;-41.5100;-38.3800;-3.1300
1347.7430;-42.0000;-38.6500;-3.3500
1347.9430;-42.5200;-38.8100;-3.7100
1348.1420;-43.0800;-38.9800;-4.1000
1348.3410;-43.7200;-39.1600;-4.5600
1348.5400;-44.3600;-39.3100;-5.0500
1348.7390;-45.1100;-39.4700;-5.6400
1348.9380;-45.9300;-39.6400;-6.2900
1349.1370;-46.8500;-39.7900;-7.0600
1349.3360;-47.8600;-39.9400;-7.9200
1349.5350;-49.2900;-40.1100;-9.1800
1349.7350;-50.3200;-40.2600;-10.0600
1349.9340;-51.7400;-40.4500;-11.2900
1350.1330;-53.3200;-40.6300;-12.6900
1350.3320;-54.9600;-40.8800;-14.0800
1350.5310;-56.3900;-41.0900;-15.3000
1350.7300;-57.1300;-41.2600;-15.8700
1350.9290;-56.8100;-41.4200;-15.3900
1351.1280;-55.7300;-41.5300;-14.2000
1351.3270;-54.4000;-41.6900;-12.7100
1351.5270;-53.1300;-41.8600;-11.2700
1351.7260;-52.0200;-42.0900;-9.9300
1351.9250;-50.9900;-42.2900;-8.7000
1352.1240;-50.0800;-42.4500;-7.6300
1352.3230;-49.3400;-42.6300;-6.7100
1352.5220;-48.7500;-42.8300;-5.9200
1352.7210;-48.1600;-42.9800;-5.1800
1352.9200;-47.6800;-43.1300;-4.5500
1353.1200;-47.3800;-43.3800;-4.0000
1353.3190;-46.9900;-43.4900;-3.5000
1353.5180;-46.7400;-43.6500;-3.0900
1353.7170;-46.5300;-43.8300;-2.7000
1353.9160;-46.2800;-43.9200;-2.3600
1354.1150;-46.2100;-44.0600;-2.1500
1354.3140;-46.2200;-44.2700;-1.9500
1354.5130;-46.2200;-44.4600;-1.7600
1354.7120;-46.4100;-44.7700;-1.6400
1354.9120;-46.5900;-45.0300;-1.5600
1355.1110;-46.7300;-45.2100;-1.5200
1355.3100;-46.8500;-45.3100;-1.5400
1355.5090;-46.8900;-45.3000;-1.5900
1355.7080;-47.2100;-45.5700;-1.6400
1355.9070;-47.5900;-45.8200;-1.7700
1356.1060;-47.9300;-45.9800;-1.9500
1356.3050;-48.2500;-46.0400;-2.2100
1356.5040;-48.7400;-46.1300;-2.6100
1356.7040;-48.8300;-46.0400;-2.7900
1356.9030;-49.3000;-46.1800;-3.1200
1357.1020;-50.0500;-46.5600;-3.4900
1357.3010;-50.7600;-46.7600;-4.0000
1357.5000;-51.5400;-46.9400;-4.6000
1357.6990;-52.3100;-47.0900;-5.2200
1357.8980;-53.1000;-47.1300;-5.9700
1358.0970;-53.9200;-47.1900;-6.7300
1358.2970;-54.9500;-47.3600;-7.5900
1358.4960;-56.1400;-47.5900;-8.5500
1358.6950;-57.3200;-47.7100;-9.6100
1358.8940;-58.9700;-47.8600;-11.1100
1359.0930;-59.9600;-47.9900;-11.9700
1359.2920;-60.8800;-48.0200;-12.8600
1359.4910;-61.6900;-48.4000;-13.2900
1359.6900;-61.9200;-48.7400;-13.1800
1359.8890;-61.3600;-48.8900;-12.4700
1360.0890;-60.3400;-48.9200;-11.4200
1360.2880;-59.2600;-48.9400;-10.3200
1360.4870;-58.1700;-48.9200;-9.2500
1360.6860;-57.2800;-49.0800;-8.2000
1360.8850;-56.7000;-49.4200;-7.2800
1361.0840;-56.0100;-49.7000;-6.3100
1361.2830;-55.4500;-49.8800;-5.5700
1361.4820;-54.8500;-50.0100;-4.8400
1361.6810;-54.5500;-50.2300;-4.3200
1361.8810;-54.1500;-50.3500;-3.8000
1362.0800;-53.9000;-50.5700;-3.3300
1362.2790;-53.8700;-50.9900;-2.8800
1362.4780;-53.8200;-51.2200;-2.6000
1362.6770;-53.6200;-51.3500;-2.2700
1362.8760;-53.2500;-51.2200;-2.0300
1363.0750;-53.0100;-51.1400;-1.8700
1363.2740;-52.6400;-50.9000;-1.7400
1363.4740;-52.6200;-50.9800;-1.6400
1363.6730;-52.6500;-51.0700;-1.5800
1363.8720;-52.7800;-51.2000;-1.5800
1364.0710;-53.0200;-51.4200;-1.6000
1364.2700;-53.2900;-51.6000;-1.6900
1364.4690;-53.6900;-51.9100;-1.7800
1364.6680;-54.3400;-52.4200;-1.9200
1364.8670;-54.8200;-52.6400;-2.1800
1365.0660;-55.1000;-52.6200;-2.4800
1365.2660;-55.5500;-52.7600;-2.7900
1365.4650;-55.8200;-52.7000;-3.1200
1365.6640;-56.3000;-52.7700;-3.5300
1365.8630;-56.8500;-52.8000;-4.0500
1366.0620;-57.3800;-52.8100;-4.5700
1366.2610;-57.9600;-52.8000;-5.1600
1366.4600;-58.8500;-52.8800;-5.9700
1366.6590;-59.5800;-53.0300;-6.5500
1366.8580;-60.5700;-53.2700;-7.3000
1367.0580;-61.6000;-53.4100;-8.1900
1367.2570;-62.6600;-53.5200;-9.1400
1367.4560;-63.8800;-53.7900;-10.0900
1367.6550;-64.8900;-53.9700;-10.9200
1367.8540;-65.8800;-54.2600;-11.6200
1368.0530;-66.4300;-54.3600;-12.0700
1368.2520;-66.4700;-54.3500;-12.1200
1368.4510;-66.4000;-54.6900;-11.7100
1368.6500;-65.7900;-54.7800;-11.0100
1368.8500;-65.0300;-54.9000;-10.1300
1369.0490;-64.0300;-54.8600;-9.1700
1369.2480;-63.1400;-54.8400;-8.3000
1369.4470;-62.2700;-54.7700;-7.5000
1369.6460;-61.6400;-54.8700;-6.7700
1369.8450;-61.3200;-55.2100;-6.1100
1370.0440;-60.8900;-55.4100;-5.4800
1370.2430;-60.4100;-55.5500;-4.8600
1370.4430;-59.9500;-55.5900;-4.3600
1370.6420;-59.5500;-55.6200;-3.9300
1370.8410;-59.5300;-55.9300;-3.6000
1371.0400;-59.4900;-56.2100;-3.2800
1371.2390;-59.3700;-56.4200;-2.9500
1371.4380;-59.1200;-56.4000;-2.7200
1371.6370;-58.9200;-56.4000;-2.5200
1371.8360;-58.7500;-56.3600;-2.3900
1372.0350;-58.8400;-56.5700;-2.2700
1372.2350;-58.9900;-56.7800;-2.2100
1372.4340;-59.0800;-56.8900;-2.1900
1372.6330;-59.1700;-56.9800;-2.1900
1372.8320;-59.2700;-57.0000;-2.2700
1373.0310;-59.3900;-57.0700;-2.3200
1373.2300;-59.6500;-57.1800;-2.4700
1373.4290;-60.0000;-57.3500;-2.6500
1373.6280;-60.3100;-57.4800;-2.8300
1373.8270;-60.6800;-57.5700;-3.1100
1374.0270;-61.0800;-57.7000;-3.3800
1374.2260;-61.5300;-57.8000;-3.7300
1374.4250;-62.0600;-57.9700;-4.0900
1374.6240;-62.6400;-58.0900;-4.5500
1374.8230;-63.3100;-58.3000;-5.0100
1375.0220;-64.0300;-58.5500;-5.4800
1375.2210;-64.8200;-58.5900;-6.2300
1375.4200;-65.5500;-58.6900;-6.8600
1375.6200;-66.4000;-58.7800;-7.6200
1375.8190;-67.2400;-58.9100;-8.3300
1376.0180;-68.1000;-59.0600;-9.0400
1376.2170;-68.9900;-59.2300;-9.7600
1376.4160;-69.9500;-59.3400;-10.6100
1376.6150;-70.6400;-59.4400;-11.2000
1376.8140;-71.2800;-59.6300;-11.6500
1377.0130;-71.6500;-59.8800;-11.7700
1377.2120;-71.6100;-60.0700;-11.5400
1377.4120;-71.4800;-60.1500;-11.3300
1377.6110;-70.8600;-60.2300;-10.6300
1377.8100;-70.1800;-60.2300;-9.9500
1378.0090;-69.6300;-60.3000;-9.3300
1378.2080;-68.8900;-60.4300;-8.4600
1378.4070;-68.5100;-60.6000;-7.9100
1378.6060;-68.1100;-60.8600;-7.2500
1378.8050;-67.8800;-61.1800;-6.7000
1379.0040;-67.5100;-61.3200;-6.1900
1379.2040;-67.0000;-61.3700;-5.6300
1379.4030;-66.5600;-61.3500;-5.2100
1379.6020;-66.2100;-61.3700;-4.8400
1379.8010;-66.0000;-61.4100;-4.5900
1380.0000;-65.9400;-61.5700;-4.3700
1380.1990;-65.8600;-61.7500;-4.1100
1380.3980;-65.9500;-61.9400;-4.0100
1380.5970;-66.3000;-62.5300;-3.7700
1380.7970;-66.6800;-62.9800;-3.7000
1380.9960;-66.8800;-63.1600;-3.7200
1381.1950;-66.8900;-63.2000;-3.6900
1381.3940;-66.8000;-62.9600;-3.8400
1381.5930;-66.5900;-62.6800;-3.9100
1381.7920;-66.7900;-62.7200;-4.0700
1381.9910;-66.9400;-62.7800;-4.1600
1382.1900;-67.3600;-62.9000;-4.4600
1382.3890;-67.8600;-63.2200;-4.6400
1382.5890;-68.5500;-63.7800;-4.7700
1382.7880;-69.5400;-64.2900;-5.2500
1382.9870;-70.0600;-64.5200;-5.5400
1383.1860;-70.3700;-64.3000;-6.0700
1383.3850;-70.6200;-64.0900;-6.5300
1383.5840;-70.9000;-63.8900;-7.0100
1383.7830;-71.6600;-64.0000;-7.6600
1383.9820;-72.5300;-64.1200;-8.4100
1384.1810;-73.5200;-64.2000;-9.3200
1384.3810;-74.1100;-64.2300;-9.8800
1384.5800;-74.7500;-64.2100;-10.5400
1384.7790;-74.9000;-64.3500;-10.5500
1384.9780;-75.4800;-64.6000;-10.8800
1385.1770;-75.9100;-64.8600;-11.0500
1385.3760;-76.2900;-64.9400;-11.3500
1385.5750;-76.2100;-64.9400;-11.2700
1385.7740;-76.0300;-64.9300;-11.1000
1385.9740;-75.0700;-64.9400;-10.1300
1386.1730;-74.8300;-65.0100;-9.8200
1386.3720;-74.0800;-65.1700;-8.9100
1386.5710;-73.4600;-65.1500;-8.3100
1386.7700;-73.2600;-65.1500;-8.1100
1386.9690;-72.7600;-65.2700;-7.4900
1387.1680;-72.1000;-65.2700;-6.8300
1387.3670;-71.6200;-65.3100;-6.3100
1387.5660;-71.3700;-65.4500;-5.9200
1387.7660;-71.0100;-65.6700;-5.3400
1387.9650;-70.8200;-65.9700;-4.8500
1388.1640;-71.1800;-66.2100;-4.9700
1388.3630;-71.1300;-66.3200;-4.8100
1388.5620;-70.8000;-66.2400;-4.5600
1388.7610;-70.3200;-66.1100;-4.2100
1388.9600;-70.1100;-66.1800;-3.9300
1389.1590;-69.9900;-66.0800;-3.9100
1389.3580;-69.9100;-66.0400;-3.8700
1389.5580;-69.9900;-66.1600;-3.8300
1389.7570;-70.1600;-66.3000;-3.8600
1389.9560;-70.4600;-66.4100;-4.0500
1390.1550;-70.5400;-66.4700;-4.0700
1390.3540;-70.6100;-66.4600;-4.1500
1390.5530;-70.8200;-66.6000;-4.2200
1390.7520;-70.8100;-66.5400;-4.2700
1390.9510;-71.1300;-66.7100;-4.4200
1391.1500;-71.5800;-66.7900;-4.7900
1391.3500;-71.8900;-66.8700;-5.0200
1391.5490;-72.1100;-67.0000;-5.1100
1391.7480;-72.6600;-67.0800;-5.5800
1391.9470;-72.9900;-67.1600;-5.8300
1392.1460;-73.4600;-67.3600;-6.1000
1392.3450;-74.1300;-67.5300;-6.6000
1392.5440;-74.7300;-67.9900;-6.7400
1392.7430;-75.9500;-68.2400;-7.7100
1392.9430;-75.5200;-68.1900;-7.3300
1393.1420;-76.1300;-68.0800;-8.0500
1393.3410;-76.0500;-67.8300;-8.2200
1393.5400;-76.4900;-67.8600;-8.6300
1393.7390;-77.2700;-67.8300;-9.4400
1393.9380;-77.8000;-67.9200;-9.8800
1394.1370;-77.7400;-68.1100;-9.6300
1394.3360;-78.7500;-68.1800;-10.5700
1394.5350;-77.9200;-68.2200;-9.7000
1394.7350;-77.3100;-68.3800;-8.9300
1394.9340;-77.3700;-68.6200;-8.7500
1395.1330;-78.1100;-68.9200;-9.1900
1395.3320;-77.8000;-69.0000;-8.8000
1395.5310;-77.1800;-69.2600;-7.9200
1395.7300;-77.3900;-69.2000;-8.1900
1395.9290;-77.2900;-69.1200;-8.1700
1396.1280;-76.3500;-69.2000;-7.1500
1396.3270;-75.9600;-69.3200;-6.6400
1396.5270;-77.1700;-69.6400;-7.5300
1396.7260;-76.3200;-69.8000;-6.5200
1396.9250;-75.5600;-69.8000;-5.7600
1397.1240;-75.3700;-69.5500;-5.8200
1397.3230;-75.4900;-69.5200;-5.9700
1397.5220;-74.9600;-69.5200;-5.4400
1397.7210;-74.8500;-69.4600;-5.3900
1397.9200;-74.6400;-69.5900;-5.0500
1398.1200;-74.7600;-69.8000;-4.9600
1398.3190;-74.3700;-69.7200;-4.6500
1398.5180;-74.7000;-69.6900;-5.0100
1398.7170;-74.3000;-69.8400;-4.4600
1398.9160;-74.1400;-69.8300;-4.3100
1399.1150;-73.8800;-70.0800;-3.8000
1399.3140;-73.7900;-70.1700;-3.6200
1399.5130;-74.0200;-70.4300;-3.5900
1399.7120;-74.3100;-70.6800;-3.6300
1399.9120;-74.5400;-70.7500;-3.7900
1400.1110;-74.3000;-70.9500;-3.3500
1400.3100;-74.4300;-70.7100;-3.7200
1400.5090;-74.4100;-70.7700;-3.6400
1400.7080;-74.7800;-71.2500;-3.5300
1400.9070;-74.9900;-71.3400;-3.6500
1401.1060;-74.8500;-71.5100;-3.3400
1401.3050;-74.9200;-71.5600;-3.3600
1401.5040;-74.3900;-71.4400;-2.9500
1401.7040;-74.4500;-71.3800;-3.0700
1401.9030;-74.6700;-71.6000;-3.0700
1402.1020;-74.8000;-71.3900;-3.4100
1402.3010;-74.3400;-71.3800;-2.9600
1402.5000;-74.4900;-71.5400;-2.9500
1402.6990;-74.7400;-71.5900;-3.1500
1402.8980;-74.4300;-71.7300;-2.7000
1403.0970;-74.5500;-71.8300;-2.7200
1403.2970;-74.5200;-72.0500;-2.4700
1403.4960;-75.3000;-72.1600;-3.1400
1403.6950;-75.3700;-71.8300;-3.5400
1403.8940;-75.4200;-72.1700;-3.2500
1404.0930;-75.8100;-72.3100;-3.5000
1404.2920;-75.3000;-72.4400;-2.8600
1404.4910;-75.9000;-72.7300;-3.1700
1404.6900;-75.9900;-72.8000;-3.1900
1404.8890;-76.8100;-73.0400;-3.7700
1405.0890;-76.8100;-73.2800;-3.5300
1405.2880;-76.6700;-73.5400;-3.1300
1405.4870;-77.0800;-73.3400;-3.7400
1405.6860;-77.1000;-73.0200;-4.0800
1405.8850;-76.8300;-72.9400;-3.8900
1406.0840;-77.7500;-73.1300;-4.6200
1406.2830;-76.8900;-73.4200;-3.4700
1406.4820;-78.3300;-73.2200;-5.1100
1406.6810;-77.1800;-73.2800;-3.9000
1406.8810;-77.9400;-73.3900;-4.5500
1407.0800;-77.7100;-73.5000;-4.2100
1407.2790;-79.4200;-74.4200;-5.0000
1407.4780;-78.8300;-74.1900;-4.6400
1407.6770;-79.2200;-73.8000;-5.4200
1407.8760;-78.1100;-74.1500;-3.9600
1408.0750;-78.7100;-73.8700;-4.8400
1408.2740;-78.8600;-73.8700;-4.9900
1408.4740;-78.7100;-73.5900;-5.1200
1408.6730;-79.0100;-73.7600;-5.2500
1408.8720;-78.1100;-74.0100;-4.1000
1409.0710;-78.4900;-74.0400;-4.4500
1409.2700;-78.6300;-74.3000;-4.3300
1409.4690;-79.8700;-74.6900;-5.1800
1409.6680;-78.7700;-74.3600;-4.4100
1409.8670;-78.9800;-74.7000;-4.2800
1410.0660;-78.8600;-75.2200;-3.6400
1410.2660;-79.2500;-74.3600;-4.8900
1410.4650;-78.6900;-74.3000;-4.3900
1410.6640;-78.9800;-75.0900;-3.8900
1410.8630;-77.9400;-74.9700;-2.9700
1411.0620;-78.7100;-75.3600;-3.3500
1411.2610;-78.5500;-74.8700;-3.6800
1411.4600;-79.2900;-74.9200;-4.3700
1411.6590;-78.1600;-74.7200;-3.4400
1411.8580;-79.2200;-74.5600;-4.6600
1412.0580;-78.0900;-74.8000;-3.2900
1412.2570;-78.4100;-74.8800;-3.5300
1412.4560;-77.9900;-75.2000;-2.7900
1412.6550;-78.9200;-75.2200;-3.7000
1412.8540;-78.3400;-75.4200;-2.9200
1413.0530;-78.2100;-75.0100;-3.2000
1413.2520;-78.2800;-75.2500;-3.0300
1413.4510;-78.4400;-74.8100;-3.6300
1413.6500;-78.1900;-74.6700;-3.5200
1413.8500;-79.0200;-75.3900;-3.6300
1414.0490;-78.4000;-75.7400;-2.6600
1414.2480;-79.1700;-75.8600;-3.3100
1414.4470;-79.4900;-75.4100;-4.0800
1414.6460;-79.2600;-75.5500;-3.7100
1414.8450;-78.6700;-75.7400;-2.9300
1415.0440;-78.8700;-75.0100;-3.8600
1415.2430;-78.8400;-75.4700;-3.3700
1415.4430;-78.9000;-75.1100;-3.7900
1415.6420;-78.7800;-75.3100;-3.4700
1415.8410;-79.0200;-75.9200;-3.1000
1416.0400;-79.8100;-75.7100;-4.1000
1416.2390;-79.7700;-75.2100;-4.5600
1416.4380;-78.6100;-75.0800;-3.5300
1416.6370;-80.5100;-75.6200;-4.8900
1416.8360;-79.0500;-75.4400;-3.6100
1417.0350;-80.1900;-75.3400;-4.8500
1417.2350;-79.7400;-75.2200;-4.5200
1417.4340;-77.8800;-75.5500;-2.3300
1417.6330;-79.3900;-75.8600;-3.5300
1417.8320;-79.1100;-75.6900;-3.4200
1418.0310;-79.5300;-75.8300;-3.7000
1418.2300;-79.0800;-75.3100;-3.7700
1418.4290;-79.0800;-75.3200;-3.7600
1418.6280;-80.3500;-74.9900;-5.3600
1418.8270;-79.5300;-75.8900;-3.6400
1419.0270;-79.8100;-75.9600;-3.8500
1419.2260;-79.8800;-75.7700;-4.1100
1419.4250;-79.8100;-75.9900;-3.8200
1419.6240;-79.0200;-75.6000;-3.4200
1419.8230;-79.4600;-75.8100;-3.6500
1420.0220;-79.4300;-76.3000;-3.1300
1420.2210;-79.3900;-76.2100;-3.1800
1420.4200;-78.4200;-76.4300;-1.9900
1420.6200;-78.6700;-75.8600;-2.8100
1420.8190;-79.5300;-75.0600;-4.4700
1421.0180;-79.1100;-75.2000;-3.9100
1421.2170;-79.1700;-75.3600;-3.8100
1421.4160;-78.3500;-75.7700;-2.5800
1421.6150;-78.3300;-75.5600;-2.7700
1421.8140;-79.2700;-75.6300;-3.6400
1422.0130;-79.2100;-75.9900;-3.2200
1422.2120;-79.9600;-75.6400;-4.3200
1422.4120;-78.2000;-75.2800;-2.9200
1422.6110;-78.6200;-75.6700;-2.9500
1422.8100;-79.0300;-76.0000;-3.0300
1423.0090;-80.3600;-75.8200;-4.5400
1423.2080;-78.1500;-75.3300;-2.8200
1423.4070;-78.9700;-75.3500;-3.6200
1423.6060;-80.2000;-75.2900;-4.9100
1423.8050;-78.7900;-75.9900;-2.8000
1424.0040;-79.9600;-75.4200;-4.5400
1424.2040;-79.4000;-75.3200;-4.0800
1424.4030;-78.8200;-75.6100;-3.2100
1424.6020;-78.4900;-75.4400;-3.0500
1424.8010;-78.9100;-75.1900;-3.7200
1425.0000;-80.0400;-75.3300;-4.7100
