Wavelength;Intensity_Meas;Intensity_Ref;Difference_dB
1200.0000;-60.5700;-55.6000;-4.9700
1200.1990;-60.5700;-55.5600;-5.0100
1200.3980;-60.5400;-55.5400;-5.0000
1200.5970;-60.5500;-55.5000;-5.0500
1200.7970;-60.4600;-55.4800;-4.9800
1200.9960;-60.4100;-55.4400;-4.9700
1201.1950;-60.4400;-55.3900;-5.0500
1201.3940;-60.4700;-55.3500;-5.1200
1201.5930;-60.4100;-55.3200;-5.0900
1201.7920;-60.3400;-55.2800;-5.0600
1201.9910;-60.3300;-55.2100;-5.1200
1202.1900;-60.3900;-55.1600;-5.2300
1202.3890;-60.3500;-55.1100;-5.2400
1202.5890;-60.2800;-55.0800;-5.2000
1202.7880;-60.2400;-55.0100;-5.2300
1202.9870;-60.2800;-54.9400;-5.3400
1203.1860;-60.2600;-54.8900;-5.3700
1203.3850;-60.2000;-54.8700;-5.3300
1203.5840;-60.1400;-54.8100;-5.3300
1203.7830;-60.1600;-54.7500;-5.4100
1203.9820;-60.1600;-54.7200;-5.4400
1204.1810;-60.1400;-54.6800;-5.4600
1204.3810;-60.0800;-54.6400;-5.4400
1204.5800;-60.0900;-54.6000;-5.4900
1204.7790;-60.1500;-54.5800;-5.5700
1204.9780;-60.1200;-54.5500;-5.5700
1205.1770;-60.0700;-54.5100;-5.5600
1205.3760;-60.0500;-54.4800;-5.5700
1205.5750;-60.1000;-54.4600;-5.6400
1205.7740;-60.1100;-54.4400;-5.6700
1205.9740;-60.0600;-54.4400;-5.6200
1206.1730;-60.0200;-54.4100;-5.6100
1206.3720;-60.0100;-54.3800;-5.6300
1206.5710;-59.9900;-54.3500;-5.6400
1206.7700;-59.9200;-54.3400;-5.5800
1206.9690;-59.8100;-54.3100;-5.5000
1207.1680;-59.7400;-54.2700;-5.4700
1207.3670;-59.7400;-54.2400;-5.5000
1207.5660;-59.6400;-54.2200;-5.4200
1207.7660;-59.5100;-54.1900;-5.3200
1207.9650;-59.4500;-54.1500;-5.3000
1208.1640;-59.4200;-54.0900;-5.3300
1208.3630;-59.3500;-54.0700;-5.2800
1208.5620;-59.2200;-54.0300;-5.1900
1208.7610;-59.1700;-53.9700;-5.2000
1208.9600;-59.1200;-53.9200;-5.2000
1209.1590;-59.0600;-53.8600;-5.2000
1209.3580;-58.9700;-53.8200;-5.1500
1209.5580;-58.8800;-53.7600;-5.1200
1209.7570;-58.8900;-53.7100;-5.1800
1209.9560;-58.8300;-53.6500;-5.1800
1210.1550;-58.7500;-53.6100;-5.1400
1210.3540;-58.6600;-53.5700;-5.0900
1210.5530;-58.6500;-53.4900;-5.1600
1210.7520;-58.6500;-53.4400;-5.2100
1210.9510;-58.5900;-53.4100;-5.1800
1211.1500;-58.5200;-53.3500;-5.1700
1211.3500;-58.5000;-53.3100;-5.1900
1211.5490;-58.5200;-53.2600;-5.2600
1211.7480;-58.5000;-53.2300;-5.2700
1211.9470;-58.4400;-53.2100;-5.2300
1212.1460;-58.4400;-53.1600;-5.2800
1212.3450;-58.4800;-53.1200;-5.3600
1212.5440;-58.5000;-53.1000;-5.4000
1212.7430;-58.4900;-53.0700;-5.4200
1212.9430;-58.4900;-53.0300;-5.4600
1213.1420;-58.5200;-52.9900;-5.5300
1213.3410;-58.5500;-52.9800;-5.5700
1213.5400;-58.5200;-52.9500;-5.5700
1213.7390;-58.5200;-52.9000;-5.6200
1213.9380;-58.5100;-52.8700;-5.6400
1214.1370;-58.5100;-52.8300;-5.6800
1214.3360;-58.4600;-52.8000;-5.6600
1214.5350;-58.3900;-52.7600;-5.6300
1214.7350;-58.3900;-52.7100;-5.6800
1214.9340;-58.3400;-52.6600;-5.6800
1215.1330;-58.2300;-52.6200;-5.6100
1215.3320;-58.1300;-52.5800;-5.5500
1215.5310;-58.0700;-52.5100;-5.5600
1215.7300;-58.0000;-52.4500;-5.5500
1215.9290;-57.8800;-52.4200;-5.4600
1216.1280;-57.7500;-52.3500;-5.4000
1216.3270;-57.6600;-52.2900;-5.3700
1216.5270;-57.5700;-52.2300;-5.3400
1216.7260;-57.4700;-52.1700;-5.3000
1216.9250;-57.3400;-52.1200;-5.2200
1217.1240;-57.2300;-52.0500;-5.1800
1217.3230;-57.1400;-52.0000;-5.1400
1217.5220;-57.0500;-51.9400;-5.1100
1217.7210;-56.9300;-51.8900;-5.0400
1217.9200;-56.8200;-51.8400;-4.9800
1218.1200;-56.7500;-51.7700;-4.9800
1218.3190;-56.6800;-51.7400;-4.9400
1218.5180;-56.5900;-51.6900;-4.9000
1218.7170;-56.5300;-51.6500;-4.8800
1218.9160;-56.4900;-51.6100;-4.8800
1219.1150;-56.4600;-51.5600;-4.9000
1219.3140;-56.4100;-51.5400;-4.8700
1219.5130;-56.3900;-51.5000;-4.8900
1219.7120;-56.4200;-51.4500;-4.9700
1219.9120;-56.4200;-51.4200;-5.0000
1220.1110;-56.4300;-51.3900;-5.0400
1220.3100;-56.4600;-51.3500;-5.1100
1220.5090;-56.5100;-51.3000;-5.2100
1220.7080;-56.5700;-51.2600;-5.3100
1220.9070;-56.6000;-51.2200;-5.3800
1221.1060;-56.6400;-51.1600;-5.4800
1221.3050;-56.7000;-51.1200;-5.5800
1221.5040;-56.7600;-51.0400;-5.7200
1221.7040;-56.8000;-50.9900;-5.8100
1221.9030;-56.8200;-50.9400;-5.8800
1222.1020;-56.8600;-50.8600;-6.0000
1222.3010;-56.8800;-50.8100;-6.0700
1222.5000;-56.8700;-50.7300;-6.1400
1222.6990;-56.8600;-50.6700;-6.1900
1222.8980;-56.8300;-50.5900;-6.2400
1223.0970;-56.8000;-50.5100;-6.2900
1223.2970;-56.7500;-50.4600;-6.2900
1223.4960;-56.6700;-50.3700;-6.3000
1223.6950;-56.6000;-50.3000;-6.3000
1223.8940;-56.5000;-50.2400;-6.2600
1224.0930;-56.3900;-50.1600;-6.2300
1224.2920;-56.2700;-50.1100;-6.1600
1224.4910;-56.1300;-50.0200;-6.1100
1224.6900;-56.0000;-49.9600;-6.0400
1224.8890;-55.7800;-49.9000;-5.8800
1225.0890;-55.6600;-49.8400;-5.8200
1225.2880;-55.4800;-49.7800;-5.7000
1225.4870;-55.3000;-49.7100;-5.5900
1225.6860;-55.1300;-49.6600;-5.4700
1225.8850;-54.9500;-49.6200;-5.3300
1226.0840;-54.7900;-49.5500;-5.2400
1226.2830;-54.6300;-49.5100;-5.1200
1226.4820;-54.4600;-49.4400;-5.0200
1226.6810;-54.3200;-49.4000;-4.9200
1226.8810;-54.1900;-49.3500;-4.8400
1227.0800;-54.0600;-49.2800;-4.7800
1227.2790;-53.9400;-49.2400;-4.7000
1227.4780;-53.8300;-49.1700;-4.6600
1227.6770;-53.7600;-49.1100;-4.6500
1227.8760;-53.7000;-49.0500;-4.6500
1228.0750;-53.6400;-48.9800;-4.6600
1228.2740;-53.5900;-48.9200;-4.6700
1228.4740;-53.5600;-48.8400;-4.7200
1228.6730;-53.5700;-48.7700;-4.8000
1228.8720;-53.5500;-48.7000;-4.8500
1229.0710;-53.5500;-48.6200;-4.9300
1229.2700;-53.5700;-48.5500;-5.0200
1229.4690;-53.5800;-48.4500;-5.1300
1229.6680;-53.6100;-48.3800;-5.2300
1229.8670;-53.6300;-48.3000;-5.3300
1230.0660;-53.6700;-48.2100;-5.4600
1230.2660;-53.7000;-48.1300;-5.5700
1230.4650;-53.7300;-48.0400;-5.6900
1230.6640;-53.7800;-47.9600;-5.8200
1230.8630;-53.8300;-47.8900;-5.9400
1231.0620;-53.8800;-47.8100;-6.0700
1231.2610;-53.9100;-47.7600;-6.1500
1231.4600;-53.9400;-47.6800;-6.2600
1231.6590;-53.9700;-47.6200;-6.3500
1231.8580;-53.9600;-47.5500;-6.4100
1232.0580;-53.9600;-47.5000;-6.4600
1232.2570;-53.9200;-47.4400;-6.4800
1232.4560;-53.8800;-47.3700;-6.5100
1232.6550;-53.8100;-47.3200;-6.4900
1232.8540;-53.7100;-47.2500;-6.4600
1233.0530;-53.6200;-47.2000;-6.4200
1233.2520;-53.4800;-47.1500;-6.3300
1233.4510;-53.3300;-47.0700;-6.2600
1233.6500;-53.1800;-47.0300;-6.1500
1233.8500;-53.0100;-46.9500;-6.0600
1234.0490;-52.8600;-46.8900;-5.9700
1234.2480;-52.6700;-46.8300;-5.8400
1234.4470;-52.4900;-46.7500;-5.7400
1234.6460;-52.3500;-46.6900;-5.6600
1234.8450;-52.1800;-46.6100;-5.5700
1235.0440;-52.0300;-46.5300;-5.5000
1235.2430;-51.8800;-46.4600;-5.4200
1235.4430;-51.7500;-46.3600;-5.3900
1235.6420;-51.6300;-46.2900;-5.3400
1235.8410;-51.5000;-46.1900;-5.3100
1236.0400;-51.4200;-46.1100;-5.3100
1236.2390;-51.3100;-46.0200;-5.2900
1236.4380;-51.2200;-45.9100;-5.3100
1236.6370;-51.1600;-45.8300;-5.3300
1236.8360;-51.0900;-45.7400;-5.3500
1237.0350;-51.0500;-45.6700;-5.3800
1237.2350;-50.9800;-45.5700;-5.4100
1237.4340;-50.9400;-45.4700;-5.4700
1237.6330;-50.9100;-45.3900;-5.5200
1237.8320;-50.8800;-45.3100;-5.5700
1238.0310;-50.8700;-45.2400;-5.6300
1238.2300;-50.8400;-45.1500;-5.6900
1238.4290;-50.8200;-45.0700;-5.7500
1238.6280;-50.8100;-45.0000;-5.8100
1238.8270;-50.7800;-44.9100;-5.8700
1239.0270;-50.7700;-44.8500;-5.9200
1239.2260;-50.7200;-44.7500;-5.9700
1239.4250;-50.6700;-44.6700;-6.0000
1239.6240;-50.6200;-44.6000;-6.0200
1239.8230;-50.5400;-44.5100;-6.0300
1240.0220;-50.4800;-44.4400;-6.0400
1240.2210;-50.3500;-44.3400;-6.0100
1240.4200;-50.2400;-44.2500;-5.9900
1240.6200;-50.1000;-44.1600;-5.9400
1240.8190;-49.9500;-44.0600;-5.8900
1241.0180;-49.8000;-43.9600;-5.8400
1241.2170;-49.6200;-43.8500;-5.7700
1241.4160;-49.4600;-43.7400;-5.7200
1241.6150;-49.2800;-43.6200;-5.6600
1241.8140;-49.1100;-43.5000;-5.6100
1242.0130;-48.9700;-43.4000;-5.5700
1242.2120;-48.8200;-43.2700;-5.5500
1242.4120;-48.6900;-43.1500;-5.5400
1242.6110;-48.5700;-43.0300;-5.5400
1242.8100;-48.4700;-42.9000;-5.5700
1243.0090;-48.4000;-42.7800;-5.6200
1243.2080;-48.3300;-42.6500;-5.6800
1243.4070;-48.3000;-42.5300;-5.7700
1243.6060;-48.2700;-42.4000;-5.8700
1243.8050;-48.2600;-42.2800;-5.9800
1244.0040;-48.2800;-42.1600;-6.1200
1244.2040;-48.3100;-42.0300;-6.2800
1244.4030;-48.3600;-41.9100;-6.4500
1244.6020;-48.4000;-41.7900;-6.6100
1244.8010;-48.4700;-41.6700;-6.8000
1245.0000;-48.5500;-41.5700;-6.9800
1245.1990;-48.6000;-41.4400;-7.1600
1245.3980;-48.6600;-41.3300;-7.3300
1245.5970;-48.6800;-41.2000;-7.4800
1245.7970;-48.6900;-41.0800;-7.6100
1245.9960;-48.6700;-40.9700;-7.7000
1246.1950;-48.5900;-40.8400;-7.7500
1246.3940;-48.4900;-40.7200;-7.7700
1246.5930;-48.3100;-40.5800;-7.7300
1246.7920;-48.0800;-40.4600;-7.6200
1246.9910;-47.8000;-40.3300;-7.4700
1247.1900;-47.4700;-40.1900;-7.2800
1247.3890;-47.1000;-40.0500;-7.0500
1247.5890;-46.6700;-39.9100;-6.7600
1247.7880;-46.2400;-39.7700;-6.4700
1247.9870;-45.7200;-39.6400;-6.0800
1248.1860;-45.3400;-39.4900;-5.8500
1248.3850;-44.9000;-39.3500;-5.5500
1248.5840;-44.4400;-39.2000;-5.2400
1248.7830;-44.0300;-39.0500;-4.9800
1248.9820;-43.6000;-38.9300;-4.6700
1249.1810;-43.2200;-38.7700;-4.4500
1249.3810;-42.8700;-38.6400;-4.2300
1249.5800;-42.5200;-38.5000;-4.0200
1249.7790;-42.2300;-38.3600;-3.8700
1249.9780;-41.9400;-38.2200;-3.7200
1250.1770;-41.6900;-38.0800;-3.6100
1250.3760;-41.4900;-37.9500;-3.5400
1250.5750;-41.2900;-37.8100;-3.4800
1250.7740;-41.1500;-37.6800;-3.4700
1250.9740;-41.0300;-37.5700;-3.4600
1251.1730;-40.9400;-37.4300;-3.5100
1251.3720;-40.9000;-37.3000;-3.6000
1251.5710;-40.8800;-37.1800;-3.7000
1251.7700;-40.9100;-37.0400;-3.8700
1251.9690;-40.9400;-36.9200;-4.0200
1252.1680;-41.0300;-36.7700;-4.2600
1252.3670;-41.1500;-36.6500;-4.5000
1252.5660;-41.3100;-36.5200;-4.7900
1252.7660;-41.5200;-36.3800;-5.1400
1252.9650;-41.7400;-36.2600;-5.4800
1253.1640;-42.0100;-36.1100;-5.9000
1253.3630;-42.3100;-35.9700;-6.3400
1253.5620;-42.6500;-35.8000;-6.8500
1253.7610;-43.0000;-35.6900;-7.3100
1253.9600;-43.3500;-35.5400;-7.8100
1254.1590;-43.7000;-35.4000;-8.3000
1254.3580;-43.9900;-35.2500;-8.7400
1254.5580;-44.2000;-35.1100;-9.0900
1254.7570;-44.3100;-34.9700;-9.3400
1254.9560;-44.2400;-34.8100;-9.4300
1255.1550;-44.0300;-34.6700;-9.3600
1255.3540;-43.6300;-34.5400;-9.0900
1255.5530;-43.1200;-34.4000;-8.7200
1255.7520;-42.5200;-34.2700;-8.2500
1255.9510;-41.8400;-34.1200;-7.7200
1256.1500;-41.1600;-34.0000;-7.1600
1256.3500;-40.4500;-33.8600;-6.5900
1256.5490;-39.7700;-33.7300;-6.0400
1256.7480;-39.1300;-33.6200;-5.5100
1256.9470;-38.4900;-33.4700;-5.0200
1257.1460;-37.9100;-33.3500;-4.5600
1257.3450;-37.3500;-33.2300;-4.1200
1257.5440;-36.8500;-33.1000;-3.7500
1257.7430;-36.3900;-32.9900;-3.4000
1257.9430;-35.8600;-32.8400;-3.0200
1258.1420;-35.5600;-32.7300;-2.8300
1258.3410;-35.1800;-32.5900;-2.5900
1258.5400;-34.8600;-32.4700;-2.3900
1258.7390;-34.5700;-32.3500;-2.2200
1258.9380;-34.3100;-32.2000;-2.1100
1259.1370;-34.1100;-32.0800;-2.0300
1259.3360;-33.9000;-31.9300;-1.9700
1259.5350;-33.7600;-31.8000;-1.9600
1259.7350;-33.6400;-31.6700;-1.9700
1259.9340;-33.5500;-31.5200;-2.0300
1260.1330;-33.5300;-31.4000;-2.1300
1260.3320;-33.5000;-31.2600;-2.2400
1260.5310;-33.5400;-31.1300;-2.4100
1260.7300;-33.6200;-31.0000;-2.6200
1260.9290;-33.7200;-30.8600;-2.8600
1261.1280;-33.8800;-30.7300;-3.1500
1261.3270;-34.0600;-30.5900;-3.4700
1261.5270;-34.3100;-30.4700;-3.8400
1261.7260;-34.5900;-30.3500;-4.2400
1261.9250;-34.9000;-30.2100;-4.6900
1262.1240;-35.2600;-30.0900;-5.1700
1262.3230;-35.6200;-29.9600;-5.6600
1262.5220;-36.0300;-29.8500;-6.1800
1262.7210;-36.4100;-29.7300;-6.6800
1262.9200;-36.7800;-29.6000;-7.1800
1263.1200;-37.1100;-29.4800;-7.6300
1263.3190;-37.3200;-29.3500;-7.9700
1263.5180;-37.4400;-29.2300;-8.2100
1263.7170;-37.3800;-29.1200;-8.2600
1263.9160;-37.1600;-28.9900;-8.1700
1264.1150;-36.7900;-28.8700;-7.9200
1264.3140;-36.2700;-28.7400;-7.5300
1264.5130;-35.6900;-28.6200;-7.0700
1264.7120;-35.0300;-28.5000;-6.5300
1264.9120;-34.3400;-28.3600;-5.9800
1265.1110;-33.6700;-28.2400;-5.4300
1265.3100;-33.0000;-28.1000;-4.9000
1265.5090;-32.3700;-27.9900;-4.3800
1265.7080;-31.7700;-27.8600;-3.9100
1265.9070;-31.2000;-27.7300;-3.4700
1266.1060;-30.6900;-27.6100;-3.0800
1266.3050;-30.2000;-27.4800;-2.7200
1266.5040;-29.7800;-27.3700;-2.4100
1266.7040;-29.3800;-27.2500;-2.1300
1266.9030;-29.0300;-27.1200;-1.9100
1267.1020;-28.7200;-27.0200;-1.7000
1267.3010;-28.4400;-26.8900;-1.5500
1267.5000;-28.2300;-26.7900;-1.4400
1267.6990;-28.0300;-26.6800;-1.3500
1267.8980;-27.8700;-26.5600;-1.3100
1268.0970;-27.7700;-26.4700;-1.3000
1268.2970;-27.6800;-26.3400;-1.3400
1268.4960;-27.6500;-26.2500;-1.4000
1268.6950;-27.6300;-26.1300;-1.5000
1268.8940;-27.6600;-26.0100;-1.6500
1269.0930;-27.7300;-25.9100;-1.8200
1269.2920;-27.8300;-25.8000;-2.0300
1269.4910;-27.9900;-25.7100;-2.2800
1269.6900;-28.1600;-25.5900;-2.5700
1269.8890;-28.3800;-25.4900;-2.8900
1270.0890;-28.6500;-25.3700;-3.2800
1270.2880;-28.9400;-25.2600;-3.6800
1270.4870;-29.3100;-25.1700;-4.1400
1270.6860;-29.6900;-25.0500;-4.6400
1270.8850;-30.1200;-24.9400;-5.1800
1271.0840;-30.5900;-24.8200;-5.7700
1271.2830;-31.0600;-24.7200;-6.3400
1271.4820;-31.5600;-24.6200;-6.9400
1271.6810;-32.0100;-24.5000;-7.5100
1271.8810;-32.4100;-24.4100;-8.0000
1272.0800;-32.7000;-24.2900;-8.4100
1272.2790;-32.8300;-24.1900;-8.6400
1272.4780;-32.7900;-24.0900;-8.7000
1272.6770;-32.5400;-23.9900;-8.5500
1272.8760;-32.1300;-23.9000;-8.2300
1273.0750;-31.5800;-23.7900;-7.7900
1273.2740;-30.9500;-23.7000;-7.2500
1273.4740;-30.3000;-23.6100;-6.6900
1273.6730;-29.6100;-23.5100;-6.1000
1273.8720;-28.9600;-23.4200;-5.5400
1274.0710;-28.3100;-23.3200;-4.9900
1274.2700;-27.7100;-23.2300;-4.4800
1274.4690;-27.1600;-23.1500;-4.0100
1274.6680;-26.6200;-23.0500;-3.5700
1274.8670;-26.1500;-22.9700;-3.1800
1275.0660;-25.6300;-22.8700;-2.7600
1275.2660;-25.3200;-22.7700;-2.5500
1275.4650;-24.9500;-22.6800;-2.2700
1275.6640;-24.6200;-22.5800;-2.0400
1275.8630;-24.3500;-22.5000;-1.8500
1276.0620;-24.1000;-22.3900;-1.7100
1276.2610;-23.9000;-22.3000;-1.6000
1276.4600;-23.7100;-22.2100;-1.5000
1276.6590;-23.5700;-22.1000;-1.4700
1276.8580;-23.4700;-22.0200;-1.4500
1277.0580;-23.4000;-21.9200;-1.4800
1277.2570;-23.3900;-21.8300;-1.5600
1277.4560;-23.3800;-21.7400;-1.6400
1277.6550;-23.4200;-21.6500;-1.7700
1277.8540;-23.4900;-21.5700;-1.9200
1278.0530;-23.5900;-21.4700;-2.1200
1278.2520;-23.7500;-21.3900;-2.3600
1278.4510;-23.9100;-21.3000;-2.6100
1278.6500;-24.1100;-21.2200;-2.8900
1278.8500;-24.3300;-21.1400;-3.1900
1279.0490;-24.5800;-21.0500;-3.5300
1279.2480;-24.8600;-20.9800;-3.8800
1279.4470;-25.1300;-20.8900;-4.2400
1279.6460;-25.4100;-20.8100;-4.6000
1279.8450;-25.6800;-20.7400;-4.9400
1280.0440;-25.9200;-20.6500;-5.2700
1280.2430;-26.1200;-20.5900;-5.5300
1280.4430;-26.2400;-20.5000;-5.7400
1280.6420;-26.2900;-20.4300;-5.8600
1280.8410;-26.2400;-20.3500;-5.8900
1281.0400;-26.0900;-20.2700;-5.8200
1281.2390;-25.8500;-20.2000;-5.6500
1281.4380;-25.5100;-20.1200;-5.3900
1281.6370;-25.1300;-20.0500;-5.0800
1281.8360;-24.6700;-19.9700;-4.7000
1282.0350;-24.1900;-19.8900;-4.3000
1282.2350;-23.7100;-19.8300;-3.8800
1282.4340;-23.2200;-19.7400;-3.4800
1282.6330;-22.7600;-19.6800;-3.0800
1282.8320;-22.2800;-19.6100;-2.6700
1283.0310;-21.8500;-19.5300;-2.3200
1283.2300;-21.4500;-19.4700;-1.9800
1283.4290;-21.0600;-19.4000;-1.6600
1283.6280;-20.7300;-19.3300;-1.4000
1283.8270;-20.4100;-19.2600;-1.1500
1284.0270;-20.1300;-19.1900;-0.9400
1284.2260;-19.8900;-19.1300;-0.7600
1284.4250;-19.6700;-19.0600;-0.6100
1284.6240;-19.5100;-19.0000;-0.5100
1284.8230;-19.3600;-18.9300;-0.4300
1285.0220;-19.2600;-18.8600;-0.4000
1285.2210;-19.1800;-18.8000;-0.3800
1285.4200;-19.1500;-18.7300;-0.4200
1285.6200;-19.1700;-18.6700;-0.5000
1285.8190;-19.2000;-18.5900;-0.6100
1286.0180;-19.3000;-18.5300;-0.7700
1286.2170;-19.4200;-18.4700;-0.9500
1286.4160;-19.5900;-18.3900;-1.2000
1286.6150;-19.8300;-18.3400;-1.4900
1286.8140;-20.1000;-18.2700;-1.8300
1287.0130;-20.4500;-18.2000;-2.2500
1287.2120;-20.8300;-18.1400;-2.6900
1287.4120;-21.2900;-18.0700;-3.2200
1287.6110;-21.8400;-18.0200;-3.8200
1287.8100;-22.4500;-17.9400;-4.5100
1288.0090;-23.1800;-17.8900;-5.2900
1288.2080;-23.9800;-17.8200;-6.1600
1288.4070;-24.9300;-17.7600;-7.1700
1288.6060;-26.0300;-17.7100;-8.3200
1288.8050;-27.2700;-17.6500;-9.6200
1289.0040;-29.0000;-17.6000;-11.4000
1289.2040;-30.2000;-17.5300;-12.6700
1289.4030;-31.5200;-17.4800;-14.0400
1289.6020;-32.2000;-17.4400;-14.7600
1289.8010;-31.8300;-17.3800;-14.4500
1290.0000;-30.5800;-17.3400;-13.2400
1290.1990;-29.0000;-17.2800;-11.7200
1290.3980;-27.4500;-17.2300;-10.2200
1290.5970;-25.7900;-17.2000;-8.5900
1290.7970;-24.7300;-17.1400;-7.5900
1290.9960;-23.5900;-17.1000;-6.4900
1291.1950;-22.6100;-17.0400;-5.5700
1291.3940;-21.7200;-17.0000;-4.7200
1291.5930;-20.9300;-16.9400;-3.9900
1291.7920;-20.2600;-16.9000;-3.3600
1291.9910;-19.6500;-16.8600;-2.7900
1292.1900;-19.1300;-16.8000;-2.3300
1292.3890;-18.6500;-16.7600;-1.8900
1292.5890;-18.2300;-16.7100;-1.5200
1292.7880;-17.8800;-16.6600;-1.2200
1292.9870;-17.5700;-16.6300;-0.9400
1293.1860;-17.3300;-16.5700;-0.7600
1293.3850;-17.1100;-16.5400;-0.5700
1293.5840;-16.9400;-16.4800;-0.4600
1293.7830;-16.8200;-16.4400;-0.3800
1293.9820;-16.7400;-16.4100;-0.3300
1294.1810;-16.7300;-16.3600;-0.3700
1294.3810;-16.7300;-16.3400;-0.3900
1294.5800;-16.7800;-16.2700;-0.5100
1294.7790;-16.8700;-16.2400;-0.6300
1294.9780;-17.0100;-16.2000;-0.8100
1295.1770;-17.2100;-16.1600;-1.0500
1295.3760;-17.4400;-16.1300;-1.3100
1295.5750;-17.7200;-16.0800;-1.6400
1295.7740;-18.0500;-16.0600;-1.9900
1295.9740;-18.4300;-16.0000;-2.4300
1296.1730;-18.9100;-15.9700;-2.9400
1296.3720;-19.4300;-15.9300;-3.5000
1296.5710;-20.0400;-15.8900;-4.1500
1296.7700;-20.7200;-15.8700;-4.8500
1296.9690;-21.5100;-15.8200;-5.6900
1297.1680;-22.4200;-15.8000;-6.6200
1297.3670;-23.4400;-15.7500;-7.6900
1297.5660;-24.6300;-15.7200;-8.9100
1297.7660;-25.9800;-15.6900;-10.2900
1297.9650;-27.5100;-15.6600;-11.8500
1298.1640;-29.5300;-15.6400;-13.8900
1298.3630;-30.6800;-15.6000;-15.0800
1298.5620;-31.3800;-15.5600;-15.8200
1298.7610;-30.8800;-15.5400;-15.3400
1298.9600;-29.5000;-15.5100;-13.9900
1299.1590;-27.8400;-15.5000;-12.3400
1299.3580;-26.2500;-15.4600;-10.7900
1299.5580;-24.5900;-15.4300;-9.1600
1299.7570;-23.5900;-15.4000;-8.1900
1299.9560;-22.5000;-15.3800;-7.1200
1300.1550;-21.5500;-15.3700;-6.1800
1300.3540;-20.7300;-15.3300;-5.4000
1300.5530;-19.9800;-15.3100;-4.6700
1300.7520;-19.3600;-15.2800;-4.0800
1300.9510;-18.7900;-15.2600;-3.5300
1301.1500;-18.3100;-15.2500;-3.0600
1301.3500;-17.8900;-15.2200;-2.6700
1301.5490;-17.5200;-15.2200;-2.3000
1301.7480;-17.2300;-15.1900;-2.0400
1301.9470;-16.9500;-15.1700;-1.7800
1302.1460;-16.7500;-15.1700;-1.5800
1302.3450;-16.5900;-15.1500;-1.4400
1302.5440;-16.4700;-15.1500;-1.3200
1302.7430;-16.4100;-15.1200;-1.2900
1302.9430;-16.3600;-15.1000;-1.2600
1303.1420;-16.3800;-15.1000;-1.2800
1303.3410;-16.4300;-15.0800;-1.3500
1303.5400;-16.5300;-15.0900;-1.4400
1303.7390;-16.6800;-15.0700;-1.6100
1303.9380;-16.8600;-15.0600;-1.8000
1304.1370;-17.1100;-15.0600;-2.0500
1304.3360;-17.3800;-15.0500;-2.3300
1304.5350;-17.7200;-15.0600;-2.6600
1304.7350;-18.1100;-15.0600;-3.0500
1304.9340;-18.5400;-15.0600;-3.4800
1305.1330;-19.0600;-15.0600;-4.0000
1305.3320;-19.6200;-15.0600;-4.5600
1305.5310;-20.2600;-15.0800;-5.1800
1305.7300;-20.9800;-15.0800;-5.9000
1305.9290;-21.7600;-15.0900;-6.6700
1306.1280;-22.6500;-15.1000;-7.5500
1306.3270;-23.5700;-15.1100;-8.4600
1306.5270;-24.5600;-15.1400;-9.4200
1306.7260;-25.5400;-15.1400;-10.4000
1306.9250;-26.3900;-15.1700;-11.2200
1307.1240;-27.0100;-15.1700;-11.8400
1307.3230;-27.1900;-15.1900;-12.0000
1307.5220;-26.9100;-15.2100;-11.7000
1307.7210;-26.2400;-15.2300;-11.0100
1307.9200;-25.3600;-15.2600;-10.1000
1308.1200;-24.4200;-15.2700;-9.1500
1308.3190;-23.4600;-15.2900;-8.1700
1308.5180;-22.6000;-15.3200;-7.2800
1308.7170;-21.7700;-15.3400;-6.4300
1308.9160;-21.0400;-15.3700;-5.6700
1309.1150;-20.4000;-15.3800;-5.0200
1309.3140;-19.8100;-15.4100;-4.4000
1309.5130;-19.3200;-15.4300;-3.8900
1309.7120;-18.8600;-15.4500;-3.4100
1309.9120;-18.4800;-15.4800;-3.0000
1310.1110;-18.1600;-15.5000;-2.6600
1310.3100;-17.8800;-15.5300;-2.3500
1310.5090;-17.6700;-15.5500;-2.1200
1310.7080;-17.4800;-15.5700;-1.9100
1310.9070;-17.3500;-15.5800;-1.7700
1311.1060;-17.2800;-15.6000;-1.6800
1311.3050;-17.2400;-15.6400;-1.6000
1311.5040;-17.2700;-15.6500;-1.6200
1311.7040;-17.3200;-15.6800;-1.6400
1311.9030;-17.4300;-15.6900;-1.7400
1312.1020;-17.5800;-15.7200;-1.8600
1312.3010;-17.7800;-15.7500;-2.0300
1312.5000;-18.0500;-15.7800;-2.2700
1312.6990;-18.3500;-15.8200;-2.5300
1312.8980;-18.7200;-15.8400;-2.8800
1313.0970;-19.1300;-15.8700;-3.2600
1313.2970;-19.6200;-15.9000;-3.7200
1313.4960;-20.2000;-15.9400;-4.2600
1313.6950;-20.8300;-15.9900;-4.8400
1313.8940;-21.5800;-16.0100;-5.5700
1314.0930;-22.4100;-16.0600;-6.3500
1314.2920;-23.3700;-16.1000;-7.2700
1314.4910;-24.4700;-16.1500;-8.3200
1314.6900;-25.7300;-16.2000;-9.5300
1314.8890;-27.2000;-16.2400;-10.9600
1315.0890;-29.2300;-16.3000;-12.9300
1315.2880;-30.6700;-16.3300;-14.3400
1315.4870;-32.2800;-16.3900;-15.8900
1315.6860;-33.0700;-16.4500;-16.6200
1315.8850;-32.4600;-16.5000;-15.9600
1316.0840;-30.9500;-16.5700;-14.3800
1316.2830;-29.2400;-16.6100;-12.6300
1316.4820;-27.6500;-16.6900;-10.9600
1316.6810;-26.0500;-16.7500;-9.3000
1316.8810;-25.0600;-16.8200;-8.2400
1317.0800;-24.0500;-16.9000;-7.1500
1317.2790;-23.1500;-16.9600;-6.1900
1317.4780;-22.3900;-17.0400;-5.3500
1317.6770;-21.7200;-17.1000;-4.6200
1317.8760;-21.1400;-17.1700;-3.9700
1318.0750;-20.6500;-17.2500;-3.4000
1318.2740;-20.2100;-17.3200;-2.8900
1318.4740;-19.8700;-17.4000;-2.4700
1318.6730;-19.5600;-17.4600;-2.1000
1318.8720;-19.3200;-17.5500;-1.7700
1319.0710;-19.1300;-17.6300;-1.5000
1319.2700;-18.9900;-17.7000;-1.2900
1319.4690;-18.9000;-17.7800;-1.1200
1319.6680;-18.8500;-17.8600;-0.9900
1319.8670;-18.8400;-17.9500;-0.8900
1320.0660;-18.8700;-18.0100;-0.8600
1320.2660;-18.9500;-18.0900;-0.8600
1320.4650;-19.0800;-18.1700;-0.9100
1320.6640;-19.2400;-18.2500;-0.9900
1320.8630;-19.4500;-18.3400;-1.1100
1321.0620;-19.6900;-18.4100;-1.2800
1321.2610;-19.9900;-18.5300;-1.4600
1321.4600;-20.3400;-18.5900;-1.7500
1321.6590;-20.7300;-18.6900;-2.0400
1321.8580;-21.1800;-18.7700;-2.4100
1322.0580;-21.6800;-18.8600;-2.8200
1322.2570;-22.2500;-18.9600;-3.2900
1322.4560;-22.8800;-19.0400;-3.8400
1322.6550;-23.5800;-19.1400;-4.4400
1322.8540;-24.3800;-19.2200;-5.1600
1323.0530;-25.2500;-19.3200;-5.9300
1323.2520;-26.2600;-19.4200;-6.8400
1323.4510;-27.3600;-19.5100;-7.8500
1323.6500;-28.8700;-19.6200;-9.2500
1323.8500;-29.9900;-19.7100;-10.2800
1324.0490;-31.4700;-19.8200;-11.6500
1324.2480;-33.0000;-19.9200;-13.0800
1324.4470;-34.3000;-20.0200;-14.2800
1324.6460;-35.0000;-20.1400;-14.8600
1324.8450;-34.7600;-20.2400;-14.5200
1325.0440;-33.8200;-20.3600;-13.4600
1325.2430;-32.5700;-20.4600;-12.1100
1325.4430;-31.3000;-20.5800;-10.7200
1325.6420;-30.1600;-20.7200;-9.4400
1325.8410;-29.1300;-20.8400;-8.2900
1326.0400;-28.2500;-20.9700;-7.2800
1326.2390;-27.4700;-21.0800;-6.3900
1326.4380;-26.8200;-21.2100;-5.6100
1326.6370;-26.1600;-21.3300;-4.8300
1326.8360;-25.7900;-21.4500;-4.3400
1327.0350;-25.4000;-21.5900;-3.8100
1327.2350;-25.0600;-21.7100;-3.3500
1327.4340;-24.8100;-21.8500;-2.9600
1327.6330;-24.5900;-21.9700;-2.6200
1327.8320;-24.4400;-22.1000;-2.3400
1328.0310;-24.3300;-22.2400;-2.0900
1328.2300;-24.2800;-22.3700;-1.9100
1328.4290;-24.2800;-22.5100;-1.7700
1328.6280;-24.3000;-22.6400;-1.6600
1328.8270;-24.3800;-22.7700;-1.6100
1329.0270;-24.5000;-22.9200;-1.5800
1329.2260;-24.6500;-23.0500;-1.6000
1329.4250;-24.8600;-23.1900;-1.6700
1329.6240;-25.0800;-23.3100;-1.7700
1329.8230;-25.3600;-23.4600;-1.9000
1330.0220;-25.6700;-23.6000;-2.0700
1330.2210;-26.0200;-23.7300;-2.2900
1330.4200;-26.4200;-23.8800;-2.5400
1330.6200;-26.8600;-24.0100;-2.8500
1330.8190;-27.3500;-24.1600;-3.1900
1331.0180;-27.8600;-24.3000;-3.5600
1331.2170;-28.5700;-24.4500;-4.1200
1331.4160;-29.0500;-24.6100;-4.4400
1331.6150;-29.6900;-24.7400;-4.9500
1331.8140;-30.3600;-24.9100;-5.4500
1332.0130;-31.0400;-25.0400;-6.0000
1332.2120;-31.7400;-25.2000;-6.5400
1332.4120;-32.4100;-25.3600;-7.0500
1332.6110;-33.0400;-25.5100;-7.5300
1332.8100;-33.5400;-25.6700;-7.8700
1333.0090;-33.9400;-25.8200;-8.1200
1333.2080;-34.1700;-25.9700;-8.2000
1333.4070;-34.2300;-26.1300;-8.1000
1333.6060;-34.1600;-26.2800;-7.8800
1333.8050;-33.9400;-26.4500;-7.4900
1334.0040;-33.6500;-26.6000;-7.0500
1334.2040;-33.3000;-26.7700;-6.5300
1334.4030;-32.9200;-26.9200;-6.0000
1334.6020;-32.5700;-27.0900;-5.4800
1334.8010;-32.2200;-27.2400;-4.9800
1335.0000;-31.9200;-27.4000;-4.5200
1335.1990;-31.6300;-27.5800;-4.0500
1335.3980;-31.3900;-27.7300;-3.6600
1335.5970;-31.2000;-27.9000;-3.3000
1335.7970;-31.0500;-28.0600;-2.9900
1335.9960;-30.9600;-28.2300;-2.7300
1336.1950;-30.8800;-28.4000;-2.4800
1336.3940;-30.8500;-28.5900;-2.2600
1336.5930;-30.8600;-28.7300;-2.1300
1336.7920;-30.9000;-28.8800;-2.0200
1336.9910;-31.0100;-29.0600;-1.9500
1337.1900;-31.1500;-29.2200;-1.9300
1337.3890;-31.3400;-29.3900;-1.9500
1337.5890;-31.5500;-29.5600;-1.9900
1337.7880;-31.8200;-29.7200;-2.1000
1337.9870;-32.1300;-29.9000;-2.2300
1338.1860;-32.4800;-30.0600;-2.4200
1338.3850;-32.9000;-30.2400;-2.6600
1338.5840;-33.3400;-30.4000;-2.9400
1338.7830;-33.8600;-30.5700;-3.2900
1338.9820;-34.4200;-30.7400;-3.6800
1339.1810;-35.0500;-30.9100;-4.1400
1339.3810;-35.7700;-31.1000;-4.6700
1339.5800;-36.5500;-31.2600;-5.2900
1339.7790;-37.4300;-31.4400;-5.9900
1339.9780;-38.6200;-31.6100;-7.0100
1340.1770;-39.5300;-31.7900;-7.7400
1340.3760;-40.7600;-31.9800;-8.7800
1340.5750;-42.1700;-32.1600;-10.0100
1340.7740;-43.7600;-32.3400;-11.4200
1340.9740;-45.5300;-32.5000;-13.0300
1341.1730;-47.4300;-32.6800;-14.7500
1341.3720;-49.4900;-32.8700;-16.6200
1341.5710;-50.0300;-33.0400;-16.9900
1341.7700;-49.5400;-33.2300;-16.3100
1341.9690;-48.2000;-33.4000;-14.8000
1342.1680;-46.6300;-33.5800;-13.0500
1342.3670;-44.9500;-33.7500;-11.2000
1342.5660;-43.9400;-33.9300;-10.0100
1342.7660;-42.8800;-34.1200;-8.7600
1342.9650;-41.9900;-34.2900;-7.7000
1343.1640;-41.2200;-34.4800;-6.7400
1343.3630;-40.6000;-34.6600;-5.9400
1343.5620;-40.0500;-34.8300;-5.2200
1343.7610;-39.6200;-35.0200;-4.6000
1343.9600;-39.2600;-35.1900;-4.0700
1344.1590;-38.9700;-35.3900;-3.5800
1344.3580;-38.7600;-35.5600;-3.2000
1344.5580;-38.5900;-35.7400;-2.8500
1344.7570;-38.4900;-35.9300;-2.5600
1344.9560;-38.4200;-36.0900;-2.3300
1345.1550;-38.4000;-36.2700;-2.1300
1345.3540;-38.4400;-36.4300;-2.0100
1345.5530;-38.5200;-36.6100;-1.9100
1345.7520;-38.6500;-36.7700;-1.8800
1345.9510;-38.8200;-36.9500;-1.8700
1346.1500;-39.0400;-37.1300;-1.9100
1346.3500;-39.3000;-37.3100;-1.9900
1346.5490;-39.6200;-37.5000;-2.1200
1346.7480;-39.9700;-37.6700;-2.3000
1346.9470;-40.3500;-37.8400;-2.5100
1347.1460;-40.7900;-38.0100;-2.7800
1347.3450;-41.2700;-38.1600;-3.1100
1347.5440;-41.8400;-38.3800;-3.4600
1347.7430;-42.5000;-38.6500;-3.8500
1347.9430;-43.1800;-38.8100;-4.3700
1348.1420;-43.9300;-38.9800;-4.9500
1348.3410;-44.7300;-39.1600;-5.5700
1348.5400;-45.5800;-39.3100;-6.2700
1348.7390;-46.5200;-39.4700;-7.0500
1348.9380;-47.5500;-39.6400;-7.9100
1349.1370;-48.9400;-39.7900;-9.1500
1349.3360;-49.9000;-39.9400;-9.9600
1349.5350;-51.1600;-40.1100;-11.0500
1349.7350;-52.3700;-40.2600;-12.1100
1349.9340;-53.4300;-40.4500;-12.9800
1350.1330;-54.1200;-40.6300;-13.4900
1350.3320;-54.3100;-40.8800;-13.4300
1350.5310;-53.9100;-41.0900;-12.8200
1350.7300;-53.0900;-41.2600;-11.8300
1350.9290;-52.1100;-41.4200;-10.6900
1351.1280;-51.1300;-41.5300;-9.6000
1351.3270;-50.2500;-41.6900;-8.5600
1351.5270;-49.5000;-41.8600;-7.6400
1351.7260;-48.8800;-42.0900;-6.7900
1351.9250;-48.3000;-42.2900;-6.0100
1352.1240;-47.7600;-42.4500;-5.3100
1352.3230;-47.3500;-42.6300;-4.7200
1352.5220;-47.0300;-42.8300;-4.2000
1352.7210;-46.7100;-42.9800;-3.7300
1352.9200;-46.4700;-43.1300;-3.3400
1353.1200;-46.3700;-43.3800;-2.9900
1353.3190;-46.2000;-43.4900;-2.7100
1353.5180;-46.1100;-43.6500;-2.4600
1353.7170;-46.1000;-43.8300;-2.2700
1353.9160;-46.0500;-43.9200;-2.1300
1354.1150;-46.0900;-44.0600;-2.0300
1354.3140;-46.2500;-44.2700;-1.9800
1354.5130;-46.4000;-44.4600;-1.9400
1354.7120;-46.7500;-44.7700;-1.9800
1354.9120;-47.0700;-45.0300;-2.0400
1355.1110;-47.3900;-45.2100;-2.1800
1355.3100;-47.6700;-45.3100;-2.3600
1355.5090;-47.8900;-45.3000;-2.5900
1355.7080;-48.3600;-45.5700;-2.7900
1355.9070;-49.0500;-45.8200;-3.2300
1356.1060;-49.4800;-45.9800;-3.5000
1356.3050;-50.0200;-46.0400;-3.9800
1356.5040;-50.6500;-46.1300;-4.5200
1356.7040;-51.0800;-46.0400;-5.0400
1356.9030;-51.8300;-46.1800;-5.6500
1357.1020;-52.8600;-46.5600;-6.3000
1357.3010;-53.9400;-46.7600;-7.1800
1357.5000;-55.1600;-46.9400;-8.2200
1357.6990;-56.4200;-47.0900;-9.3300
1357.8980;-57.7500;-47.1300;-10.6200
1358.0970;-59.4900;-47.1900;-12.3000
1358.2970;-60.7800;-47.3600;-13.4200
1358.4960;-62.3400;-47.5900;-14.7500
1358.6950;-63.2800;-47.7100;-15.5700
1358.8940;-63.2700;-47.8600;-15.4100
1359.0930;-62.3700;-47.9900;-14.3800
1359.2920;-61.0500;-48.0200;-13.0300
1359.4910;-60.0300;-48.4000;-11.6300
1359.6900;-58.9600;-48.7400;-10.2200
1359.8890;-57.7800;-48.8900;-8.8900
1360.0890;-56.6700;-48.9200;-7.7500
1360.2880;-55.5600;-48.9400;-6.6200
1360.4870;-54.9500;-48.9200;-6.0300
1360.6860;-54.3800;-49.0800;-5.3000
1360.8850;-54.0900;-49.4200;-4.6700
1361.0840;-53.8200;-49.7000;-4.1200
1361.2830;-53.4500;-49.8800;-3.5700
1361.4820;-53.1300;-50.0100;-3.1200
1361.6810;-53.0000;-50.2300;-2.7700
1361.8810;-52.8200;-50.3500;-2.4700
1362.0800;-52.7800;-50.5700;-2.2100
1362.2790;-52.9400;-50.9900;-1.9500
1362.4780;-53.0700;-51.2200;-1.8500
1362.6770;-53.0600;-51.3500;-1.7100
1362.8760;-52.8800;-51.2200;-1.6600
1363.0750;-52.7900;-51.1400;-1.6500
1363.2740;-52.5700;-50.9000;-1.6700
1363.4740;-52.7100;-50.9800;-1.7300
1363.6730;-52.9000;-51.0700;-1.8300
1363.8720;-53.2100;-51.2000;-2.0100
1364.0710;-53.5900;-51.4200;-2.1700
1364.2700;-54.0400;-51.6000;-2.4400
1364.4690;-54.6100;-51.9100;-2.7000
1364.6680;-55.4300;-52.4200;-3.0100
1364.8670;-56.1500;-52.6400;-3.5100
1365.0660;-56.6700;-52.6200;-4.0500
1365.2660;-57.3800;-52.7600;-4.6200
1365.4650;-57.8500;-52.7000;-5.1500
1365.6640;-58.8400;-52.7700;-6.0700
1365.8630;-59.5400;-52.8000;-6.7400
1366.0620;-60.4600;-52.8100;-7.6500
1366.2610;-61.4300;-52.8000;-8.6300
1366.4600;-62.5500;-52.8800;-9.6700
1366.6590;-63.9300;-53.0300;-10.9000
1366.8580;-65.4000;-53.2700;-12.1300
1367.0580;-66.6600;-53.4100;-13.2500
1367.2570;-67.6100;-53.5200;-14.0900
1367.4560;-68.0500;-53.7900;-14.2600
1367.6550;-67.8600;-53.9700;-13.8900
1367.8540;-67.0100;-54.2600;-12.7500
1368.0530;-65.8100;-54.3600;-11.4500
1368.2520;-64.5800;-54.3500;-10.2300
1368.4510;-63.8800;-54.6900;-9.1900
1368.6500;-63.0100;-54.7800;-8.2300
1368.8500;-62.1100;-54.9000;-7.2100
1369.0490;-61.2300;-54.8600;-6.3700
1369.2480;-60.5000;-54.8400;-5.6600
1369.4470;-59.8300;-54.7700;-5.0600
1369.6460;-59.3900;-54.8700;-4.5200
1369.8450;-59.2500;-55.2100;-4.0400
1370.0440;-59.0300;-55.4100;-3.6200
1370.2430;-58.7600;-55.5500;-3.2100
1370.4430;-58.4800;-55.5900;-2.8900
1370.6420;-58.2400;-55.6200;-2.6200
1370.8410;-58.3500;-55.9300;-2.4200
1371.0400;-58.4500;-56.2100;-2.2400
1371.2390;-58.4900;-56.4200;-2.0700
1371.4380;-58.3900;-56.4000;-1.9900
1371.6370;-58.3400;-56.4000;-1.9400
1371.8360;-58.3000;-56.3600;-1.9400
1372.0350;-58.5200;-56.5700;-1.9500
1372.2350;-58.7900;-56.7800;-2.0100
1372.4340;-59.0100;-56.8900;-2.1200
1372.6330;-59.2300;-56.9800;-2.2500
1372.8320;-59.4600;-57.0000;-2.4600
1373.0310;-59.7300;-57.0700;-2.6600
1373.2300;-60.1100;-57.1800;-2.9300
1373.4290;-60.5700;-57.3500;-3.2200
1373.6280;-61.0400;-57.4800;-3.5600
1373.8270;-61.5500;-57.5700;-3.9800
1374.0270;-62.1100;-57.7000;-4.4100
1374.2260;-62.7200;-57.8000;-4.9200
1374.4250;-63.3600;-57.9700;-5.3900
1374.6240;-64.1000;-58.0900;-6.0100
1374.8230;-64.9400;-58.3000;-6.6400
1375.0220;-65.8000;-58.5500;-7.2500
1375.2210;-66.6100;-58.5900;-8.0200
1375.4200;-67.3200;-58.6900;-8.6300
1375.6200;-68.1300;-58.7800;-9.3500
1375.8190;-68.7600;-58.9100;-9.8500
1376.0180;-69.3200;-59.0600;-10.2600
1376.2170;-69.7200;-59.2300;-10.4900
1376.4160;-69.6300;-59.3400;-10.2900
1376.6150;-69.5600;-59.4400;-10.1200
1376.8140;-69.4600;-59.6300;-9.8300
1377.0130;-69.0000;-59.8800;-9.1200
1377.2120;-68.7000;-60.0700;-8.6300
1377.4120;-68.1300;-60.1500;-7.9800
1377.6110;-67.5100;-60.2300;-7.2800
1377.8100;-66.8800;-60.2300;-6.6500
1378.0090;-66.4200;-60.3000;-6.1200
1378.2080;-66.0400;-60.4300;-5.6100
1378.4070;-65.7600;-60.6000;-5.1600
1378.6060;-65.6000;-60.8600;-4.7400
1378.8050;-65.5400;-61.1800;-4.3600
1379.0040;-65.4100;-61.3200;-4.0900
1379.2040;-65.1900;-61.3700;-3.8200
1379.4030;-64.9900;-61.3500;-3.6400
1379.6020;-64.8300;-61.3700;-3.4600
1379.8010;-64.7100;-61.4100;-3.3000
1380.0000;-64.7900;-61.5700;-3.2200
1380.1990;-64.8900;-61.7500;-3.1400
1380.3980;-65.0900;-61.9400;-3.1500
1380.5970;-65.6500;-62.5300;-3.1200
1380.7970;-66.1700;-62.9800;-3.1900
1380.9960;-66.5100;-63.1600;-3.3500
1381.1950;-66.6800;-63.2000;-3.4800
1381.3940;-66.7100;-62.9600;-3.7500
1381.5930;-66.6900;-62.6800;-4.0100
1381.7920;-67.0700;-62.7200;-4.3500
1381.9910;-67.3000;-62.7800;-4.5200
1382.1900;-67.8700;-62.9000;-4.9700
1382.3890;-68.6300;-63.2200;-5.4100
1382.5890;-69.6400;-63.7800;-5.8600
1382.7880;-70.7800;-64.2900;-6.4900
1382.9870;-71.5600;-64.5200;-7.0400
1383.1860;-72.3000;-64.3000;-8.0000
1383.3850;-72.7700;-64.0900;-8.6800
1383.5840;-73.3700;-63.8900;-9.4800
1383.7830;-74.1300;-64.0000;-10.1300
1383.9820;-74.8100;-64.1200;-10.6900
1384.1810;-75.4200;-64.2000;-11.2200
1384.3810;-75.3200;-64.2300;-11.0900
1384.5800;-75.9700;-64.2100;-11.7600
1384.7790;-76.2100;-64.3500;-11.8600
1384.9780;-75.5800;-64.6000;-10.9800
1385.1770;-75.0400;-64.8600;-10.1800
1385.3760;-74.2600;-64.9400;-9.3200
1385.5750;-73.7100;-64.9400;-8.7700
1385.7740;-73.0600;-64.9300;-8.1300
1385.9740;-72.7600;-64.9400;-7.8200
1386.1730;-71.9000;-65.0100;-6.8900
1386.3720;-71.3200;-65.1700;-6.1500
1386.5710;-70.9500;-65.1500;-5.8000
1386.7700;-70.5600;-65.1500;-5.4100
1386.9690;-70.1900;-65.2700;-4.9200
1387.1680;-69.9800;-65.2700;-4.7100
1387.3670;-69.6000;-65.3100;-4.2900
1387.5660;-69.3200;-65.4500;-3.8700
1387.7660;-69.3100;-65.6700;-3.6400
1387.9650;-69.4200;-65.9700;-3.4500
1388.1640;-69.7100;-66.2100;-3.5000
1388.3630;-69.6500;-66.3200;-3.3300
1388.5620;-69.6400;-66.2400;-3.4000
1388.7610;-69.4400;-66.1100;-3.3300
1388.9600;-69.3100;-66.1800;-3.1300
1389.1590;-69.0600;-66.0800;-2.9800
1389.3580;-69.3000;-66.0400;-3.2600
1389.5580;-69.3200;-66.1600;-3.1600
1389.7570;-69.7600;-66.3000;-3.4600
1389.9560;-70.1000;-66.4100;-3.6900
1390.1550;-70.2900;-66.4700;-3.8200
1390.3540;-70.6400;-66.4600;-4.1800
1390.5530;-71.1400;-66.6000;-4.5400
1390.7520;-71.4400;-66.5400;-4.9000
1390.9510;-71.6800;-66.7100;-4.9700
1391.1500;-72.3200;-66.7900;-5.5300
1391.3500;-72.7400;-66.8700;-5.8700
1391.5490;-73.2100;-67.0000;-6.2100
1391.7480;-73.8100;-67.0800;-6.7300
1391.9470;-74.1200;-67.1600;-6.9600
1392.1460;-75.3300;-67.3600;-7.9700
1392.3450;-75.6000;-67.5300;-8.0700
1392.5440;-76.8000;-67.9900;-8.8100
1392.7430;-76.6200;-68.2400;-8.3800
1392.9430;-78.3200;-68.1900;-10.1300
1393.1420;-77.6200;-68.0800;-9.5400
1393.3410;-76.7900;-67.8300;-8.9600
1393.5400;-77.7100;-67.8600;-9.8500
1393.7390;-77.6900;-67.8300;-9.8600
1393.9380;-78.4200;-67.9200;-10.5000
1394.1370;-76.7300;-68.1100;-8.6200
1394.3360;-77.0300;-68.1800;-8.8500
1394.5350;-76.4900;-68.2200;-8.2700
1394.7350;-76.0100;-68.3800;-7.6300
1394.9340;-76.0100;-68.6200;-7.3900
1395.1330;-75.8400;-68.9200;-6.9200
1395.3320;-75.6300;-69.0000;-6.6300
1395.5310;-75.0700;-69.2600;-5.8100
1395.7300;-75.3100;-69.2000;-6.1100
1395.9290;-74.4200;-69.1200;-5.3000
1396.1280;-74.2800;-69.2000;-5.0800
1396.3270;-74.5500;-69.3200;-5.2300
1396.5270;-74.1900;-69.6400;-4.5500
1396.7260;-74.8600;-69.8000;-5.0600
1396.9250;-74.3400;-69.8000;-4.5400
1397.1240;-74.3000;-69.5500;-4.7500
1397.3230;-74.0600;-69.5200;-4.5400
1397.5220;-73.7800;-69.5200;-4.2600
1397.7210;-74.1300;-69.4600;-4.6700
1397.9200;-73.9600;-69.5900;-4.3700
1398.1200;-74.2100;-69.8000;-4.4100
1398.3190;-74.0500;-69.7200;-4.3300
1398.5180;-73.7500;-69.6900;-4.0600
1398.7170;-73.8200;-69.8400;-3.9800
1398.9160;-74.2400;-69.8300;-4.4100
1399.1150;-74.5300;-70.0800;-4.4500
1399.3140;-74.6900;-70.1700;-4.5200
1399.5130;-75.2400;-70.4300;-4.8100
1399.7120;-75.1800;-70.6800;-4.5000
1399.9120;-74.9100;-70.7500;-4.1600
1400.1110;-74.9900;-70.9500;-4.0400
1400.3100;-74.9900;-70.7100;-4.2800
1400.5090;-75.3000;-70.7700;-4.5300
1400.7080;-75.3800;-71.2500;-4.1300
1400.9070;-75.6900;-71.3400;-4.3500
1401.1060;-75.9100;-71.5100;-4.4000
1401.3050;-75.9100;-71.5600;-4.3500
1401.5040;-75.3200;-71.4400;-3.8800
1401.7040;-75.1600;-71.3800;-3.7800
1401.9030;-75.1100;-71.6000;-3.5100
1402.1020;-75.4900;-71.3900;-4.1000
1402.3010;-75.2300;-71.3800;-3.8500
1402.5000;-75.1000;-71.5400;-3.5600
1402.6990;-74.8600;-71.5900;-3.2700
1402.8980;-74.4800;-71.7300;-2.7500
1403.0970;-74.3000;-71.8300;-2.4700
1403.2970;-74.7900;-72.0500;-2.7400
1403.4960;-75.0400;-72.1600;-2.8800
1403.6950;-75.0600;-71.8300;-3.2300
1403.8940;-75.1600;-72.1700;-2.9900
1404.0930;-74.5200;-72.3100;-2.2100
1404.2920;-74.8400;-72.4400;-2.4000
1404.4910;-74.9400;-72.7300;-2.2100
1404.6900;-75.3500;-72.8000;-2.5500
1404.8890;-75.9900;-73.0400;-2.9500
1405.0890;-76.3500;-73.2800;-3.0700
1405.2880;-76.3000;-73.5400;-2.7600
1405.4870;-76.1900;-73.3400;-2.8500
1405.6860;-75.8500;-73.0200;-2.8300
1405.8850;-77.0000;-72.9400;-4.0600
1406.0840;-76.7800;-73.1300;-3.6500
1406.2830;-76.9200;-73.4200;-3.5000
1406.4820;-76.9800;-73.2200;-3.7600
1406.6810;-77.5400;-73.2800;-4.2600
1406.8810;-77.4500;-73.3900;-4.0600
1407.0800;-77.2400;-73.5000;-3.7400
1407.2790;-78.0600;-74.4200;-3.6400
1407.4780;-78.2300;-74.1900;-4.0400
1407.6770;-78.9200;-73.8000;-5.1200
1407.8760;-78.0600;-74.1500;-3.9100
1408.0750;-79.7600;-73.8700;-5.8900
1408.2740;-78.9800;-73.8700;-5.1100
1408.4740;-79.5200;-73.5900;-5.9300
1408.6730;-80.6800;-73.7600;-6.9200
1408.8720;-79.5200;-74.0100;-5.5100
1409.0710;-79.2900;-74.0400;-5.2500
1409.2700;-79.9800;-74.3000;-5.6800
1409.4690;-80.4200;-74.6900;-5.7300
1409.6680;-81.9000;-74.3600;-7.5400
1409.8670;-80.1000;-74.7000;-5.4000
1410.0660;-79.9100;-75.2200;-4.6900
1410.2660;-79.4500;-74.3600;-5.0900
1410.4650;-78.8300;-74.3000;-4.5300
1410.6640;-79.2500;-75.0900;-4.1600
1410.8630;-78.3900;-74.9700;-3.4200
1411.0620;-80.3000;-75.3600;-4.9400
1411.2610;-79.2500;-74.8700;-4.3800
1411.4600;-78.7400;-74.9200;-3.8200
1411.6590;-78.5500;-74.7200;-3.8300
1411.8580;-78.0900;-74.5600;-3.5300
1412.0580;-77.7100;-74.8000;-2.9100
1412.2570;-78.7400;-74.8800;-3.8600
1412.4560;-79.0100;-75.2000;-3.8100
1412.6550;-78.9500;-75.2200;-3.7300
1412.8540;-77.2200;-75.4200;-1.8000
1413.0530;-79.1900;-75.0100;-4.1800
1413.2520;-78.8900;-75.2500;-3.6400
1413.4510;-78.9800;-74.8100;-4.1700
1413.6500;-78.4500;-74.6700;-3.7800
1413.8500;-79.0200;-75.3900;-3.6300
1414.0490;-79.0200;-75.7400;-3.2800
1414.2480;-79.2600;-75.8600;-3.4000
1414.4470;-79.5300;-75.4100;-4.1200
1414.6460;-80.1100;-75.5500;-4.5600
1414.8450;-79.7400;-75.7400;-4.0000
1415.0440;-78.5000;-75.0100;-3.4900
1415.2430;-78.8400;-75.4700;-3.3700
1415.4430;-80.6900;-75.1100;-5.5800
1415.6420;-79.3900;-75.3100;-4.0800
1415.8410;-81.2000;-75.9200;-5.2800
1416.0400;-78.0000;-75.7100;-2.2900
1416.2390;-80.1100;-75.2100;-4.9000
1416.4380;-79.0200;-75.0800;-3.9400
1416.6370;-79.6700;-75.6200;-4.0500
1416.8360;-80.3500;-75.4400;-4.9100
1417.0350;-80.4300;-75.3400;-5.0900
1417.2350;-79.3600;-75.2200;-4.1400
1417.4340;-79.8800;-75.5500;-4.3300
1417.6330;-79.2600;-75.8600;-3.4000
1417.8320;-81.6200;-75.6900;-5.9300
1418.0310;-80.0300;-75.8300;-4.2000
1418.2300;-78.9300;-75.3100;-3.6200
1418.4290;-78.7200;-75.3200;-3.4000
1418.6280;-79.2000;-74.9900;-4.2100
1418.8270;-78.6700;-75.8900;-2.7800
1419.0270;-79.1400;-75.9600;-3.1800
1419.2260;-79.5300;-75.7700;-3.7600
1419.4250;-79.5300;-75.9900;-3.5400
1419.6240;-79.4600;-75.6000;-3.8600
1419.8230;-80.3500;-75.8100;-4.5400
1420.0220;-78.5600;-76.3000;-2.2600
1420.2210;-79.9500;-76.2100;-3.7400
1420.4200;-79.1400;-76.4300;-2.7100
1420.6200;-78.9600;-75.8600;-3.1000
1420.8190;-79.5300;-75.0600;-4.4700
1421.0180;-77.7400;-75.2000;-2.5400
1421.2170;-78.2900;-75.3600;-2.9300
1421.4160;-78.6700;-75.7700;-2.9000
1421.6150;-79.0300;-75.5600;-3.4700
1421.8140;-79.2400;-75.6300;-3.6100
1422.0130;-79.1500;-75.9900;-3.1600
1422.2120;-78.5100;-75.6400;-2.8700
1422.4120;-79.4700;-75.2800;-4.1900
1422.6110;-79.2100;-75.6700;-3.5400
1422.8100;-78.5700;-76.0000;-2.5700
1423.0090;-78.0100;-75.8200;-2.1900
1423.2080;-78.6500;-75.3300;-3.3200
1423.4070;-79.3700;-75.3500;-4.0200
1423.6060;-79.7800;-75.2900;-4.4900
1423.8050;-79.1500;-75.9900;-3.1600
1424.0040;-79.4400;-75.4200;-4.0200
1424.2040;-79.4700;-75.3200;-4.1500
1424.4030;-78.5100;-75.6100;-2.9000
1424.6020;-79.3700;-75.4400;-3.9300
1424.8010;-80.2400;-75.1900;-5.0500
1425.0000;-78.7600;-75.3300;-3.4300
