Wavelength;Intensity_Meas;Intensity_Ref;Difference_dB
1200.0000;-60.5800;-55.6000;-4.9800
1200.1990;-60.5300;-55.5600;-4.9700
1200.3980;-60.5000;-55.5400;-4.9600
1200.5970;-60.5100;-55.5000;-5.0100
1200.7970;-60.4800;-55.4800;-5.0000
1200.9960;-60.3800;-55.4400;-4.9400
1201.1950;-60.3400;-55.3900;-4.9500
1201.3940;-60.3600;-55.3500;-5.0100
1201.5930;-60.3800;-55.3200;-5.0600
1201.7920;-60.3300;-55.2800;-5.0500
1201.9910;-60.2300;-55.2100;-5.0200
1202.1900;-60.2700;-55.1600;-5.1100
1202.3890;-60.2700;-55.1100;-5.1600
1202.5890;-60.2300;-55.0800;-5.1500
1202.7880;-60.1400;-55.0100;-5.1300
1202.9870;-60.1300;-54.9400;-5.1900
1203.1860;-60.1400;-54.8900;-5.2500
1203.3850;-60.1000;-54.8700;-5.2300
1203.5840;-60.0500;-54.8100;-5.2400
1203.7830;-60.0000;-54.7500;-5.2500
1203.9820;-60.0300;-54.7200;-5.3100
1204.1810;-60.0400;-54.6800;-5.3600
1204.3810;-59.9700;-54.6400;-5.3300
1204.5800;-59.9500;-54.6000;-5.3500
1204.7790;-59.9900;-54.5800;-5.4100
1204.9780;-60.0400;-54.5500;-5.4900
1205.1770;-60.0200;-54.5100;-5.5100
1205.3760;-59.9900;-54.4800;-5.5100
1205.5750;-60.0300;-54.4600;-5.5700
1205.7740;-60.0800;-54.4400;-5.6400
1205.9740;-60.0600;-54.4400;-5.6200
1206.1730;-60.0600;-54.4100;-5.6500
1206.3720;-60.0500;-54.3800;-5.6700
1206.5710;-60.1100;-54.3500;-5.7600
1206.7700;-60.0700;-54.3400;-5.7300
1206.9690;-59.9800;-54.3100;-5.6700
1207.1680;-59.9400;-54.2700;-5.6700
1207.3670;-59.9400;-54.2400;-5.7000
1207.5660;-59.9200;-54.2200;-5.7000
1207.7660;-59.8100;-54.1900;-5.6200
1207.9650;-59.7400;-54.1500;-5.5900
1208.1640;-59.7600;-54.0900;-5.6700
1208.3630;-59.7000;-54.0700;-5.6300
1208.5620;-59.6200;-54.0300;-5.5900
1208.7610;-59.5100;-53.9700;-5.5400
1208.9600;-59.4700;-53.9200;-5.5500
1209.1590;-59.4600;-53.8600;-5.6000
1209.3580;-59.3600;-53.8200;-5.5400
1209.5580;-59.2700;-53.7600;-5.5100
1209.7570;-59.2200;-53.7100;-5.5100
1209.9560;-59.2200;-53.6500;-5.5700
1210.1550;-59.1600;-53.6100;-5.5500
1210.3540;-59.0200;-53.5700;-5.4500
1210.5530;-58.9700;-53.4900;-5.4800
1210.7520;-58.9900;-53.4400;-5.5500
1210.9510;-58.9300;-53.4100;-5.5200
1211.1500;-58.8300;-53.3500;-5.4800
1211.3500;-58.7400;-53.3100;-5.4300
1211.5490;-58.7600;-53.2600;-5.5000
1211.7480;-58.7700;-53.2300;-5.5400
1211.9470;-58.6700;-53.2100;-5.4600
1212.1460;-58.6400;-53.1600;-5.4800
1212.3450;-58.6700;-53.1200;-5.5500
1212.5440;-58.6800;-53.1000;-5.5800
1212.7430;-58.6400;-53.0700;-5.5700
1212.9430;-58.6100;-53.0300;-5.5800
1213.1420;-58.6800;-52.9900;-5.6900
1213.3410;-58.6900;-52.9800;-5.7100
1213.5400;-58.6700;-52.9500;-5.7200
1213.7390;-58.6300;-52.9000;-5.7300
1213.9380;-58.6500;-52.8700;-5.7800
1214.1370;-58.7100;-52.8300;-5.8800
1214.3360;-58.6600;-52.8000;-5.8600
1214.5350;-58.6100;-52.7600;-5.8500
1214.7350;-58.6000;-52.7100;-5.8900
1214.9340;-58.6200;-52.6600;-5.9600
1215.1330;-58.5800;-52.6200;-5.9600
1215.3320;-58.4600;-52.5800;-5.8800
1215.5310;-58.4100;-52.5100;-5.9000
1215.7300;-58.3900;-52.4500;-5.9400
1215.9290;-58.3100;-52.4200;-5.8900
1216.1280;-58.2000;-52.3500;-5.8500
1216.3270;-58.1100;-52.2900;-5.8200
1216.5270;-58.0800;-52.2300;-5.8500
1216.7260;-58.0000;-52.1700;-5.8300
1216.9250;-57.8500;-52.1200;-5.7300
1217.1240;-57.7500;-52.0500;-5.7000
1217.3230;-57.6700;-52.0000;-5.6700
1217.5220;-57.5800;-51.9400;-5.6400
1217.7210;-57.4400;-51.8900;-5.5500
1217.9200;-57.3000;-51.8400;-5.4600
1218.1200;-57.2300;-51.7700;-5.4600
1218.3190;-57.1300;-51.7400;-5.3900
1218.5180;-56.9900;-51.6900;-5.3000
1218.7170;-56.8400;-51.6500;-5.1900
1218.9160;-56.7700;-51.6100;-5.1600
1219.1150;-56.7200;-51.5600;-5.1600
1219.3140;-56.6000;-51.5400;-5.0600
1219.5130;-56.5000;-51.5000;-5.0000
1219.7120;-56.4700;-51.4500;-5.0200
1219.9120;-56.4400;-51.4200;-5.0200
1220.1110;-56.4000;-51.3900;-5.0100
1220.3100;-56.3400;-51.3500;-4.9900
1220.5090;-56.3500;-51.3000;-5.0500
1220.7080;-56.3800;-51.2600;-5.1200
1220.9070;-56.3600;-51.2200;-5.1400
1221.1060;-56.3400;-51.1600;-5.1800
1221.3050;-56.3700;-51.1200;-5.2500
1221.5040;-56.4100;-51.0400;-5.3700
1221.7040;-56.4100;-50.9900;-5.4200
1221.9030;-56.4000;-50.9400;-5.4600
1222.1020;-56.4400;-50.8600;-5.5800
1222.3010;-56.4800;-50.8100;-5.6700
1222.5000;-56.4700;-50.7300;-5.7400
1222.6990;-56.4700;-50.6700;-5.8000
1222.8980;-56.5100;-50.5900;-5.9200
1223.0970;-56.5500;-50.5100;-6.0400
1223.2970;-56.5600;-50.4600;-6.1000
1223.4960;-56.5400;-50.3700;-6.1700
1223.6950;-56.5600;-50.3000;-6.2600
1223.8940;-56.6000;-50.2400;-6.3600
1224.0930;-56.5900;-50.1600;-6.4300
1224.2920;-56.5600;-50.1100;-6.4500
1224.4910;-56.5400;-50.0200;-6.5200
1224.6900;-56.5500;-49.9600;-6.5900
1224.8890;-56.4900;-49.9000;-6.5900
1225.0890;-56.4300;-49.8400;-6.5900
1225.2880;-56.3400;-49.7800;-6.5600
1225.4870;-56.2700;-49.7100;-6.5600
1225.6860;-56.1600;-49.6600;-6.5000
1225.8850;-56.0100;-49.6200;-6.3900
1226.0840;-55.8900;-49.5500;-6.3400
1226.2830;-55.7300;-49.5100;-6.2200
1226.4820;-55.5900;-49.4400;-6.1500
1226.6810;-55.3900;-49.4000;-5.9900
1226.8810;-55.2300;-49.3500;-5.8800
1227.0800;-55.1000;-49.2800;-5.8200
1227.2790;-54.9300;-49.2400;-5.6900
1227.4780;-54.7400;-49.1700;-5.5700
1227.6770;-54.6100;-49.1100;-5.5000
1227.8760;-54.4900;-49.0500;-5.4400
1228.0750;-54.3600;-48.9800;-5.3800
1228.2740;-54.2100;-48.9200;-5.2900
1228.4740;-54.1000;-48.8400;-5.2600
1228.6730;-54.0400;-48.7700;-5.2700
1228.8720;-53.9300;-48.7000;-5.2300
1229.0710;-53.8300;-48.6200;-5.2100
1229.2700;-53.7600;-48.5500;-5.2100
1229.4690;-53.7000;-48.4500;-5.2500
1229.6680;-53.6400;-48.3800;-5.2600
1229.8670;-53.5600;-48.3000;-5.2600
1230.0660;-53.5400;-48.2100;-5.3300
1230.2660;-53.5200;-48.1300;-5.3900
1230.4650;-53.4700;-48.0400;-5.4300
1230.6640;-53.4500;-47.9600;-5.4900
1230.8630;-53.4700;-47.8900;-5.5800
1231.0620;-53.5100;-47.8100;-5.7000
1231.2610;-53.5200;-47.7600;-5.7600
1231.4600;-53.5500;-47.6800;-5.8700
1231.6590;-53.6100;-47.6200;-5.9900
1231.8580;-53.6600;-47.5500;-6.1100
1232.0580;-53.7100;-47.5000;-6.2100
1232.2570;-53.7400;-47.4400;-6.3000
1232.4560;-53.8200;-47.3700;-6.4500
1232.6550;-53.8700;-47.3200;-6.5500
1232.8540;-53.8700;-47.2500;-6.6200
1233.0530;-53.8900;-47.2000;-6.6900
1233.2520;-53.9000;-47.1500;-6.7500
1233.4510;-53.8700;-47.0700;-6.8000
1233.6500;-53.8100;-47.0300;-6.7800
1233.8500;-53.7300;-46.9500;-6.7800
1234.0490;-53.6900;-46.8900;-6.8000
1234.2480;-53.5500;-46.8300;-6.7200
1234.4470;-53.3900;-46.7500;-6.6400
1234.6460;-53.2700;-46.6900;-6.5800
1234.8450;-53.1400;-46.6100;-6.5300
1235.0440;-52.9700;-46.5300;-6.4400
1235.2430;-52.7900;-46.4600;-6.3300
1235.4430;-52.6300;-46.3600;-6.2700
1235.6420;-52.4800;-46.2900;-6.1900
1235.8410;-52.2900;-46.1900;-6.1000
1236.0400;-52.1300;-46.1100;-6.0200
1236.2390;-51.9800;-46.0200;-5.9600
1236.4380;-51.8300;-45.9100;-5.9200
1236.6370;-51.6600;-45.8300;-5.8300
1236.8360;-51.5100;-45.7400;-5.7700
1237.0350;-51.4100;-45.6700;-5.7400
1237.2350;-51.2700;-45.5700;-5.7000
1237.4340;-51.1400;-45.4700;-5.6700
1237.6330;-51.0400;-45.3900;-5.6500
1237.8320;-50.9600;-45.3100;-5.6500
1238.0310;-50.8800;-45.2400;-5.6400
1238.2300;-50.7900;-45.1500;-5.6400
1238.4290;-50.7400;-45.0700;-5.6700
1238.6280;-50.7100;-45.0000;-5.7100
1238.8270;-50.6600;-44.9100;-5.7500
1239.0270;-50.6400;-44.8500;-5.7900
1239.2260;-50.6200;-44.7500;-5.8700
1239.4250;-50.6200;-44.6700;-5.9500
1239.6240;-50.5800;-44.6000;-5.9800
1239.8230;-50.5400;-44.5100;-6.0300
1240.0220;-50.5500;-44.4400;-6.1100
1240.2210;-50.4900;-44.3400;-6.1500
1240.4200;-50.4200;-44.2500;-6.1700
1240.6200;-50.3400;-44.1600;-6.1800
1240.8190;-50.2600;-44.0600;-6.2000
1241.0180;-50.1300;-43.9600;-6.1700
1241.2170;-49.9800;-43.8500;-6.1300
1241.4160;-49.8400;-43.7400;-6.1000
1241.6150;-49.6600;-43.6200;-6.0400
1241.8140;-49.4600;-43.5000;-5.9600
1242.0130;-49.2700;-43.4000;-5.8700
1242.2120;-49.0800;-43.2700;-5.8100
1242.4120;-48.9000;-43.1500;-5.7500
1242.6110;-48.6800;-43.0300;-5.6500
1242.8100;-48.4900;-42.9000;-5.5900
1243.0090;-48.3200;-42.7800;-5.5400
1243.2080;-48.1400;-42.6500;-5.4900
1243.4070;-47.9800;-42.5300;-5.4500
1243.6060;-47.8200;-42.4000;-5.4200
1243.8050;-47.7000;-42.2800;-5.4200
1244.0040;-47.5700;-42.1600;-5.4100
1244.2040;-47.4600;-42.0300;-5.4300
1244.4030;-47.4000;-41.9100;-5.4900
1244.6020;-47.3200;-41.7900;-5.5300
1244.8010;-47.2600;-41.6700;-5.5900
1245.0000;-47.2400;-41.5700;-5.6700
1245.1990;-47.2300;-41.4400;-5.7900
1245.3980;-47.2500;-41.3300;-5.9200
1245.5970;-47.2500;-41.2000;-6.0500
1245.7970;-47.3100;-41.0800;-6.2300
1245.9960;-47.3700;-40.9700;-6.4000
1246.1950;-47.4400;-40.8400;-6.6000
1246.3940;-47.5500;-40.7200;-6.8300
1246.5930;-47.6400;-40.5800;-7.0600
1246.7920;-47.7400;-40.4600;-7.2800
1246.9910;-47.8300;-40.3300;-7.5000
1247.1900;-47.9200;-40.1900;-7.7300
1247.3890;-47.9900;-40.0500;-7.9400
1247.5890;-47.9900;-39.9100;-8.0800
1247.7880;-47.9600;-39.7700;-8.1900
1247.9870;-47.8700;-39.6400;-8.2300
1248.1860;-47.7100;-39.4900;-8.2200
1248.3850;-47.4800;-39.3500;-8.1300
1248.5840;-47.1700;-39.2000;-7.9700
1248.7830;-46.8300;-39.0500;-7.7800
1248.9820;-46.4400;-38.9300;-7.5100
1249.1810;-46.0000;-38.7700;-7.2300
1249.3810;-45.4800;-38.6400;-6.8400
1249.5800;-45.0700;-38.5000;-6.5700
1249.7790;-44.6100;-38.3600;-6.2500
1249.9780;-44.1200;-38.2200;-5.9000
1250.1770;-43.6600;-38.0800;-5.5800
1250.3760;-43.2200;-37.9500;-5.2700
1250.5750;-42.7700;-37.8100;-4.9600
1250.7740;-42.3600;-37.6800;-4.6800
1250.9740;-41.9600;-37.5700;-4.3900
1251.1730;-41.5800;-37.4300;-4.1500
1251.3720;-41.2300;-37.3000;-3.9300
1251.5710;-40.9100;-37.1800;-3.7300
1251.7700;-40.6100;-37.0400;-3.5700
1251.9690;-40.3200;-36.9200;-3.4000
1252.1680;-40.0700;-36.7700;-3.3000
1252.3670;-39.8500;-36.6500;-3.2000
1252.5660;-39.6500;-36.5200;-3.1300
1252.7660;-39.4900;-36.3800;-3.1100
1252.9650;-39.3400;-36.2600;-3.0800
1253.1640;-39.2200;-36.1100;-3.1100
1253.3630;-39.1300;-35.9700;-3.1600
1253.5620;-39.0700;-35.8000;-3.2700
1253.7610;-39.0500;-35.6900;-3.3600
1253.9600;-39.0400;-35.5400;-3.5000
1254.1590;-39.0600;-35.4000;-3.6600
1254.3580;-39.0900;-35.2500;-3.8400
1254.5580;-39.1500;-35.1100;-4.0400
1254.7570;-39.2300;-34.9700;-4.2600
1254.9560;-39.3100;-34.8100;-4.5000
1255.1550;-39.4100;-34.6700;-4.7400
1255.3540;-39.4900;-34.5400;-4.9500
1255.5530;-39.5700;-34.4000;-5.1700
1255.7520;-39.6300;-34.2700;-5.3600
1255.9510;-39.6500;-34.1200;-5.5300
1256.1500;-39.6600;-34.0000;-5.6600
1256.3500;-39.5800;-33.8600;-5.7200
1256.5490;-39.4700;-33.7300;-5.7400
1256.7480;-39.3100;-33.6200;-5.6900
1256.9470;-39.0700;-33.4700;-5.6000
1257.1460;-38.7900;-33.3500;-5.4400
1257.3450;-38.4400;-33.2300;-5.2100
1257.5440;-38.0700;-33.1000;-4.9700
1257.7430;-37.6600;-32.9900;-4.6700
1257.9430;-37.2200;-32.8400;-4.3800
1258.1420;-36.7900;-32.7300;-4.0600
1258.3410;-36.3300;-32.5900;-3.7400
1258.5400;-35.8300;-32.4700;-3.3600
1258.7390;-35.4600;-32.3500;-3.1100
1258.9380;-35.0400;-32.2000;-2.8400
1259.1370;-34.6400;-32.0800;-2.5600
1259.3360;-34.2600;-31.9300;-2.3300
1259.5350;-33.9100;-31.8000;-2.1100
1259.7350;-33.5700;-31.6700;-1.9000
1259.9340;-33.2700;-31.5200;-1.7500
1260.1330;-33.0000;-31.4000;-1.6000
1260.3320;-32.7400;-31.2600;-1.4800
1260.5310;-32.5400;-31.1300;-1.4100
1260.7300;-32.3400;-31.0000;-1.3400
1260.9290;-32.1900;-30.8600;-1.3300
1261.1280;-32.0500;-30.7300;-1.3200
1261.3270;-31.9600;-30.5900;-1.3700
1261.5270;-31.9200;-30.4700;-1.4500
1261.7260;-31.8800;-30.3500;-1.5300
1261.9250;-31.8900;-30.2100;-1.6800
1262.1240;-31.9300;-30.0900;-1.8400
1262.3230;-32.0100;-29.9600;-2.0500
1262.5220;-32.1500;-29.8500;-2.3000
1262.7210;-32.3100;-29.7300;-2.5800
1262.9200;-32.5300;-29.6000;-2.9300
1263.1200;-32.7800;-29.4800;-3.3000
1263.3190;-33.0900;-29.3500;-3.7400
1263.5180;-33.4800;-29.2300;-4.2500
1263.7170;-33.9000;-29.1200;-4.7800
1263.9160;-34.4000;-28.9900;-5.4100
1264.1150;-34.9700;-28.8700;-6.1000
1264.3140;-35.6300;-28.7400;-6.8900
1264.5130;-36.3900;-28.6200;-7.7700
1264.7120;-37.2300;-28.5000;-8.7300
1264.9120;-38.3600;-28.3600;-10.0000
1265.1110;-39.1700;-28.2400;-10.9300
1265.3100;-40.1600;-28.1000;-12.0600
1265.5090;-41.0200;-27.9900;-13.0300
1265.7080;-41.5200;-27.8600;-13.6600
1265.9070;-41.5000;-27.7300;-13.7700
1266.1060;-40.8800;-27.6100;-13.2700
1266.3050;-39.9000;-27.4800;-12.4200
1266.5040;-38.7200;-27.3700;-11.3500
1266.7040;-37.5300;-27.2500;-10.2800
1266.9030;-36.4000;-27.1200;-9.2800
1267.1020;-35.1700;-27.0200;-8.1500
1267.3010;-34.3800;-26.8900;-7.4900
1267.5000;-33.5200;-26.7900;-6.7300
1267.6990;-32.7400;-26.6800;-6.0600
1267.8980;-32.0100;-26.5600;-5.4500
1268.0970;-31.3700;-26.4700;-4.9000
1268.2970;-30.8000;-26.3400;-4.4600
1268.4960;-30.2800;-26.2500;-4.0300
1268.6950;-29.8100;-26.1300;-3.6800
1268.8940;-29.3800;-26.0100;-3.3700
1269.0930;-29.0100;-25.9100;-3.1000
1269.2920;-28.6900;-25.8000;-2.8900
1269.4910;-28.4100;-25.7100;-2.7000
1269.6900;-28.1900;-25.5900;-2.6000
1269.8890;-27.9800;-25.4900;-2.4900
1270.0890;-27.8200;-25.3700;-2.4500
1270.2880;-27.7200;-25.2600;-2.4600
1270.4870;-27.6600;-25.1700;-2.4900
1270.6860;-27.6400;-25.0500;-2.5900
1270.8850;-27.6400;-24.9400;-2.7000
1271.0840;-27.6900;-24.8200;-2.8700
1271.2830;-27.7900;-24.7200;-3.0700
1271.4820;-27.9200;-24.6200;-3.3000
1271.6810;-28.1100;-24.5000;-3.6100
1271.8810;-28.3200;-24.4100;-3.9100
1272.0800;-28.5800;-24.2900;-4.2900
1272.2790;-28.8800;-24.1900;-4.6900
1272.4780;-29.2100;-24.0900;-5.1200
1272.6770;-29.5900;-23.9900;-5.6000
1272.8760;-29.9700;-23.9000;-6.0700
1273.0750;-30.3800;-23.7900;-6.5900
1273.2740;-30.7900;-23.7000;-7.0900
1273.4740;-31.2000;-23.6100;-7.5900
1273.6730;-31.5800;-23.5100;-8.0700
1273.8720;-31.8800;-23.4200;-8.4600
1274.0710;-32.0900;-23.3200;-8.7700
1274.2700;-32.1700;-23.2300;-8.9400
1274.4690;-32.1000;-23.1500;-8.9500
1274.6680;-31.9000;-23.0500;-8.8500
1274.8670;-31.5500;-22.9700;-8.5800
1275.0660;-31.1100;-22.8700;-8.2400
1275.2660;-30.5900;-22.7700;-7.8200
1275.4650;-30.0400;-22.6800;-7.3600
1275.6640;-29.4900;-22.5800;-6.9100
1275.8630;-28.9200;-22.5000;-6.4200
1276.0620;-28.3900;-22.3900;-6.0000
1276.2610;-27.8700;-22.3000;-5.5700
1276.4600;-27.3900;-22.2100;-5.1800
1276.6590;-26.9500;-22.1000;-4.8500
1276.8580;-26.5500;-22.0200;-4.5300
1277.0580;-26.2000;-21.9200;-4.2800
1277.2570;-25.8300;-21.8300;-4.0000
1277.4560;-25.6200;-21.7400;-3.8800
1277.6550;-25.3800;-21.6500;-3.7300
1277.8540;-25.1800;-21.5700;-3.6100
1278.0530;-25.0300;-21.4700;-3.5600
1278.2520;-24.9100;-21.3900;-3.5200
1278.4510;-24.8400;-21.3000;-3.5400
1278.6500;-24.7900;-21.2200;-3.5700
1278.8500;-24.8000;-21.1400;-3.6600
1279.0490;-24.8400;-21.0500;-3.7900
1279.2480;-24.9200;-20.9800;-3.9400
1279.4470;-25.0500;-20.8900;-4.1600
1279.6460;-25.2100;-20.8100;-4.4000
1279.8450;-25.4200;-20.7400;-4.6800
1280.0440;-25.6800;-20.6500;-5.0300
1280.2430;-25.9800;-20.5900;-5.3900
1280.4430;-26.3400;-20.5000;-5.8400
1280.6420;-26.7200;-20.4300;-6.2900
1280.8410;-27.1500;-20.3500;-6.8000
1281.0400;-27.6100;-20.2700;-7.3400
1281.2390;-28.0700;-20.2000;-7.8700
1281.4380;-28.5900;-20.1200;-8.4700
1281.6370;-28.8900;-20.0500;-8.8400
1281.8360;-29.1600;-19.9700;-9.1900
1282.0350;-29.2600;-19.8900;-9.3700
1282.2350;-29.1700;-19.8300;-9.3400
1282.4340;-28.8600;-19.7400;-9.1200
1282.6330;-28.3800;-19.6800;-8.7000
1282.8320;-27.7700;-19.6100;-8.1600
1283.0310;-27.0500;-19.5300;-7.5200
1283.2300;-26.3200;-19.4700;-6.8500
1283.4290;-25.4300;-19.4000;-6.0300
1283.6280;-24.8200;-19.3300;-5.4900
1283.8270;-24.1100;-19.2600;-4.8500
1284.0270;-23.4400;-19.1900;-4.2500
1284.2260;-22.8100;-19.1300;-3.6800
1284.4250;-22.2200;-19.0600;-3.1600
1284.6240;-21.6900;-19.0000;-2.6900
1284.8230;-21.1800;-18.9300;-2.2500
1285.0220;-20.7300;-18.8600;-1.8700
1285.2210;-20.3100;-18.8000;-1.5100
1285.4200;-19.9300;-18.7300;-1.2000
1285.6200;-19.6100;-18.6700;-0.9400
1285.8190;-19.3100;-18.5900;-0.7200
1286.0180;-19.0600;-18.5300;-0.5300
1286.2170;-18.8400;-18.4700;-0.3700
1286.4160;-18.6600;-18.3900;-0.2700
1286.6150;-18.5400;-18.3400;-0.2000
1286.8140;-18.4300;-18.2700;-0.1600
1287.0130;-18.3700;-18.2000;-0.1700
1287.2120;-18.3400;-18.1400;-0.2000
1287.4120;-18.3500;-18.0700;-0.2800
1287.6110;-18.4200;-18.0200;-0.4000
1287.8100;-18.5100;-17.9400;-0.5700
1288.0090;-18.6600;-17.8900;-0.7700
1288.2080;-18.8400;-17.8200;-1.0200
1288.4070;-19.0700;-17.7600;-1.3100
1288.6060;-19.3700;-17.7100;-1.6600
1288.8050;-19.7000;-17.6500;-2.0500
1289.0040;-20.1100;-17.6000;-2.5100
1289.2040;-20.5700;-17.5300;-3.0400
1289.4030;-21.1000;-17.4800;-3.6200
1289.6020;-21.7200;-17.4400;-4.2800
1289.8010;-22.4100;-17.3800;-5.0300
1290.0000;-23.2200;-17.3400;-5.8800
1290.1990;-24.1200;-17.2800;-6.8400
1290.3980;-25.1400;-17.2300;-7.9100
1290.5970;-26.3300;-17.2000;-9.1300
1290.7970;-27.6000;-17.1400;-10.4600
1290.9960;-29.1400;-17.1000;-12.0400
1291.1950;-29.9900;-17.0400;-12.9500
1291.3940;-30.5100;-17.0000;-13.5100
1291.5930;-30.1800;-16.9400;-13.2400
1291.7920;-29.1700;-16.9000;-12.2700
1291.9910;-27.8300;-16.8600;-10.9700
1292.1900;-26.4300;-16.8000;-9.6300
1292.3890;-24.9300;-16.7600;-8.1700
1292.5890;-23.9400;-16.7100;-7.2300
1292.7880;-22.9000;-16.6600;-6.2400
1292.9870;-21.9600;-16.6300;-5.3300
1293.1860;-21.1400;-16.5700;-4.5700
1293.3850;-20.3900;-16.5400;-3.8500
1293.5840;-19.7200;-16.4800;-3.2400
1293.7830;-19.1400;-16.4400;-2.7000
1293.9820;-18.6300;-16.4100;-2.2200
1294.1810;-18.1900;-16.3600;-1.8300
1294.3810;-17.7900;-16.3400;-1.4500
1294.5800;-17.4400;-16.2700;-1.1700
1294.7790;-17.1500;-16.2400;-0.9100
1294.9780;-16.9000;-16.2000;-0.7000
1295.1770;-16.7200;-16.1600;-0.5600
1295.3760;-16.5500;-16.1300;-0.4200
1295.5750;-16.4400;-16.0800;-0.3600
1295.7740;-16.3600;-16.0600;-0.3000
1295.9740;-16.3200;-16.0000;-0.3200
1296.1730;-16.3400;-15.9700;-0.3700
1296.3720;-16.3900;-15.9300;-0.4600
1296.5710;-16.4800;-15.8900;-0.5900
1296.7700;-16.6100;-15.8700;-0.7400
1296.9690;-16.7900;-15.8200;-0.9700
1297.1680;-17.0300;-15.8000;-1.2300
1297.3670;-17.3000;-15.7500;-1.5500
1297.5660;-17.6300;-15.7200;-1.9100
1297.7660;-18.0100;-15.6900;-2.3200
1297.9650;-18.4600;-15.6600;-2.8000
1298.1640;-18.9800;-15.6400;-3.3400
1298.3630;-19.5600;-15.6000;-3.9600
1298.5620;-20.2300;-15.5600;-4.6700
1298.7610;-20.9800;-15.5400;-5.4400
1298.9600;-21.8500;-15.5100;-6.3400
1299.1590;-22.8300;-15.5000;-7.3300
1299.3580;-23.9400;-15.4600;-8.4800
1299.5580;-25.1700;-15.4300;-9.7400
1299.7570;-26.5200;-15.4000;-11.1200
1299.9560;-27.9100;-15.3800;-12.5300
1300.1550;-29.3000;-15.3700;-13.9300
1300.3540;-29.6600;-15.3300;-14.3300
1300.5530;-29.2700;-15.3100;-13.9600
1300.7520;-28.2000;-15.2800;-12.9200
1300.9510;-26.8200;-15.2600;-11.5600
1301.1500;-25.1800;-15.2500;-9.9300
1301.3500;-24.1100;-15.2200;-8.8900
1301.5490;-22.9500;-15.2200;-7.7300
1301.7480;-21.9200;-15.1900;-6.7300
1301.9470;-20.9900;-15.1700;-5.8200
1302.1460;-20.1900;-15.1700;-5.0200
1302.3450;-19.4700;-15.1500;-4.3200
1302.5440;-18.8400;-15.1500;-3.6900
1302.7430;-18.3000;-15.1200;-3.1800
1302.9430;-17.8000;-15.1000;-2.7000
1303.1420;-17.3900;-15.1000;-2.2900
1303.3410;-17.0200;-15.0800;-1.9400
1303.5400;-16.7100;-15.0900;-1.6200
1303.7390;-16.4600;-15.0700;-1.3900
1303.9380;-16.2400;-15.0600;-1.1800
1304.1370;-16.0600;-15.0600;-1.0000
1304.3360;-15.9600;-15.0500;-0.9100
1304.5350;-15.8900;-15.0600;-0.8300
1304.7350;-15.8400;-15.0600;-0.7800
1304.9340;-15.8400;-15.0600;-0.7800
1305.1330;-15.9100;-15.0600;-0.8500
1305.3320;-15.9800;-15.0600;-0.9200
1305.5310;-16.1300;-15.0800;-1.0500
1305.7300;-16.2800;-15.0800;-1.2000
1305.9290;-16.5000;-15.0900;-1.4100
1306.1280;-16.7900;-15.1000;-1.6900
1306.3270;-17.0900;-15.1100;-1.9800
1306.5270;-17.4800;-15.1400;-2.3400
1306.7260;-17.9000;-15.1400;-2.7600
1306.9250;-18.5200;-15.1700;-3.3500
1307.1240;-18.9900;-15.1700;-3.8200
1307.3230;-19.6300;-15.1900;-4.4400
1307.5220;-20.3700;-15.2100;-5.1600
1307.7210;-21.2000;-15.2300;-5.9700
1307.9200;-22.1600;-15.2600;-6.9000
1308.1200;-23.2300;-15.2700;-7.9600
1308.3190;-24.4400;-15.2900;-9.1500
1308.5180;-25.7900;-15.3200;-10.4700
1308.7170;-27.2400;-15.3400;-11.9000
1308.9160;-28.9700;-15.3700;-13.6000
1309.1150;-29.7300;-15.3800;-14.3500
1309.3140;-29.9700;-15.4100;-14.5600
1309.5130;-29.2800;-15.4300;-13.8500
1309.7120;-28.0300;-15.4500;-12.5800
1309.9120;-26.6200;-15.4800;-11.1400
1310.1110;-25.0500;-15.5000;-9.5500
1310.3100;-24.0500;-15.5300;-8.5200
1310.5090;-22.9800;-15.5500;-7.4300
1310.7080;-22.0100;-15.5700;-6.4400
1310.9070;-21.1600;-15.5800;-5.5800
1311.1060;-20.4300;-15.6000;-4.8300
1311.3050;-19.8000;-15.6400;-4.1600
1311.5040;-19.2500;-15.6500;-3.6000
1311.7040;-18.7800;-15.6800;-3.1000
1311.9030;-18.3600;-15.6900;-2.6700
1312.1020;-18.0100;-15.7200;-2.2900
1312.3010;-17.7200;-15.7500;-1.9700
1312.5000;-17.4800;-15.7800;-1.7000
1312.6990;-17.3100;-15.8200;-1.4900
1312.8980;-17.1600;-15.8400;-1.3200
1313.0970;-17.0800;-15.8700;-1.2100
1313.2970;-17.0300;-15.9000;-1.1300
1313.4960;-17.0300;-15.9400;-1.0900
1313.6950;-17.0900;-15.9900;-1.1000
1313.8940;-17.1600;-16.0100;-1.1500
1314.0930;-17.3100;-16.0600;-1.2500
1314.2920;-17.4800;-16.1000;-1.3800
1314.4910;-17.7100;-16.1500;-1.5600
1314.6900;-17.9800;-16.2000;-1.7800
1314.8890;-18.2900;-16.2400;-2.0500
1315.0890;-18.6800;-16.3000;-2.3800
1315.2880;-19.1000;-16.3300;-2.7700
1315.4870;-19.6000;-16.3900;-3.2100
1315.6860;-20.1400;-16.4500;-3.6900
1315.8850;-20.7600;-16.5000;-4.2600
1316.0840;-21.4700;-16.5700;-4.9000
1316.2830;-22.2400;-16.6100;-5.6300
1316.4820;-23.1300;-16.6900;-6.4400
1316.6810;-24.0800;-16.7500;-7.3300
1316.8810;-25.1400;-16.8200;-8.3200
1317.0800;-26.3100;-16.9000;-9.4100
1317.2790;-27.5200;-16.9600;-10.5600
1317.4780;-28.9400;-17.0400;-11.9000
1317.6770;-29.6500;-17.1000;-12.5500
1317.8760;-30.1300;-17.1700;-12.9600
1318.0750;-29.9700;-17.2500;-12.7200
1318.2740;-29.2800;-17.3200;-11.9600
1318.4740;-28.2900;-17.4000;-10.8900
1318.6730;-27.2200;-17.4600;-9.7600
1318.8720;-26.0000;-17.5500;-8.4500
1319.0710;-25.2100;-17.6300;-7.5800
1319.2700;-24.3600;-17.7000;-6.6600
1319.4690;-23.5800;-17.7800;-5.8000
1319.6680;-22.9100;-17.8600;-5.0500
1319.8670;-22.3100;-17.9500;-4.3600
1320.0660;-21.7900;-18.0100;-3.7800
1320.2660;-21.3500;-18.0900;-3.2600
1320.4650;-20.9600;-18.1700;-2.7900
1320.6640;-20.6500;-18.2500;-2.4000
1320.8630;-20.3600;-18.3400;-2.0200
1321.0620;-20.1500;-18.4100;-1.7400
1321.2610;-19.9800;-18.5300;-1.4500
1321.4600;-19.8500;-18.5900;-1.2600
1321.6590;-19.7800;-18.6900;-1.0900
1321.8580;-19.7400;-18.7700;-0.9700
1322.0580;-19.7400;-18.8600;-0.8800
1322.2570;-19.7800;-18.9600;-0.8200
1322.4560;-19.8600;-19.0400;-0.8200
1322.6550;-20.0000;-19.1400;-0.8600
1322.8540;-20.1500;-19.2200;-0.9300
1323.0530;-20.3600;-19.3200;-1.0400
1323.2520;-20.6000;-19.4200;-1.1800
1323.4510;-20.8800;-19.5100;-1.3700
1323.6500;-21.2100;-19.6200;-1.5900
1323.8500;-21.5700;-19.7100;-1.8600
1324.0490;-21.9800;-19.8200;-2.1600
1324.2480;-22.4200;-19.9200;-2.5000
1324.4470;-22.9000;-20.0200;-2.8800
1324.6460;-23.4500;-20.1400;-3.3100
1324.8450;-24.0200;-20.2400;-3.7800
1325.0440;-24.6500;-20.3600;-4.2900
1325.2430;-25.3100;-20.4600;-4.8500
1325.4430;-26.0000;-20.5800;-5.4200
1325.6420;-26.7300;-20.7200;-6.0100
1325.8410;-27.4500;-20.8400;-6.6100
1326.0400;-28.1700;-20.9700;-7.2000
1326.2390;-28.9600;-21.0800;-7.8800
1326.4380;-29.4100;-21.2100;-8.2000
1326.6370;-29.8100;-21.3300;-8.4800
1326.8360;-30.0500;-21.4500;-8.6000
1327.0350;-30.0900;-21.5900;-8.5000
1327.2350;-29.9600;-21.7100;-8.2500
1327.4340;-29.7000;-21.8500;-7.8500
1327.6330;-29.3300;-21.9700;-7.3600
1327.8320;-28.9300;-22.1000;-6.8300
1328.0310;-28.4900;-22.2400;-6.2500
1328.2300;-28.0800;-22.3700;-5.7100
1328.4290;-27.6800;-22.5100;-5.1700
1328.6280;-27.3200;-22.6400;-4.6800
1328.8270;-27.0100;-22.7700;-4.2400
1329.0270;-26.7200;-22.9200;-3.8000
1329.2260;-26.4800;-23.0500;-3.4300
1329.4250;-26.2500;-23.1900;-3.0600
1329.6240;-26.1300;-23.3100;-2.8200
1329.8230;-26.0200;-23.4600;-2.5600
1330.0220;-25.9400;-23.6000;-2.3400
1330.2210;-25.9100;-23.7300;-2.1800
1330.4200;-25.9100;-23.8800;-2.0300
1330.6200;-25.9600;-24.0100;-1.9500
1330.8190;-26.0300;-24.1600;-1.8700
1331.0180;-26.1400;-24.3000;-1.8400
1331.2170;-26.3000;-24.4500;-1.8500
1331.4160;-26.4700;-24.6100;-1.8600
1331.6150;-26.7000;-24.7400;-1.9600
1331.8140;-26.9400;-24.9100;-2.0300
1332.0130;-27.2300;-25.0400;-2.1900
1332.2120;-27.5300;-25.2000;-2.3300
1332.4120;-27.8800;-25.3600;-2.5200
1332.6110;-28.2600;-25.5100;-2.7500
1332.8100;-28.7300;-25.6700;-3.0600
1333.0090;-29.0800;-25.8200;-3.2600
1333.2080;-29.5100;-25.9700;-3.5400
1333.4070;-29.9700;-26.1300;-3.8400
1333.6060;-30.4100;-26.2800;-4.1300
1333.8050;-30.8600;-26.4500;-4.4100
1334.0040;-31.3000;-26.6000;-4.7000
1334.2040;-31.7000;-26.7700;-4.9300
1334.4030;-32.0700;-26.9200;-5.1500
1334.6020;-32.3700;-27.0900;-5.2800
1334.8010;-32.6300;-27.2400;-5.3900
1335.0000;-32.8000;-27.4000;-5.4000
1335.1990;-32.9000;-27.5800;-5.3200
1335.3980;-32.9400;-27.7300;-5.2100
1335.5970;-32.9100;-27.9000;-5.0100
1335.7970;-32.8600;-28.0600;-4.8000
1335.9960;-32.7500;-28.2300;-4.5200
1336.1950;-32.6200;-28.4000;-4.2200
1336.3940;-32.4800;-28.5900;-3.8900
1336.5930;-32.3300;-28.7300;-3.6000
1336.7920;-32.2000;-28.8800;-3.3200
1336.9910;-32.0700;-29.0600;-3.0100
1337.1900;-31.9700;-29.2200;-2.7500
1337.3890;-31.8800;-29.3900;-2.4900
1337.5890;-31.8300;-29.5600;-2.2700
1337.7880;-31.8100;-29.7200;-2.0900
1337.9870;-31.8000;-29.9000;-1.9000
1338.1860;-31.8500;-30.0600;-1.7900
1338.3850;-31.9000;-30.2400;-1.6600
1338.5840;-32.0000;-30.4000;-1.6000
1338.7830;-32.1300;-30.5700;-1.5600
1338.9820;-32.2900;-30.7400;-1.5500
1339.1810;-32.5100;-30.9100;-1.6000
1339.3810;-32.7500;-31.1000;-1.6500
1339.5800;-33.0400;-31.2600;-1.7800
1339.7790;-33.3500;-31.4400;-1.9100
1339.9780;-33.7200;-31.6100;-2.1100
1340.1770;-34.1400;-31.7900;-2.3500
1340.3760;-34.6000;-31.9800;-2.6200
1340.5750;-35.1200;-32.1600;-2.9600
1340.7740;-35.6800;-32.3400;-3.3400
1340.9740;-36.3000;-32.5000;-3.8000
1341.1730;-36.9900;-32.6800;-4.3100
1341.3720;-37.7400;-32.8700;-4.8700
1341.5710;-38.7700;-33.0400;-5.7300
1341.7700;-39.5200;-33.2300;-6.2900
1341.9690;-40.5700;-33.4000;-7.1700
1342.1680;-41.7300;-33.5800;-8.1500
1342.3670;-43.0600;-33.7500;-9.3100
1342.5660;-44.5200;-33.9300;-10.5900
1342.7660;-46.1700;-34.1200;-12.0500
1342.9650;-47.9400;-34.2900;-13.6500
1343.1640;-50.0200;-34.4800;-15.5400
1343.3630;-50.8100;-34.6600;-16.1500
1343.5620;-50.8100;-34.8300;-15.9800
1343.7610;-49.8700;-35.0200;-14.8500
1343.9600;-48.4700;-35.1900;-13.2800
1344.1590;-47.0700;-35.3900;-11.6800
1344.3580;-45.6100;-35.5600;-10.0500
1344.5580;-44.7400;-35.7400;-9.0000
1344.7570;-43.8100;-35.9300;-7.8800
1344.9560;-43.0100;-36.0900;-6.9200
1345.1550;-42.3500;-36.2700;-6.0800
1345.3540;-41.7700;-36.4300;-5.3400
1345.5530;-41.3100;-36.6100;-4.7000
1345.7520;-40.9100;-36.7700;-4.1400
1345.9510;-40.5900;-36.9500;-3.6400
1346.1500;-40.3400;-37.1300;-3.2100
1346.3500;-40.1400;-37.3100;-2.8300
1346.5490;-40.0300;-37.5000;-2.5300
1346.7480;-39.9300;-37.6700;-2.2600
1346.9470;-39.8800;-37.8400;-2.0400
1347.1460;-39.8800;-38.0100;-1.8700
1347.3450;-39.9100;-38.1600;-1.7500
1347.5440;-40.0500;-38.3800;-1.6700
1347.7430;-40.2200;-38.6500;-1.5700
1347.9430;-40.4300;-38.8100;-1.6200
1348.1420;-40.6400;-38.9800;-1.6600
1348.3410;-40.9100;-39.1600;-1.7500
1348.5400;-41.1800;-39.3100;-1.8700
1348.7390;-41.5000;-39.4700;-2.0300
1348.9380;-41.8800;-39.6400;-2.2400
1349.1370;-42.2900;-39.7900;-2.5000
1349.3360;-42.7300;-39.9400;-2.7900
1349.5350;-43.2500;-40.1100;-3.1400
1349.7350;-43.8000;-40.2600;-3.5400
1349.9340;-44.4500;-40.4500;-4.0000
1350.1330;-45.1500;-40.6300;-4.5200
1350.3320;-45.9600;-40.8800;-5.0800
1350.5310;-46.8400;-41.0900;-5.7500
1350.7300;-47.7900;-41.2600;-6.5300
1350.9290;-49.0300;-41.4200;-7.6100
1351.1280;-49.9200;-41.5300;-8.3900
1351.3270;-51.1200;-41.6900;-9.4300
1351.5270;-52.4500;-41.8600;-10.5900
1351.7260;-53.8800;-42.0900;-11.7900
1351.9250;-55.2600;-42.2900;-12.9700
1352.1240;-56.3500;-42.4500;-13.9000
1352.3230;-56.8800;-42.6300;-14.2500
1352.5220;-56.7500;-42.8300;-13.9200
1352.7210;-55.9800;-42.9800;-13.0000
1352.9200;-54.9600;-43.1300;-11.8300
1353.1200;-54.0400;-43.3800;-10.6600
1353.3190;-53.0000;-43.4900;-9.5100
1353.5180;-52.1100;-43.6500;-8.4600
1353.7170;-51.3500;-43.8300;-7.5200
1353.9160;-50.6300;-43.9200;-6.7100
1354.1150;-50.0600;-44.0600;-6.0000
1354.3140;-49.6300;-44.2700;-5.3600
1354.5130;-49.2500;-44.4600;-4.7900
1354.7120;-49.0800;-44.7700;-4.3100
1354.9120;-48.9100;-45.0300;-3.8800
1355.1110;-48.7200;-45.2100;-3.5100
1355.3100;-48.5000;-45.3100;-3.1900
1355.5090;-48.2500;-45.3000;-2.9500
1355.7080;-48.2800;-45.5700;-2.7100
1355.9070;-48.4000;-45.8200;-2.5800
1356.1060;-48.4300;-45.9800;-2.4500
1356.3050;-48.4300;-46.0400;-2.3900
1356.5040;-48.5300;-46.1300;-2.4000
1356.7040;-48.4400;-46.0400;-2.4000
1356.9030;-48.6300;-46.1800;-2.4500
1357.1020;-49.0700;-46.5600;-2.5100
1357.3010;-49.4500;-46.7600;-2.6900
1357.5000;-49.8500;-46.9400;-2.9100
1357.6990;-50.2600;-47.0900;-3.1700
1357.8980;-50.6400;-47.1300;-3.5100
1358.0970;-51.0200;-47.1900;-3.8300
1358.2970;-51.6000;-47.3600;-4.2400
1358.4960;-52.3000;-47.5900;-4.7100
1358.6950;-52.9700;-47.7100;-5.2600
1358.8940;-53.7800;-47.8600;-5.9200
1359.0930;-54.6700;-47.9900;-6.6800
1359.2920;-55.4900;-48.0200;-7.4700
1359.4910;-56.6700;-48.4000;-8.2700
1359.6900;-57.9600;-48.7400;-9.2200
1359.8890;-59.7600;-48.8900;-10.8700
1360.0890;-60.9300;-48.9200;-12.0100
1360.2880;-62.3400;-48.9400;-13.4000
1360.4870;-63.4700;-48.9200;-14.5500
1360.6860;-64.3400;-49.0800;-15.2600
1360.8850;-64.6500;-49.4200;-15.2300
1361.0840;-64.1400;-49.7000;-14.4400
1361.2830;-62.9200;-49.8800;-13.0400
1361.4820;-61.6100;-50.0100;-11.6000
1361.6810;-60.7200;-50.2300;-10.4900
1361.8810;-59.6200;-50.3500;-9.2700
1362.0800;-58.7900;-50.5700;-8.2200
1362.2790;-58.2800;-50.9900;-7.2900
1362.4780;-57.7600;-51.2200;-6.5400
1362.6770;-57.0700;-51.3500;-5.7200
1362.8760;-56.1300;-51.2200;-4.9100
1363.0750;-55.6800;-51.1400;-4.5400
1363.2740;-55.0300;-50.9000;-4.1300
1363.4740;-54.7400;-50.9800;-3.7600
1363.6730;-54.4800;-51.0700;-3.4100
1363.8720;-54.3400;-51.2000;-3.1400
1364.0710;-54.3100;-51.4200;-2.8900
1364.2700;-54.3300;-51.6000;-2.7300
1364.4690;-54.4800;-51.9100;-2.5700
1364.6680;-54.9000;-52.4200;-2.4800
1364.8670;-55.1200;-52.6400;-2.4800
1365.0660;-55.0900;-52.6200;-2.4700
1365.2660;-55.3300;-52.7600;-2.5700
1365.4650;-55.3500;-52.7000;-2.6500
1365.6640;-55.5600;-52.7700;-2.7900
1365.8630;-55.8200;-52.8000;-3.0200
1366.0620;-56.0700;-52.8100;-3.2600
1366.2610;-56.3600;-52.8000;-3.5600
1366.4600;-56.7500;-52.8800;-3.8700
1366.6590;-57.3100;-53.0300;-4.2800
1366.8580;-57.9900;-53.2700;-4.7200
1367.0580;-58.8500;-53.4100;-5.4400
1367.2570;-59.4400;-53.5200;-5.9200
1367.4560;-60.3600;-53.7900;-6.5700
1367.6550;-61.2800;-53.9700;-7.3100
1367.8540;-62.3800;-54.2600;-8.1200
1368.0530;-63.5400;-54.3600;-9.1800
1368.2520;-64.6400;-54.3500;-10.2900
1368.4510;-65.9400;-54.6900;-11.2500
1368.6500;-67.0400;-54.7800;-12.2600
1368.8500;-68.2500;-54.9000;-13.3500
1369.0490;-68.8900;-54.8600;-14.0300
1369.2480;-68.8900;-54.8400;-14.0500
1369.4470;-68.1500;-54.7700;-13.3800
1369.6460;-67.3700;-54.8700;-12.5000
1369.8450;-66.7600;-55.2100;-11.5500
1370.0440;-65.7800;-55.4100;-10.3700
1370.2430;-64.7400;-55.5500;-9.1900
1370.4430;-63.8500;-55.5900;-8.2600
1370.6420;-63.0200;-55.6200;-7.4000
1370.8410;-62.6600;-55.9300;-6.7300
1371.0400;-62.2100;-56.2100;-6.0000
1371.2390;-61.7000;-56.4200;-5.2800
1371.4380;-61.1300;-56.4000;-4.7300
1371.6370;-60.6300;-56.4000;-4.2300
1371.8360;-60.2100;-56.3600;-3.8500
1372.0350;-60.0500;-56.5700;-3.4800
1372.2350;-59.9400;-56.7800;-3.1600
1372.4340;-59.7600;-56.8900;-2.8700
1372.6330;-59.5900;-56.9800;-2.6100
1372.8320;-59.4800;-57.0000;-2.4800
1373.0310;-59.3800;-57.0700;-2.3100
1373.2300;-59.4100;-57.1800;-2.2300
1373.4290;-59.5100;-57.3500;-2.1600
1373.6280;-59.5800;-57.4800;-2.1000
1373.8270;-59.6900;-57.5700;-2.1200
1374.0270;-59.8400;-57.7000;-2.1400
1374.2260;-60.0300;-57.8000;-2.2300
1374.4250;-60.2700;-57.9700;-2.3000
1374.6240;-60.5400;-58.0900;-2.4500
1374.8230;-60.9100;-58.3000;-2.6100
1375.0220;-61.3000;-58.5500;-2.7500
1375.2210;-61.6400;-58.5900;-3.0500
1375.4200;-61.9900;-58.6900;-3.3000
1375.6200;-62.3600;-58.7800;-3.5800
1375.8190;-62.7400;-58.9100;-3.8300
1376.0180;-63.2600;-59.0600;-4.2000
1376.2170;-63.7300;-59.2300;-4.5000
1376.4160;-64.1800;-59.3400;-4.8400
1376.6150;-64.6600;-59.4400;-5.2200
1376.8140;-65.1400;-59.6300;-5.5100
1377.0130;-65.7200;-59.8800;-5.8400
1377.2120;-66.1500;-60.0700;-6.0800
1377.4120;-66.3600;-60.1500;-6.2100
1377.6110;-66.5600;-60.2300;-6.3300
1377.8100;-66.5800;-60.2300;-6.3500
1378.0090;-66.5800;-60.3000;-6.2800
1378.2080;-66.5400;-60.4300;-6.1100
1378.4070;-66.4700;-60.6000;-5.8700
1378.6060;-66.4800;-60.8600;-5.6200
1378.8050;-66.4300;-61.1800;-5.2500
1379.0040;-66.2300;-61.3200;-4.9100
1379.2040;-65.9500;-61.3700;-4.5800
1379.4030;-65.6100;-61.3500;-4.2600
1379.6020;-65.2800;-61.3700;-3.9100
1379.8010;-64.9900;-61.4100;-3.5800
1380.0000;-64.8500;-61.5700;-3.2800
1380.1990;-64.7400;-61.7500;-2.9900
1380.3980;-64.7300;-61.9400;-2.7900
1380.5970;-65.1000;-62.5300;-2.5700
1380.7970;-65.3900;-62.9800;-2.4100
1380.9960;-65.3800;-63.1600;-2.2200
1381.1950;-65.2600;-63.2000;-2.0600
1381.3940;-64.9200;-62.9600;-1.9600
1381.5930;-64.6300;-62.6800;-1.9500
1381.7920;-64.6400;-62.7200;-1.9200
1381.9910;-64.7300;-62.7800;-1.9500
1382.1900;-64.8900;-62.9000;-1.9900
1382.3890;-65.2800;-63.2200;-2.0600
1382.5890;-65.8600;-63.7800;-2.0800
1382.7880;-66.5400;-64.2900;-2.2500
1382.9870;-67.0000;-64.5200;-2.4800
1383.1860;-67.1400;-64.3000;-2.8400
1383.3850;-66.9900;-64.0900;-2.9000
1383.5840;-67.1300;-63.8900;-3.2400
1383.7830;-67.5400;-64.0000;-3.5400
1383.9820;-68.0500;-64.1200;-3.9300
1384.1810;-68.6000;-64.2000;-4.4000
1384.3810;-69.0000;-64.2300;-4.7700
1384.5800;-69.5400;-64.2100;-5.3300
1384.7790;-70.0100;-64.3500;-5.6600
1384.9780;-70.6100;-64.6000;-6.0100
1385.1770;-71.3600;-64.8600;-6.5000
1385.3760;-71.8400;-64.9400;-6.9000
1385.5750;-72.4300;-64.9400;-7.4900
1385.7740;-72.7600;-64.9300;-7.8300
1385.9740;-73.2000;-64.9400;-8.2600
1386.1730;-73.1100;-65.0100;-8.1000
1386.3720;-73.4500;-65.1700;-8.2800
1386.5710;-72.7900;-65.1500;-7.6400
1386.7700;-72.3700;-65.1500;-7.2200
1386.9690;-72.6400;-65.2700;-7.3700
1387.1680;-71.9500;-65.2700;-6.6800
1387.3670;-71.5600;-65.3100;-6.2500
1387.5660;-71.0900;-65.4500;-5.6400
1387.7660;-70.9200;-65.6700;-5.2500
1387.9650;-70.7400;-65.9700;-4.7700
1388.1640;-70.4500;-66.2100;-4.2400
1388.3630;-70.4500;-66.3200;-4.1300
1388.5620;-70.0000;-66.2400;-3.7600
1388.7610;-69.3600;-66.1100;-3.2500
1388.9600;-69.2700;-66.1800;-3.0900
1389.1590;-68.9000;-66.0800;-2.8200
1389.3580;-68.7600;-66.0400;-2.7200
1389.5580;-68.5400;-66.1600;-2.3800
1389.7570;-68.6700;-66.3000;-2.3700
1389.9560;-68.6800;-66.4100;-2.2700
1390.1550;-68.7400;-66.4700;-2.2700
1390.3540;-68.7000;-66.4600;-2.2400
1390.5530;-68.7400;-66.6000;-2.1400
1390.7520;-68.7800;-66.5400;-2.2400
1390.9510;-69.0200;-66.7100;-2.3100
1391.1500;-69.0200;-66.7900;-2.2300
1391.3500;-69.3700;-66.8700;-2.5000
1391.5490;-69.5500;-67.0000;-2.5500
1391.7480;-69.6900;-67.0800;-2.6100
1391.9470;-70.0800;-67.1600;-2.9200
1392.1460;-70.6500;-67.3600;-3.2900
1392.3450;-71.1000;-67.5300;-3.5700
1392.5440;-71.7900;-67.9900;-3.8000
1392.7430;-72.3300;-68.2400;-4.0900
1392.9430;-72.4500;-68.1900;-4.2600
1393.1420;-73.3400;-68.0800;-5.2600
1393.3410;-73.3800;-67.8300;-5.5500
1393.5400;-73.4600;-67.8600;-5.6000
1393.7390;-73.9400;-67.8300;-6.1100
1393.9380;-74.3700;-67.9200;-6.4500
1394.1370;-74.7600;-68.1100;-6.6500
1394.3360;-75.9000;-68.1800;-7.7200
1394.5350;-75.5200;-68.2200;-7.3000
1394.7350;-76.1300;-68.3800;-7.7500
1394.9340;-75.9800;-68.6200;-7.3600
1395.1330;-76.5900;-68.9200;-7.6700
1395.3320;-76.3700;-69.0000;-7.3700
1395.5310;-75.7300;-69.2600;-6.4700
1395.7300;-75.6000;-69.2000;-6.4000
1395.9290;-75.3800;-69.1200;-6.2600
1396.1280;-74.6500;-69.2000;-5.4500
1396.3270;-74.8300;-69.3200;-5.5100
1396.5270;-74.4800;-69.6400;-4.8400
1396.7260;-74.3900;-69.8000;-4.5900
1396.9250;-73.6900;-69.8000;-3.8900
1397.1240;-73.3900;-69.5500;-3.8400
1397.3230;-72.6000;-69.5200;-3.0800
1397.5220;-72.8300;-69.5200;-3.3100
1397.7210;-72.5100;-69.4600;-3.0500
1397.9200;-72.5500;-69.5900;-2.9600
1398.1200;-72.3400;-69.8000;-2.5400
1398.3190;-72.2000;-69.7200;-2.4800
1398.5180;-71.9600;-69.6900;-2.2700
1398.7170;-72.1000;-69.8400;-2.2600
1398.9160;-72.0200;-69.8300;-2.1900
1399.1150;-72.1200;-70.0800;-2.0400
1399.3140;-72.2400;-70.1700;-2.0700
1399.5130;-72.7400;-70.4300;-2.3100
1399.7120;-72.6800;-70.6800;-2.0000
1399.9120;-72.9400;-70.7500;-2.1900
1400.1110;-73.3500;-70.9500;-2.4000
1400.3100;-73.6400;-70.7100;-2.9300
1400.5090;-73.7000;-70.7700;-2.9300
1400.7080;-74.6000;-71.2500;-3.3500
1400.9070;-74.4900;-71.3400;-3.1500
1401.1060;-74.9200;-71.5100;-3.4100
1401.3050;-74.9400;-71.5600;-3.3800
1401.5040;-74.8300;-71.4400;-3.3900
1401.7040;-75.7400;-71.3800;-4.3600
1401.9030;-75.7100;-71.6000;-4.1100
1402.1020;-76.4500;-71.3900;-5.0600
1402.3010;-76.1900;-71.3800;-4.8100
1402.5000;-75.8400;-71.5400;-4.3000
1402.6990;-76.2300;-71.5900;-4.6400
1402.8980;-77.1000;-71.7300;-5.3700
1403.0970;-78.3000;-71.8300;-6.4700
1403.2970;-77.1900;-72.0500;-5.1400
1403.4960;-77.4000;-72.1600;-5.2400
1403.6950;-77.8800;-71.8300;-6.0500
1403.8940;-77.0800;-72.1700;-4.9100
1404.0930;-77.1400;-72.3100;-4.8300
1404.2920;-76.7100;-72.4400;-4.2700
1404.4910;-77.4000;-72.7300;-4.6700
1404.6900;-76.7400;-72.8000;-3.9400
1404.8890;-76.8100;-73.0400;-3.7700
1405.0890;-76.4600;-73.2800;-3.1800
1405.2880;-75.9300;-73.5400;-2.3900
1405.4870;-76.1100;-73.3400;-2.7700
1405.6860;-76.7800;-73.0200;-3.7600
1405.8850;-75.5300;-72.9400;-2.5900
1406.0840;-76.3300;-73.1300;-3.2000
1406.2830;-76.2300;-73.4200;-2.8100
1406.4820;-76.3500;-73.2200;-3.1300
1406.6810;-75.9400;-73.2800;-2.6600
1406.8810;-75.6300;-73.3900;-2.2400
1407.0800;-76.4900;-73.5000;-2.9900
1407.2790;-76.2000;-74.4200;-1.7800
1407.4780;-76.4100;-74.1900;-2.2200
1407.6770;-76.7900;-73.8000;-2.9900
1407.8760;-76.3600;-74.1500;-2.2100
1408.0750;-76.7700;-73.8700;-2.9000
1408.2740;-76.7200;-73.8700;-2.8500
1408.4740;-76.5100;-73.5900;-2.9200
1408.6730;-76.6100;-73.7600;-2.8500
1408.8720;-77.5400;-74.0100;-3.5300
1409.0710;-77.5800;-74.0400;-3.5400
1409.2700;-77.5800;-74.3000;-3.2800
1409.4690;-78.3400;-74.6900;-3.6500
1409.6680;-79.1600;-74.3600;-4.8000
1409.8670;-78.9500;-74.7000;-4.2500
1410.0660;-78.5500;-75.2200;-3.3300
1410.2660;-79.2500;-74.3600;-4.8900
1410.4650;-79.9400;-74.3000;-5.6400
1410.6640;-79.2500;-75.0900;-4.1600
1410.8630;-79.7300;-74.9700;-4.7600
1411.0620;-78.6000;-75.3600;-3.2400
1411.2610;-79.7600;-74.8700;-4.8900
1411.4600;-79.4500;-74.9200;-4.5300
1411.6590;-78.1800;-74.7200;-3.4600
1411.8580;-79.9400;-74.5600;-5.3800
1412.0580;-79.5200;-74.8000;-4.7200
1412.2570;-79.3200;-74.8800;-4.4400
1412.4560;-78.9500;-75.2000;-3.7500
1412.6550;-79.2200;-75.2200;-4.0000
1412.8540;-79.3200;-75.4200;-3.9000
1413.0530;-78.8300;-75.0100;-3.8200
1413.2520;-79.0100;-75.2500;-3.7600
1413.4510;-79.4500;-74.8100;-4.6400
1413.6500;-78.7800;-74.6700;-4.1100
1413.8500;-79.5300;-75.3900;-4.1400
1414.0490;-79.2000;-75.7400;-3.4600
1414.2480;-79.8800;-75.8600;-4.0200
1414.4470;-80.1100;-75.4100;-4.7000
1414.6460;-80.6400;-75.5500;-5.0900
1414.8450;-79.2600;-75.7400;-3.5200
1415.0440;-77.9700;-75.0100;-2.9600
1415.2430;-78.9000;-75.4700;-3.4300
1415.4430;-79.5300;-75.1100;-4.4200
1415.6420;-79.0500;-75.3100;-3.7400
1415.8410;-78.6400;-75.9200;-2.7200
1416.0400;-78.8400;-75.7100;-3.1300
1416.2390;-80.2300;-75.2100;-5.0200
1416.4380;-78.5600;-75.0800;-3.4800
1416.6370;-79.5300;-75.6200;-3.9100
1416.8360;-78.8400;-75.4400;-3.4000
1417.0350;-78.5600;-75.3400;-3.2200
1417.2350;-79.2000;-75.2200;-3.9800
1417.4340;-78.9300;-75.5500;-3.3800
1417.6330;-81.1100;-75.8600;-5.2500
1417.8320;-78.9000;-75.6900;-3.2100
1418.0310;-79.3000;-75.8300;-3.4700
1418.2300;-78.8100;-75.3100;-3.5000
1418.4290;-79.4900;-75.3200;-4.1700
1418.6280;-79.8800;-74.9900;-4.8900
1418.8270;-79.2300;-75.8900;-3.3400
1419.0270;-78.4200;-75.9600;-2.4600
1419.2260;-79.2300;-75.7700;-3.4600
1419.4250;-78.3500;-75.9900;-2.3600
1419.6240;-79.2600;-75.6000;-3.6600
1419.8230;-80.4300;-75.8100;-4.6200
1420.0220;-80.9600;-76.3000;-4.6600
1420.2210;-78.4800;-76.2100;-2.2700
1420.4200;-78.2900;-76.4300;-1.8600
1420.6200;-79.4300;-75.8600;-3.5700
1420.8190;-78.5600;-75.0600;-3.5000
1421.0180;-78.4500;-75.2000;-3.2500
1421.2170;-79.0200;-75.3600;-3.6600
1421.4160;-78.2900;-75.7700;-2.5200
1421.6150;-78.8800;-75.5600;-3.3200
1421.8140;-78.9700;-75.6300;-3.3400
1422.0130;-78.3000;-75.9900;-2.3100
1422.2120;-78.4900;-75.6400;-2.8500
1422.4120;-79.1500;-75.2800;-3.8700
1422.6110;-78.5700;-75.6700;-2.9000
1422.8100;-78.9100;-76.0000;-2.9100
1423.0090;-78.7300;-75.8200;-2.9100
1423.2080;-80.7900;-75.3300;-5.4600
1423.4070;-78.4100;-75.3500;-3.0600
1423.6060;-78.3000;-75.2900;-3.0100
1423.8050;-78.8500;-75.9900;-2.8600
1424.0040;-79.5000;-75.4200;-4.0800
1424.2040;-78.3600;-75.3200;-3.0400
1424.4030;-78.7600;-75.6100;-3.1500
1424.6020;-78.4300;-75.4400;-2.9900
1424.8010;-78.7900;-75.1900;-3.6000
1425.0000;-78.9700;-75.3300;-3.6400
