Wavelength;Intensity_Meas;Intensity_Ref;Difference_dB
1200.0000;-60.5400;-55.6000;-4.9400
1200.1990;-60.5400;-55.5600;-4.9800
1200.3980;-60.5400;-55.5400;-5.0000
1200.5970;-60.5400;-55.5000;-5.0400
1200.7970;-60.5000;-55.4800;-5.0200
1200.9960;-60.4500;-55.4400;-5.0100
1201.1950;-60.4400;-55.3900;-5.0500
1201.3940;-60.4700;-55.3500;-5.1200
1201.5930;-60.4400;-55.3200;-5.1200
1201.7920;-60.3700;-55.2800;-5.0900
1201.9910;-60.3200;-55.2100;-5.1100
1202.1900;-60.3600;-55.1600;-5.2000
1202.3890;-60.3400;-55.1100;-5.2300
1202.5890;-60.2600;-55.0800;-5.1800
1202.7880;-60.2000;-55.0100;-5.1900
1202.9870;-60.2000;-54.9400;-5.2600
1203.1860;-60.2100;-54.8900;-5.3200
1203.3850;-60.1400;-54.8700;-5.2700
1203.5840;-60.0900;-54.8100;-5.2800
1203.7830;-60.1200;-54.7500;-5.3700
1203.9820;-60.1600;-54.7200;-5.4400
1204.1810;-60.1400;-54.6800;-5.4600
1204.3810;-60.1200;-54.6400;-5.4800
1204.5800;-60.1900;-54.6000;-5.5900
1204.7790;-60.2100;-54.5800;-5.6300
1204.9780;-60.2300;-54.5500;-5.6800
1205.1770;-60.2300;-54.5100;-5.7200
1205.3760;-60.2300;-54.4800;-5.7500
1205.5750;-60.2800;-54.4600;-5.8200
1205.7740;-60.3100;-54.4400;-5.8700
1205.9740;-60.2600;-54.4400;-5.8200
1206.1730;-60.2300;-54.4100;-5.8200
1206.3720;-60.2200;-54.3800;-5.8400
1206.5710;-60.2200;-54.3500;-5.8700
1206.7700;-60.1700;-54.3400;-5.8300
1206.9690;-60.0700;-54.3100;-5.7600
1207.1680;-60.0400;-54.2700;-5.7700
1207.3670;-60.0000;-54.2400;-5.7600
1207.5660;-59.9100;-54.2200;-5.6900
1207.7660;-59.7800;-54.1900;-5.5900
1207.9650;-59.7100;-54.1500;-5.5600
1208.1640;-59.7000;-54.0900;-5.6100
1208.3630;-59.6000;-54.0700;-5.5300
1208.5620;-59.5200;-54.0300;-5.4900
1208.7610;-59.4200;-53.9700;-5.4500
1208.9600;-59.3500;-53.9200;-5.4300
1209.1590;-59.2800;-53.8600;-5.4200
1209.3580;-59.1700;-53.8200;-5.3500
1209.5580;-59.0800;-53.7600;-5.3200
1209.7570;-59.0100;-53.7100;-5.3000
1209.9560;-58.9600;-53.6500;-5.3100
1210.1550;-58.8600;-53.6100;-5.2500
1210.3540;-58.7200;-53.5700;-5.1500
1210.5530;-58.6700;-53.4900;-5.1800
1210.7520;-58.6200;-53.4400;-5.1800
1210.9510;-58.5600;-53.4100;-5.1500
1211.1500;-58.4900;-53.3500;-5.1400
1211.3500;-58.4300;-53.3100;-5.1200
1211.5490;-58.4500;-53.2600;-5.1900
1211.7480;-58.4300;-53.2300;-5.2000
1211.9470;-58.3800;-53.2100;-5.1700
1212.1460;-58.3700;-53.1600;-5.2100
1212.3450;-58.4100;-53.1200;-5.2900
1212.5440;-58.4600;-53.1000;-5.3600
1212.7430;-58.4700;-53.0700;-5.4000
1212.9430;-58.4800;-53.0300;-5.4500
1213.1420;-58.5400;-52.9900;-5.5500
1213.3410;-58.6000;-52.9800;-5.6200
1213.5400;-58.6300;-52.9500;-5.6800
1213.7390;-58.6500;-52.9000;-5.7500
1213.9380;-58.6700;-52.8700;-5.8000
1214.1370;-58.7300;-52.8300;-5.9000
1214.3360;-58.7200;-52.8000;-5.9200
1214.5350;-58.7100;-52.7600;-5.9500
1214.7350;-58.7000;-52.7100;-5.9900
1214.9340;-58.7100;-52.6600;-6.0500
1215.1330;-58.6900;-52.6200;-6.0700
1215.3320;-58.6100;-52.5800;-6.0300
1215.5310;-58.5600;-52.5100;-6.0500
1215.7300;-58.5500;-52.4500;-6.1000
1215.9290;-58.4700;-52.4200;-6.0500
1216.1280;-58.3600;-52.3500;-6.0100
1216.3270;-58.2700;-52.2900;-5.9800
1216.5270;-58.2200;-52.2300;-5.9900
1216.7260;-58.1200;-52.1700;-5.9500
1216.9250;-57.9800;-52.1200;-5.8600
1217.1240;-57.8600;-52.0500;-5.8100
1217.3230;-57.7500;-52.0000;-5.7500
1217.5220;-57.6600;-51.9400;-5.7200
1217.7210;-57.5100;-51.8900;-5.6200
1217.9200;-57.3600;-51.8400;-5.5200
1218.1200;-57.2600;-51.7700;-5.4900
1218.3190;-57.1500;-51.7400;-5.4100
1218.5180;-57.0300;-51.6900;-5.3400
1218.7170;-56.8900;-51.6500;-5.2400
1218.9160;-56.7900;-51.6100;-5.1800
1219.1150;-56.7400;-51.5600;-5.1800
1219.3140;-56.6300;-51.5400;-5.0900
1219.5130;-56.5400;-51.5000;-5.0400
1219.7120;-56.4900;-51.4500;-5.0400
1219.9120;-56.4600;-51.4200;-5.0400
1220.1110;-56.4200;-51.3900;-5.0300
1220.3100;-56.3600;-51.3500;-5.0100
1220.5090;-56.3600;-51.3000;-5.0600
1220.7080;-56.3700;-51.2600;-5.1100
1220.9070;-56.3600;-51.2200;-5.1400
1221.1060;-56.3600;-51.1600;-5.2000
1221.3050;-56.3600;-51.1200;-5.2400
1221.5040;-56.3900;-51.0400;-5.3500
1221.7040;-56.4100;-50.9900;-5.4200
1221.9030;-56.4000;-50.9400;-5.4600
1222.1020;-56.4300;-50.8600;-5.5700
1222.3010;-56.4600;-50.8100;-5.6500
1222.5000;-56.4700;-50.7300;-5.7400
1222.6990;-56.4800;-50.6700;-5.8100
1222.8980;-56.4900;-50.5900;-5.9000
1223.0970;-56.5100;-50.5100;-6.0000
1223.2970;-56.5000;-50.4600;-6.0400
1223.4960;-56.4800;-50.3700;-6.1100
1223.6950;-56.4600;-50.3000;-6.1600
1223.8940;-56.4500;-50.2400;-6.2100
1224.0930;-56.4400;-50.1600;-6.2800
1224.2920;-56.3700;-50.1100;-6.2600
1224.4910;-56.3000;-50.0200;-6.2800
1224.6900;-56.2500;-49.9600;-6.2900
1224.8890;-56.1600;-49.9000;-6.2600
1225.0890;-56.0600;-49.8400;-6.2200
1225.2880;-55.9300;-49.7800;-6.1500
1225.4870;-55.7900;-49.7100;-6.0800
1225.6860;-55.6700;-49.6600;-6.0100
1225.8850;-55.5100;-49.6200;-5.8900
1226.0840;-55.3600;-49.5500;-5.8100
1226.2830;-55.2200;-49.5100;-5.7100
1226.4820;-55.0700;-49.4400;-5.6300
1226.6810;-54.8900;-49.4000;-5.4900
1226.8810;-54.7300;-49.3500;-5.3800
1227.0800;-54.5900;-49.2800;-5.3100
1227.2790;-54.4600;-49.2400;-5.2200
1227.4780;-54.3100;-49.1700;-5.1400
1227.6770;-54.1700;-49.1100;-5.0600
1227.8760;-54.0700;-49.0500;-5.0200
1228.0750;-53.9700;-48.9800;-4.9900
1228.2740;-53.8600;-48.9200;-4.9400
1228.4740;-53.7800;-48.8400;-4.9400
1228.6730;-53.7100;-48.7700;-4.9400
1228.8720;-53.6400;-48.7000;-4.9400
1229.0710;-53.5800;-48.6200;-4.9600
1229.2700;-53.5300;-48.5500;-4.9800
1229.4690;-53.5100;-48.4500;-5.0600
1229.6680;-53.4800;-48.3800;-5.1000
1229.8670;-53.4500;-48.3000;-5.1500
1230.0660;-53.4600;-48.2100;-5.2500
1230.2660;-53.4600;-48.1300;-5.3300
1230.4650;-53.4600;-48.0400;-5.4200
1230.6640;-53.4800;-47.9600;-5.5200
1230.8630;-53.5300;-47.8900;-5.6400
1231.0620;-53.5900;-47.8100;-5.7800
1231.2610;-53.6300;-47.7600;-5.8700
1231.4600;-53.7000;-47.6800;-6.0200
1231.6590;-53.7600;-47.6200;-6.1400
1231.8580;-53.8200;-47.5500;-6.2700
1232.0580;-53.8800;-47.5000;-6.3800
1232.2570;-53.9100;-47.4400;-6.4700
1232.4560;-53.9700;-47.3700;-6.6000
1232.6550;-53.9800;-47.3200;-6.6600
1232.8540;-53.9800;-47.2500;-6.7300
1233.0530;-53.9800;-47.2000;-6.7800
1233.2520;-53.9400;-47.1500;-6.7900
1233.4510;-53.8900;-47.0700;-6.8200
1233.6500;-53.8000;-47.0300;-6.7700
1233.8500;-53.6800;-46.9500;-6.7300
1234.0490;-53.5900;-46.8900;-6.7000
1234.2480;-53.4500;-46.8300;-6.6200
1234.4470;-53.3000;-46.7500;-6.5500
1234.6460;-53.1400;-46.6900;-6.4500
1234.8450;-52.9900;-46.6100;-6.3800
1235.0440;-52.8300;-46.5300;-6.3000
1235.2430;-52.6500;-46.4600;-6.1900
1235.4430;-52.5000;-46.3600;-6.1400
1235.6420;-52.3400;-46.2900;-6.0500
1235.8410;-52.1700;-46.1900;-5.9800
1236.0400;-52.0300;-46.1100;-5.9200
1236.2390;-51.8900;-46.0200;-5.8700
1236.4380;-51.7600;-45.9100;-5.8500
1236.6370;-51.6300;-45.8300;-5.8000
1236.8360;-51.5200;-45.7400;-5.7800
1237.0350;-51.4300;-45.6700;-5.7600
1237.2350;-51.3200;-45.5700;-5.7500
1237.4340;-51.2400;-45.4700;-5.7700
1237.6330;-51.1600;-45.3900;-5.7700
1237.8320;-51.1100;-45.3100;-5.8000
1238.0310;-51.0500;-45.2400;-5.8100
1238.2300;-50.9900;-45.1500;-5.8400
1238.4290;-50.9500;-45.0700;-5.8800
1238.6280;-50.9100;-45.0000;-5.9100
1238.8270;-50.8600;-44.9100;-5.9500
1239.0270;-50.8300;-44.8500;-5.9800
1239.2260;-50.7800;-44.7500;-6.0300
1239.4250;-50.7400;-44.6700;-6.0700
1239.6240;-50.6700;-44.6000;-6.0700
1239.8230;-50.6000;-44.5100;-6.0900
1240.0220;-50.5300;-44.4400;-6.0900
1240.2210;-50.4300;-44.3400;-6.0900
1240.4200;-50.3300;-44.2500;-6.0800
1240.6200;-50.2100;-44.1600;-6.0500
1240.8190;-50.0900;-44.0600;-6.0300
1241.0180;-49.9300;-43.9600;-5.9700
1241.2170;-49.7800;-43.8500;-5.9300
1241.4160;-49.6400;-43.7400;-5.9000
1241.6150;-49.4700;-43.6200;-5.8500
1241.8140;-49.3100;-43.5000;-5.8100
1242.0130;-49.1600;-43.4000;-5.7600
1242.2120;-49.0200;-43.2700;-5.7500
1242.4120;-48.8900;-43.1500;-5.7400
1242.6110;-48.7500;-43.0300;-5.7200
1242.8100;-48.6500;-42.9000;-5.7500
1243.0090;-48.5400;-42.7800;-5.7600
1243.2080;-48.4600;-42.6500;-5.8100
1243.4070;-48.4100;-42.5300;-5.8800
1243.6060;-48.3500;-42.4000;-5.9500
1243.8050;-48.3200;-42.2800;-6.0400
1244.0040;-48.3000;-42.1600;-6.1400
1244.2040;-48.3100;-42.0300;-6.2800
1244.4030;-48.3400;-41.9100;-6.4300
1244.6020;-48.3500;-41.7900;-6.5600
1244.8010;-48.4000;-41.6700;-6.7300
1245.0000;-48.4400;-41.5700;-6.8700
1245.1990;-48.4900;-41.4400;-7.0500
1245.3980;-48.5500;-41.3300;-7.2200
1245.5970;-48.5700;-41.2000;-7.3700
1245.7970;-48.6000;-41.0800;-7.5200
1245.9960;-48.5700;-40.9700;-7.6000
1246.1950;-48.5300;-40.8400;-7.6900
1246.3940;-48.4700;-40.7200;-7.7500
1246.5930;-48.3300;-40.5800;-7.7500
1246.7920;-48.1500;-40.4600;-7.6900
1246.9910;-47.9100;-40.3300;-7.5800
1247.1900;-47.6200;-40.1900;-7.4300
1247.3890;-47.3000;-40.0500;-7.2500
1247.5890;-46.9000;-39.9100;-6.9900
1247.7880;-46.5100;-39.7700;-6.7400
1247.9870;-46.0600;-39.6400;-6.4200
1248.1860;-45.5400;-39.4900;-6.0500
1248.3850;-45.1600;-39.3500;-5.8100
1248.5840;-44.7100;-39.2000;-5.5100
1248.7830;-44.2800;-39.0500;-5.2300
1248.9820;-43.8400;-38.9300;-4.9100
1249.1810;-43.4400;-38.7700;-4.6700
1249.3810;-43.0500;-38.6400;-4.4100
1249.5800;-42.6700;-38.5000;-4.1700
1249.7790;-42.3500;-38.3600;-3.9900
1249.9780;-42.0300;-38.2200;-3.8100
1250.1770;-41.7500;-38.0800;-3.6700
1250.3760;-41.5000;-37.9500;-3.5500
1250.5750;-41.2700;-37.8100;-3.4600
1250.7740;-41.0900;-37.6800;-3.4100
1250.9740;-40.9300;-37.5700;-3.3600
1251.1730;-40.8000;-37.4300;-3.3700
1251.3720;-40.7000;-37.3000;-3.4000
1251.5710;-40.6400;-37.1800;-3.4600
1251.7700;-40.6200;-37.0400;-3.5800
1251.9690;-40.6100;-36.9200;-3.6900
1252.1680;-40.6600;-36.7700;-3.8900
1252.3670;-40.7200;-36.6500;-4.0700
1252.5660;-40.8400;-36.5200;-4.3200
1252.7660;-41.0000;-36.3800;-4.6200
1252.9650;-41.2000;-36.2600;-4.9400
1253.1640;-41.4500;-36.1100;-5.3400
1253.3630;-41.7300;-35.9700;-5.7600
1253.5620;-42.0800;-35.8000;-6.2800
1253.7610;-42.4800;-35.6900;-6.7900
1253.9600;-42.9100;-35.5400;-7.3700
1254.1590;-43.4100;-35.4000;-8.0100
1254.3580;-43.9100;-35.2500;-8.6600
1254.5580;-44.4500;-35.1100;-9.3400
1254.7570;-44.9600;-34.9700;-9.9900
1254.9560;-45.3700;-34.8100;-10.5600
1255.1550;-45.6700;-34.6700;-11.0000
1255.3540;-45.7000;-34.5400;-11.1600
1255.5530;-45.5000;-34.4000;-11.1000
1255.7520;-45.0400;-34.2700;-10.7700
1255.9510;-44.3700;-34.1200;-10.2500
1256.1500;-43.5900;-34.0000;-9.5900
1256.3500;-42.7200;-33.8600;-8.8600
1256.5490;-41.8500;-33.7300;-8.1200
1256.7480;-41.0000;-33.6200;-7.3800
1256.9470;-40.1800;-33.4700;-6.7100
1257.1460;-39.4100;-33.3500;-6.0600
1257.3450;-38.6600;-33.2300;-5.4300
1257.5440;-38.0000;-33.1000;-4.9000
1257.7430;-37.3600;-32.9900;-4.3700
1257.9430;-36.7600;-32.8400;-3.9200
1258.1420;-36.2300;-32.7300;-3.5000
1258.3410;-35.6200;-32.5900;-3.0300
1258.5400;-35.2700;-32.4700;-2.8000
1258.7390;-34.8300;-32.3500;-2.4800
1258.9380;-34.4500;-32.2000;-2.2500
1259.1370;-34.1000;-32.0800;-2.0200
1259.3360;-33.7800;-31.9300;-1.8500
1259.5350;-33.5200;-31.8000;-1.7200
1259.7350;-33.2600;-31.6700;-1.5900
1259.9340;-33.0500;-31.5200;-1.5300
1260.1330;-32.8800;-31.4000;-1.4800
1260.3320;-32.7300;-31.2600;-1.4700
1260.5310;-32.6500;-31.1300;-1.5200
1260.7300;-32.5600;-31.0000;-1.5600
1260.9290;-32.5200;-30.8600;-1.6600
1261.1280;-32.5100;-30.7300;-1.7800
1261.3270;-32.5400;-30.5900;-1.9500
1261.5270;-32.6200;-30.4700;-2.1500
1261.7260;-32.7000;-30.3500;-2.3500
1261.9250;-32.8300;-30.2100;-2.6200
1262.1240;-32.9800;-30.0900;-2.8900
1262.3230;-33.1600;-29.9600;-3.2000
1262.5220;-33.3800;-29.8500;-3.5300
1262.7210;-33.6000;-29.7300;-3.8700
1262.9200;-33.8400;-29.6000;-4.2400
1263.1200;-34.0700;-29.4800;-4.5900
1263.3190;-34.3100;-29.3500;-4.9600
1263.5180;-34.5500;-29.2300;-5.3200
1263.7170;-34.7400;-29.1200;-5.6200
1263.9160;-34.8800;-28.9900;-5.8900
1264.1150;-34.9500;-28.8700;-6.0800
1264.3140;-34.9400;-28.7400;-6.2000
1264.5130;-34.8500;-28.6200;-6.2300
1264.7120;-34.6400;-28.5000;-6.1400
1264.9120;-34.3600;-28.3600;-6.0000
1265.1110;-33.9900;-28.2400;-5.7500
1265.3100;-33.5700;-28.1000;-5.4700
1265.5090;-33.1300;-27.9900;-5.1400
1265.7080;-32.6400;-27.8600;-4.7800
1265.9070;-32.1600;-27.7300;-4.4300
1266.1060;-31.6700;-27.6100;-4.0600
1266.3050;-31.2100;-27.4800;-3.7300
1266.5040;-30.7800;-27.3700;-3.4100
1266.7040;-30.3600;-27.2500;-3.1100
1266.9030;-29.9900;-27.1200;-2.8700
1267.1020;-29.6300;-27.0200;-2.6100
1267.3010;-29.3100;-26.8900;-2.4200
1267.5000;-29.0500;-26.7900;-2.2600
1267.6990;-28.8000;-26.6800;-2.1200
1267.8980;-28.6100;-26.5600;-2.0500
1268.0970;-28.4400;-26.4700;-1.9700
1268.2970;-28.3100;-26.3400;-1.9700
1268.4960;-28.2300;-26.2500;-1.9800
1268.6950;-28.1600;-26.1300;-2.0300
1268.8940;-28.1500;-26.0100;-2.1400
1269.0930;-28.1600;-25.9100;-2.2500
1269.2920;-28.2100;-25.8000;-2.4100
1269.4910;-28.3300;-25.7100;-2.6200
1269.6900;-28.4700;-25.5900;-2.8800
1269.8890;-28.6700;-25.4900;-3.1800
1270.0890;-28.9100;-25.3700;-3.5400
1270.2880;-29.2100;-25.2600;-3.9500
1270.4870;-29.5800;-25.1700;-4.4100
1270.6860;-30.0100;-25.0500;-4.9600
1270.8850;-30.5200;-24.9400;-5.5800
1271.0840;-31.0900;-24.8200;-6.2700
1271.2830;-31.7600;-24.7200;-7.0400
1271.4820;-32.5100;-24.6200;-7.8900
1271.6810;-33.3400;-24.5000;-8.8400
1271.8810;-34.2600;-24.4100;-9.8500
1272.0800;-35.1600;-24.2900;-10.8700
1272.2790;-35.9800;-24.1900;-11.7900
1272.4780;-36.5400;-24.0900;-12.4500
1272.6770;-36.6800;-23.9900;-12.6900
1272.8760;-36.3100;-23.9000;-12.4100
1273.0750;-35.5000;-23.7900;-11.7100
1273.2740;-34.4700;-23.7000;-10.7700
1273.4740;-33.3300;-23.6100;-9.7200
1273.6730;-32.2200;-23.5100;-8.7100
1273.8720;-31.1800;-23.4200;-7.7600
1274.0710;-30.2000;-23.3200;-6.8800
1274.2700;-29.3300;-23.2300;-6.1000
1274.4690;-28.5000;-23.1500;-5.3500
1274.6680;-27.7600;-23.0500;-4.7100
1274.8670;-27.1000;-22.9700;-4.1300
1275.0660;-26.4900;-22.8700;-3.6200
1275.2660;-25.8500;-22.7700;-3.0800
1275.4650;-25.4400;-22.6800;-2.7600
1275.6640;-25.0200;-22.5800;-2.4400
1275.8630;-24.6100;-22.5000;-2.1100
1276.0620;-24.2600;-22.3900;-1.8700
1276.2610;-23.9500;-22.3000;-1.6500
1276.4600;-23.6900;-22.2100;-1.4800
1276.6590;-23.4700;-22.1000;-1.3700
1276.8580;-23.2800;-22.0200;-1.2600
1277.0580;-23.1500;-21.9200;-1.2300
1277.2570;-23.0600;-21.8300;-1.2300
1277.4560;-23.0000;-21.7400;-1.2600
1277.6550;-23.0100;-21.6500;-1.3600
1277.8540;-23.0200;-21.5700;-1.4500
1278.0530;-23.1000;-21.4700;-1.6300
1278.2520;-23.2200;-21.3900;-1.8300
1278.4510;-23.3800;-21.3000;-2.0800
1278.6500;-23.6000;-21.2200;-2.3800
1278.8500;-23.8400;-21.1400;-2.7000
1279.0490;-24.1600;-21.0500;-3.1100
1279.2480;-24.5200;-20.9800;-3.5400
1279.4470;-24.9300;-20.8900;-4.0400
1279.6460;-25.4300;-20.8100;-4.6200
1279.8450;-25.9800;-20.7400;-5.2400
1280.0440;-26.6100;-20.6500;-5.9600
1280.2430;-27.3000;-20.5900;-6.7100
1280.4430;-28.0800;-20.5000;-7.5800
1280.6420;-29.1200;-20.4300;-8.6900
1280.8410;-29.8500;-20.3500;-9.5000
1281.0400;-30.7400;-20.2700;-10.4700
1281.2390;-31.5100;-20.2000;-11.3100
1281.4380;-32.0100;-20.1200;-11.8900
1281.6370;-32.0500;-20.0500;-12.0000
1281.8360;-31.6100;-19.9700;-11.6400
1282.0350;-30.8000;-19.8900;-10.9100
1282.2350;-29.7700;-19.8300;-9.9400
1282.4340;-28.6800;-19.7400;-8.9400
1282.6330;-27.6100;-19.6800;-7.9300
1282.8320;-26.5900;-19.6100;-6.9800
1283.0310;-25.5000;-19.5300;-5.9700
1283.2300;-24.8000;-19.4700;-5.3300
1283.4290;-24.0400;-19.4000;-4.6400
1283.6280;-23.3300;-19.3300;-4.0000
1283.8270;-22.7000;-19.2600;-3.4400
1284.0270;-22.1200;-19.1900;-2.9300
1284.2260;-21.6100;-19.1300;-2.4800
1284.4250;-21.1600;-19.0600;-2.1000
1284.6240;-20.7400;-19.0000;-1.7400
1284.8230;-20.4000;-18.9300;-1.4700
1285.0220;-20.0700;-18.8600;-1.2100
1285.2210;-19.8000;-18.8000;-1.0000
1285.4200;-19.5700;-18.7300;-0.8400
1285.6200;-19.3800;-18.6700;-0.7100
1285.8190;-19.2500;-18.5900;-0.6600
1286.0180;-19.1300;-18.5300;-0.6000
1286.2170;-19.0600;-18.4700;-0.5900
1286.4160;-19.0200;-18.3900;-0.6300
1286.6150;-19.0300;-18.3400;-0.6900
1286.8140;-19.0900;-18.2700;-0.8200
1287.0130;-19.1600;-18.2000;-0.9600
1287.2120;-19.2900;-18.1400;-1.1500
1287.4120;-19.4500;-18.0700;-1.3800
1287.6110;-19.6500;-18.0200;-1.6300
1287.8100;-19.9100;-17.9400;-1.9700
1288.0090;-20.1800;-17.8900;-2.2900
1288.2080;-20.5100;-17.8200;-2.6900
1288.4070;-20.8600;-17.7600;-3.1000
1288.6060;-21.2600;-17.7100;-3.5500
1288.8050;-21.7000;-17.6500;-4.0500
1289.0040;-22.1500;-17.6000;-4.5500
1289.2040;-22.6200;-17.5300;-5.0900
1289.4030;-23.0700;-17.4800;-5.5900
1289.6020;-23.4900;-17.4400;-6.0500
1289.8010;-23.8600;-17.3800;-6.4800
1290.0000;-24.1100;-17.3400;-6.7700
1290.1990;-24.2500;-17.2800;-6.9700
1290.3980;-24.2200;-17.2300;-6.9900
1290.5970;-24.0500;-17.2000;-6.8500
1290.7970;-23.7300;-17.1400;-6.5900
1290.9960;-23.2900;-17.1000;-6.1900
1291.1950;-22.7900;-17.0400;-5.7500
1291.3940;-22.2300;-17.0000;-5.2300
1291.5930;-21.6500;-16.9400;-4.7100
1291.7920;-21.0900;-16.9000;-4.1900
1291.9910;-20.5500;-16.8600;-3.6900
1292.1900;-20.0500;-16.8000;-3.2500
1292.3890;-19.5700;-16.7600;-2.8100
1292.5890;-19.1200;-16.7100;-2.4100
1292.7880;-18.7100;-16.6600;-2.0500
1292.9870;-18.3400;-16.6300;-1.7100
1293.1860;-18.0300;-16.5700;-1.4600
1293.3850;-17.7300;-16.5400;-1.1900
1293.5840;-17.4800;-16.4800;-1.0000
1293.7830;-17.2600;-16.4400;-0.8200
1293.9820;-17.0800;-16.4100;-0.6700
1294.1810;-16.9500;-16.3600;-0.5900
1294.3810;-16.8400;-16.3400;-0.5000
1294.5800;-16.7800;-16.2700;-0.5100
1294.7790;-16.7300;-16.2400;-0.4900
1294.9780;-16.7300;-16.2000;-0.5300
1295.1770;-16.7500;-16.1600;-0.5900
1295.3760;-16.8100;-16.1300;-0.6800
1295.5750;-16.9100;-16.0800;-0.8300
1295.7740;-17.0200;-16.0600;-0.9600
1295.9740;-17.1700;-16.0000;-1.1700
1296.1730;-17.3500;-15.9700;-1.3800
1296.3720;-17.5600;-15.9300;-1.6300
1296.5710;-17.8000;-15.8900;-1.9100
1296.7700;-18.0600;-15.8700;-2.1900
1296.9690;-18.3500;-15.8200;-2.5300
1297.1680;-18.6400;-15.8000;-2.8400
1297.3670;-18.9500;-15.7500;-3.2000
1297.5660;-19.2500;-15.7200;-3.5300
1297.7660;-19.5500;-15.6900;-3.8600
1297.9650;-19.8500;-15.6600;-4.1900
1298.1640;-20.0800;-15.6400;-4.4400
1298.3630;-20.2800;-15.6000;-4.6800
1298.5620;-20.4100;-15.5600;-4.8500
1298.7610;-20.4700;-15.5400;-4.9300
1298.9600;-20.4600;-15.5100;-4.9500
1299.1590;-20.3600;-15.5000;-4.8600
1299.3580;-20.1900;-15.4600;-4.7300
1299.5580;-19.9500;-15.4300;-4.5200
1299.7570;-19.6700;-15.4000;-4.2700
1299.9560;-19.3700;-15.3800;-3.9900
1300.1550;-19.0200;-15.3700;-3.6500
1300.3540;-18.7000;-15.3300;-3.3700
1300.5530;-18.3300;-15.3100;-3.0200
1300.7520;-18.0000;-15.2800;-2.7200
1300.9510;-17.7000;-15.2600;-2.4400
1301.1500;-17.4100;-15.2500;-2.1600
1301.3500;-17.1500;-15.2200;-1.9300
1301.5490;-16.9000;-15.2200;-1.6800
1301.7480;-16.6900;-15.1900;-1.5000
1301.9470;-16.5000;-15.1700;-1.3300
1302.1460;-16.3500;-15.1700;-1.1800
1302.3450;-16.2400;-15.1500;-1.0900
1302.5440;-16.1500;-15.1500;-1.0000
1302.7430;-16.1000;-15.1200;-0.9800
1302.9430;-16.0700;-15.1000;-0.9700
1303.1420;-16.1000;-15.1000;-1.0000
1303.3410;-16.1400;-15.0800;-1.0600
1303.5400;-16.2300;-15.0900;-1.1400
1303.7390;-16.3700;-15.0700;-1.3000
1303.9380;-16.5200;-15.0600;-1.4600
1304.1370;-16.7400;-15.0600;-1.6800
1304.3360;-16.9700;-15.0500;-1.9200
1304.5350;-17.2700;-15.0600;-2.2100
1304.7350;-17.6100;-15.0600;-2.5500
1304.9340;-17.9800;-15.0600;-2.9200
1305.1330;-18.5200;-15.0600;-3.4600
1305.3320;-18.9300;-15.0600;-3.8700
1305.5310;-19.4900;-15.0800;-4.4100
1305.7300;-20.0900;-15.0800;-5.0100
1305.9290;-20.7700;-15.0900;-5.6800
1306.1280;-21.5200;-15.1000;-6.4200
1306.3270;-22.3100;-15.1100;-7.2000
1306.5270;-23.1900;-15.1400;-8.0500
1306.7260;-24.0500;-15.1400;-8.9100
1306.9250;-24.9000;-15.1700;-9.7300
1307.1240;-25.6400;-15.1700;-10.4700
1307.3230;-26.1400;-15.1900;-10.9500
1307.5220;-26.3200;-15.2100;-11.1100
1307.7210;-26.0900;-15.2300;-10.8600
1307.9200;-25.5600;-15.2600;-10.3000
1308.1200;-24.8200;-15.2700;-9.5500
1308.3190;-23.9900;-15.2900;-8.7000
1308.5180;-23.1800;-15.3200;-7.8600
1308.7170;-22.3600;-15.3400;-7.0200
1308.9160;-21.6100;-15.3700;-6.2400
1309.1150;-20.9300;-15.3800;-5.5500
1309.3140;-20.3000;-15.4100;-4.8900
1309.5130;-19.7700;-15.4300;-4.3400
1309.7120;-19.2700;-15.4500;-3.8200
1309.9120;-18.8500;-15.4800;-3.3700
1310.1110;-18.4700;-15.5000;-2.9700
1310.3100;-18.1600;-15.5300;-2.6300
1310.5090;-17.9000;-15.5500;-2.3500
1310.7080;-17.6600;-15.5700;-2.0900
1310.9070;-17.5000;-15.5800;-1.9200
1311.1060;-17.3700;-15.6000;-1.7700
1311.3050;-17.2900;-15.6400;-1.6500
1311.5040;-17.2600;-15.6500;-1.6100
1311.7040;-17.2600;-15.6800;-1.5800
1311.9030;-17.3200;-15.6900;-1.6300
1312.1020;-17.4100;-15.7200;-1.6900
1312.3010;-17.5700;-15.7500;-1.8200
1312.5000;-17.7600;-15.7800;-1.9800
1312.6990;-18.0000;-15.8200;-2.1800
1312.8980;-18.3000;-15.8400;-2.4600
1313.0970;-18.6400;-15.8700;-2.7700
1313.2970;-19.0700;-15.9000;-3.1700
1313.4960;-19.5300;-15.9400;-3.5900
1313.6950;-20.0800;-15.9900;-4.0900
1313.8940;-20.6900;-16.0100;-4.6800
1314.0930;-21.3900;-16.0600;-5.3300
1314.2920;-22.2000;-16.1000;-6.1000
1314.4910;-23.1000;-16.1500;-6.9500
1314.6900;-24.1300;-16.2000;-7.9300
1314.8890;-25.3000;-16.2400;-9.0600
1315.0890;-26.6500;-16.3000;-10.3500
1315.2880;-28.1500;-16.3300;-11.8200
1315.4870;-30.0900;-16.3900;-13.7000
1315.6860;-31.2400;-16.4500;-14.7900
1315.8850;-32.0700;-16.5000;-15.5700
1316.0840;-31.8500;-16.5700;-15.2800
1316.2830;-30.6900;-16.6100;-14.0800
1316.4820;-29.2100;-16.6900;-12.5200
1316.6810;-27.7200;-16.7500;-10.9700
1316.8810;-26.3700;-16.8200;-9.5500
1317.0800;-25.0100;-16.9000;-8.1100
1317.2790;-24.1600;-16.9600;-7.2000
1317.4780;-23.2900;-17.0400;-6.2500
1317.6770;-22.5100;-17.1000;-5.4100
1317.8760;-21.8400;-17.1700;-4.6700
1318.0750;-21.2400;-17.2500;-3.9900
1318.2740;-20.7400;-17.3200;-3.4200
1318.4740;-20.3100;-17.4000;-2.9100
1318.6730;-19.9400;-17.4600;-2.4800
1318.8720;-19.6500;-17.5500;-2.1000
1319.0710;-19.3900;-17.6300;-1.7600
1319.2700;-19.1900;-17.7000;-1.4900
1319.4690;-19.0400;-17.7800;-1.2600
1319.6680;-18.9400;-17.8600;-1.0800
1319.8670;-18.8900;-17.9500;-0.9400
1320.0660;-18.8600;-18.0100;-0.8500
1320.2660;-18.9000;-18.0900;-0.8100
1320.4650;-18.9600;-18.1700;-0.7900
1320.6640;-19.0900;-18.2500;-0.8400
1320.8630;-19.2500;-18.3400;-0.9100
1321.0620;-19.4400;-18.4100;-1.0300
1321.2610;-19.7000;-18.5300;-1.1700
1321.4600;-19.9800;-18.5900;-1.3900
1321.6590;-20.3200;-18.6900;-1.6300
1321.8580;-20.7200;-18.7700;-1.9500
1322.0580;-21.1600;-18.8600;-2.3000
1322.2570;-21.6800;-18.9600;-2.7200
1322.4560;-22.2400;-19.0400;-3.2000
1322.6550;-22.8800;-19.1400;-3.7400
1322.8540;-23.5900;-19.2200;-4.3700
1323.0530;-24.3900;-19.3200;-5.0700
1323.2520;-25.3200;-19.4200;-5.9000
1323.4510;-26.3300;-19.5100;-6.8200
1323.6500;-27.5000;-19.6200;-7.8800
1323.8500;-29.1000;-19.7100;-9.3900
1324.0490;-30.3500;-19.8200;-10.5300
1324.2480;-32.0600;-19.9200;-12.1400
1324.4470;-33.9500;-20.0200;-13.9300
1324.6460;-35.7800;-20.1400;-15.6400
1324.8450;-36.9200;-20.2400;-16.6800
1325.0440;-36.6800;-20.3600;-16.3200
1325.2430;-35.3100;-20.4600;-14.8500
1325.4430;-33.6500;-20.5800;-13.0700
1325.6420;-32.0700;-20.7200;-11.3500
1325.8410;-30.7000;-20.8400;-9.8600
1326.0400;-29.5500;-20.9700;-8.5800
1326.2390;-28.5500;-21.0800;-7.4700
1326.4380;-27.7200;-21.2100;-6.5100
1326.6370;-26.9900;-21.3300;-5.6600
1326.8360;-26.3900;-21.4500;-4.9400
1327.0350;-25.8000;-21.5900;-4.2100
1327.2350;-25.4600;-21.7100;-3.7500
1327.4340;-25.1200;-21.8500;-3.2700
1327.6330;-24.8200;-21.9700;-2.8500
1327.8320;-24.6200;-22.1000;-2.5200
1328.0310;-24.4400;-22.2400;-2.2000
1328.2300;-24.3300;-22.3700;-1.9600
1328.4290;-24.2600;-22.5100;-1.7500
1328.6280;-24.2400;-22.6400;-1.6000
1328.8270;-24.2900;-22.7700;-1.5200
1329.0270;-24.3500;-22.9200;-1.4300
1329.2260;-24.4800;-23.0500;-1.4300
1329.4250;-24.6300;-23.1900;-1.4400
1329.6240;-24.8300;-23.3100;-1.5200
1329.8230;-25.0900;-23.4600;-1.6300
1330.0220;-25.3700;-23.6000;-1.7700
1330.2210;-25.7200;-23.7300;-1.9900
1330.4200;-26.1000;-23.8800;-2.2200
1330.6200;-26.5500;-24.0100;-2.5400
1330.8190;-27.0500;-24.1600;-2.8900
1331.0180;-27.6000;-24.3000;-3.3000
1331.2170;-28.2400;-24.4500;-3.7900
1331.4160;-29.0800;-24.6100;-4.4700
1331.6150;-29.7300;-24.7400;-4.9900
1331.8140;-30.5900;-24.9100;-5.6800
1332.0130;-31.5700;-25.0400;-6.5300
1332.2120;-32.6600;-25.2000;-7.4600
1332.4120;-33.9000;-25.3600;-8.5400
1332.6110;-35.3100;-25.5100;-9.8000
1332.8100;-36.8700;-25.6700;-11.2000
1333.0090;-39.0100;-25.8200;-13.1900
1333.2080;-40.4400;-25.9700;-14.4700
1333.4070;-41.9200;-26.1300;-15.7900
1333.6060;-42.4700;-26.2800;-16.1900
1333.8050;-41.8300;-26.4500;-15.3800
1334.0040;-40.4700;-26.6000;-13.8700
1334.2040;-38.9600;-26.7700;-12.1900
1334.4030;-37.5800;-26.9200;-10.6600
1334.6020;-36.1600;-27.0900;-9.0700
1334.8010;-35.3300;-27.2400;-8.0900
1335.0000;-34.4600;-27.4000;-7.0600
1335.1990;-33.7200;-27.5800;-6.1400
1335.3980;-33.0800;-27.7300;-5.3500
1335.5970;-32.5500;-27.9000;-4.6500
1335.7970;-32.1000;-28.0600;-4.0400
1335.9960;-31.7300;-28.2300;-3.5000
1336.1950;-31.4400;-28.4000;-3.0400
1336.3940;-31.1800;-28.5900;-2.5900
1336.5930;-30.9900;-28.7300;-2.2600
1336.7920;-30.8400;-28.8800;-1.9600
1336.9910;-30.7500;-29.0600;-1.6900
1337.1900;-30.7100;-29.2200;-1.4900
1337.3890;-30.7000;-29.3900;-1.3100
1337.5890;-30.7500;-29.5600;-1.1900
1337.7880;-30.8200;-29.7200;-1.1000
1337.9870;-30.9400;-29.9000;-1.0400
1338.1860;-31.0900;-30.0600;-1.0300
1338.3850;-31.2700;-30.2400;-1.0300
1338.5840;-31.5000;-30.4000;-1.1000
1338.7830;-31.7400;-30.5700;-1.1700
1338.9820;-32.0400;-30.7400;-1.3000
1339.1810;-32.3600;-30.9100;-1.4500
1339.3810;-32.7100;-31.1000;-1.6100
1339.5800;-33.1000;-31.2600;-1.8400
1339.7790;-33.5000;-31.4400;-2.0600
1339.9780;-33.9500;-31.6100;-2.3400
1340.1770;-34.4100;-31.7900;-2.6200
1340.3760;-34.9000;-31.9800;-2.9200
1340.5750;-35.4100;-32.1600;-3.2500
1340.7740;-35.9100;-32.3400;-3.5700
1340.9740;-36.4200;-32.5000;-3.9200
1341.1730;-36.9000;-32.6800;-4.2200
1341.3720;-37.3800;-32.8700;-4.5100
1341.5710;-37.8200;-33.0400;-4.7800
1341.7700;-38.2100;-33.2300;-4.9800
1341.9690;-38.6300;-33.4000;-5.2300
1342.1680;-38.8400;-33.5800;-5.2600
1342.3670;-39.0300;-33.7500;-5.2800
1342.5660;-39.1500;-33.9300;-5.2200
1342.7660;-39.2300;-34.1200;-5.1100
1342.9650;-39.2200;-34.2900;-4.9300
1343.1640;-39.1900;-34.4800;-4.7100
1343.3630;-39.1100;-34.6600;-4.4500
1343.5620;-39.0200;-34.8300;-4.1900
1343.7610;-38.9300;-35.0200;-3.9100
1343.9600;-38.8400;-35.1900;-3.6500
1344.1590;-38.7700;-35.3900;-3.3800
1344.3580;-38.6900;-35.5600;-3.1300
1344.5580;-38.6500;-35.7400;-2.9100
1344.7570;-38.6400;-35.9300;-2.7100
1344.9560;-38.6300;-36.0900;-2.5400
1345.1550;-38.6800;-36.2700;-2.4100
1345.3540;-38.7300;-36.4300;-2.3000
1345.5530;-38.8300;-36.6100;-2.2200
1345.7520;-38.9600;-36.7700;-2.1900
1345.9510;-39.1200;-36.9500;-2.1700
1346.1500;-39.3400;-37.1300;-2.2100
1346.3500;-39.5700;-37.3100;-2.2600
1346.5490;-39.8600;-37.5000;-2.3600
1346.7480;-40.1700;-37.6700;-2.5000
1346.9470;-40.5100;-37.8400;-2.6700
1347.1460;-40.9200;-38.0100;-2.9100
1347.3450;-41.3200;-38.1600;-3.1600
1347.5440;-41.8400;-38.3800;-3.4600
1347.7430;-42.4000;-38.6500;-3.7500
1347.9430;-43.0000;-38.8100;-4.1900
1348.1420;-43.6400;-38.9800;-4.6600
1348.3410;-44.3200;-39.1600;-5.1600
1348.5400;-45.0400;-39.3100;-5.7300
1348.7390;-45.7900;-39.4700;-6.3200
1348.9380;-46.6200;-39.6400;-6.9800
1349.1370;-47.5000;-39.7900;-7.7100
1349.3360;-48.6100;-39.9400;-8.6700
1349.5350;-49.3600;-40.1100;-9.2500
1349.7350;-50.2500;-40.2600;-9.9900
1349.9340;-51.0800;-40.4500;-10.6300
1350.1330;-51.7500;-40.6300;-11.1200
1350.3320;-52.2100;-40.8800;-11.3300
1350.5310;-52.3200;-41.0900;-11.2300
1350.7300;-52.1000;-41.2600;-10.8400
1350.9290;-51.6300;-41.4200;-10.2100
1351.1280;-51.0000;-41.5300;-9.4700
1351.3270;-50.3800;-41.6900;-8.6900
1351.5270;-49.7600;-41.8600;-7.9000
1351.7260;-49.2400;-42.0900;-7.1500
1351.9250;-48.7000;-42.2900;-6.4100
1352.1240;-48.2000;-42.4500;-5.7500
1352.3230;-47.7900;-42.6300;-5.1600
1352.5220;-47.4600;-42.8300;-4.6300
1352.7210;-47.1200;-42.9800;-4.1400
1352.9200;-46.8300;-43.1300;-3.7000
1353.1200;-46.7100;-43.3800;-3.3300
1353.3190;-46.5000;-43.4900;-3.0100
1353.5180;-46.3400;-43.6500;-2.6900
1353.7170;-46.3000;-43.8300;-2.4700
1353.9160;-46.2000;-43.9200;-2.2800
1354.1150;-46.1900;-44.0600;-2.1300
1354.3140;-46.2700;-44.2700;-2.0000
1354.5130;-46.3700;-44.4600;-1.9100
1354.7120;-46.6200;-44.7700;-1.8500
1354.9120;-46.8800;-45.0300;-1.8500
1355.1110;-47.1000;-45.2100;-1.8900
1355.3100;-47.2700;-45.3100;-1.9600
1355.5090;-47.3900;-45.3000;-2.0900
1355.7080;-47.7200;-45.5700;-2.1500
1355.9070;-48.1500;-45.8200;-2.3300
1356.1060;-48.6000;-45.9800;-2.6200
1356.3050;-48.8800;-46.0400;-2.8400
1356.5040;-49.2600;-46.1300;-3.1300
1356.7040;-49.4600;-46.0400;-3.4200
1356.9030;-49.9200;-46.1800;-3.7400
1357.1020;-50.6000;-46.5600;-4.0400
1357.3010;-51.2300;-46.7600;-4.4700
1357.5000;-51.8600;-46.9400;-4.9200
1357.6990;-52.4500;-47.0900;-5.3600
1357.8980;-52.9900;-47.1300;-5.8600
1358.0970;-53.4300;-47.1900;-6.2400
1358.2970;-54.0000;-47.3600;-6.6400
1358.4960;-54.5600;-47.5900;-6.9700
1358.6950;-54.9500;-47.7100;-7.2400
1358.8940;-55.2700;-47.8600;-7.4100
1359.0930;-55.4300;-47.9900;-7.4400
1359.2920;-55.4000;-48.0200;-7.3800
1359.4910;-55.5400;-48.4000;-7.1400
1359.6900;-55.5600;-48.7400;-6.8200
1359.8890;-55.3200;-48.8900;-6.4300
1360.0890;-54.9100;-48.9200;-5.9900
1360.2880;-54.5100;-48.9400;-5.5700
1360.4870;-54.0600;-48.9200;-5.1400
1360.6860;-53.7700;-49.0800;-4.6900
1360.8850;-53.6800;-49.4200;-4.2600
1361.0840;-53.5700;-49.7000;-3.8700
1361.2830;-53.3300;-49.8800;-3.4500
1361.4820;-53.0900;-50.0100;-3.0800
1361.6810;-53.0400;-50.2300;-2.8100
1361.8810;-52.8800;-50.3500;-2.5300
1362.0800;-52.8600;-50.5700;-2.2900
1362.2790;-53.0200;-50.9900;-2.0300
1362.4780;-53.1400;-51.2200;-1.9200
1362.6770;-53.1200;-51.3500;-1.7700
1362.8760;-52.9000;-51.2200;-1.6800
1363.0750;-52.8000;-51.1400;-1.6600
1363.2740;-52.5200;-50.9000;-1.6200
1363.4740;-52.6100;-50.9800;-1.6300
1363.6730;-52.7300;-51.0700;-1.6600
1363.8720;-52.9300;-51.2000;-1.7300
1364.0710;-53.2400;-51.4200;-1.8200
1364.2700;-53.5600;-51.6000;-1.9600
1364.4690;-54.0100;-51.9100;-2.1000
1364.6680;-54.6900;-52.4200;-2.2700
1364.8670;-55.2100;-52.6400;-2.5700
1365.0660;-55.4900;-52.6200;-2.8700
1365.2660;-55.9500;-52.7600;-3.1900
1365.4650;-56.1700;-52.7000;-3.4700
1365.6640;-56.5900;-52.7700;-3.8200
1365.8630;-57.0400;-52.8000;-4.2400
1366.0620;-57.4300;-52.8100;-4.6200
1366.2610;-57.8100;-52.8000;-5.0100
1366.4600;-58.2500;-52.8800;-5.3700
1366.6590;-58.8800;-53.0300;-5.8500
1366.8580;-59.3500;-53.2700;-6.0800
1367.0580;-59.7700;-53.4100;-6.3600
1367.2570;-60.1300;-53.5200;-6.6100
1367.4560;-60.5000;-53.7900;-6.7100
1367.6550;-60.7100;-53.9700;-6.7400
1367.8540;-60.9300;-54.2600;-6.6700
1368.0530;-60.9000;-54.3600;-6.5400
1368.2520;-60.6700;-54.3500;-6.3200
1368.4510;-60.7200;-54.6900;-6.0300
1368.6500;-60.5300;-54.7800;-5.7500
1368.8500;-60.2300;-54.9000;-5.3300
1369.0490;-59.8300;-54.8600;-4.9700
1369.2480;-59.4600;-54.8400;-4.6200
1369.4470;-59.0400;-54.7700;-4.2700
1369.6460;-58.8200;-54.8700;-3.9500
1369.8450;-58.8400;-55.2100;-3.6300
1370.0440;-58.7700;-55.4100;-3.3600
1370.2430;-58.6200;-55.5500;-3.0700
1370.4430;-58.4300;-55.5900;-2.8400
1370.6420;-58.2500;-55.6200;-2.6300
1370.8410;-58.3700;-55.9300;-2.4400
1371.0400;-58.5000;-56.2100;-2.2900
1371.2390;-58.5600;-56.4200;-2.1400
1371.4380;-58.4700;-56.4000;-2.0700
1371.6370;-58.3800;-56.4000;-1.9800
1371.8360;-58.3000;-56.3600;-1.9400
1372.0350;-58.4800;-56.5700;-1.9100
1372.2350;-58.6900;-56.7800;-1.9100
1372.4340;-58.8500;-56.8900;-1.9600
1372.6330;-58.9900;-56.9800;-2.0100
1372.8320;-59.0800;-57.0000;-2.0800
1373.0310;-59.2300;-57.0700;-2.1600
1373.2300;-59.4600;-57.1800;-2.2800
1373.4290;-59.7500;-57.3500;-2.4000
1373.6280;-60.0000;-57.4800;-2.5200
1373.8270;-60.2600;-57.5700;-2.6900
1374.0270;-60.5300;-57.7000;-2.8300
1374.2260;-60.7800;-57.8000;-2.9800
1374.4250;-61.1100;-57.9700;-3.1400
1374.6240;-61.4100;-58.0900;-3.3200
1374.8230;-61.7600;-58.3000;-3.4600
1375.0220;-62.0600;-58.5500;-3.5100
1375.2210;-62.2700;-58.5900;-3.6800
1375.4200;-62.4500;-58.6900;-3.7600
1375.6200;-62.6000;-58.7800;-3.8200
1375.8190;-62.7200;-58.9100;-3.8100
1376.0180;-62.8700;-59.0600;-3.8100
1376.2170;-63.0200;-59.2300;-3.7900
1376.4160;-63.0900;-59.3400;-3.7500
1376.6150;-63.0800;-59.4400;-3.6400
1376.8140;-63.1700;-59.6300;-3.5400
1377.0130;-63.2800;-59.8800;-3.4000
1377.2120;-63.3400;-60.0700;-3.2700
1377.4120;-63.2800;-60.1500;-3.1300
1377.6110;-63.2400;-60.2300;-3.0100
1377.8100;-63.0400;-60.2300;-2.8100
1378.0090;-63.0000;-60.3000;-2.7000
1378.2080;-62.9400;-60.4300;-2.5100
1378.4070;-63.0100;-60.6000;-2.4100
1378.6060;-63.1800;-60.8600;-2.3200
1378.8050;-63.3900;-61.1800;-2.2100
1379.0040;-63.5000;-61.3200;-2.1800
1379.2040;-63.5200;-61.3700;-2.1500
1379.4030;-63.5100;-61.3500;-2.1600
1379.6020;-63.4900;-61.3700;-2.1200
1379.8010;-63.5500;-61.4100;-2.1400
1380.0000;-63.7900;-61.5700;-2.2200
1380.1990;-64.0300;-61.7500;-2.2800
1380.3980;-64.3400;-61.9400;-2.4000
1380.5970;-64.9900;-62.5300;-2.4600
1380.7970;-65.6700;-62.9800;-2.6900
1380.9960;-66.0500;-63.1600;-2.8900
1381.1950;-66.3000;-63.2000;-3.1000
1381.3940;-66.4500;-62.9600;-3.4900
1381.5930;-66.3700;-62.6800;-3.6900
1381.7920;-66.7700;-62.7200;-4.0500
1381.9910;-67.2300;-62.7800;-4.4500
1382.1900;-67.6600;-62.9000;-4.7600
1382.3890;-68.3700;-63.2200;-5.1500
1382.5890;-69.2100;-63.7800;-5.4300
1382.7880;-70.2000;-64.2900;-5.9100
1382.9870;-70.8200;-64.5200;-6.3000
1383.1860;-71.1100;-64.3000;-6.8100
1383.3850;-71.1900;-64.0900;-7.1000
1383.5840;-71.1100;-63.8900;-7.2200
1383.7830;-71.3500;-64.0000;-7.3500
1383.9820;-71.7000;-64.1200;-7.5800
1384.1810;-71.5700;-64.2000;-7.3700
1384.3810;-71.5300;-64.2300;-7.3000
1384.5800;-71.0900;-64.2100;-6.8800
1384.7790;-70.8200;-64.3500;-6.4700
1384.9780;-70.7400;-64.6000;-6.1400
1385.1770;-70.7300;-64.8600;-5.8700
1385.3760;-70.3800;-64.9400;-5.4400
1385.5750;-69.7700;-64.9400;-4.8300
1385.7740;-69.6100;-64.9300;-4.6800
1385.9740;-69.1600;-64.9400;-4.2200
1386.1730;-68.8700;-65.0100;-3.8600
1386.3720;-68.5500;-65.1700;-3.3800
1386.5710;-68.4900;-65.1500;-3.3400
1386.7700;-68.2000;-65.1500;-3.0500
1386.9690;-68.0900;-65.2700;-2.8200
1387.1680;-67.8500;-65.2700;-2.5800
1387.3670;-67.6600;-65.3100;-2.3500
1387.5660;-67.6800;-65.4500;-2.2300
1387.7660;-67.8700;-65.6700;-2.2000
1387.9650;-68.1100;-65.9700;-2.1400
1388.1640;-68.3600;-66.2100;-2.1500
1388.3630;-68.4900;-66.3200;-2.1700
1388.5620;-68.5400;-66.2400;-2.3000
1388.7610;-68.4600;-66.1100;-2.3500
1388.9600;-68.5000;-66.1800;-2.3200
1389.1590;-68.5000;-66.0800;-2.4200
1389.3580;-68.7900;-66.0400;-2.7500
1389.5580;-68.9900;-66.1600;-2.8300
1389.7570;-69.3800;-66.3000;-3.0800
1389.9560;-69.6800;-66.4100;-3.2700
1390.1550;-70.1900;-66.4700;-3.7200
1390.3540;-70.7200;-66.4600;-4.2600
1390.5530;-70.8600;-66.6000;-4.2600
1390.7520;-71.2100;-66.5400;-4.6700
1390.9510;-71.9600;-66.7100;-5.2500
1391.1500;-72.5000;-66.7900;-5.7100
1391.3500;-73.0000;-66.8700;-6.1300
1391.5490;-73.5500;-67.0000;-6.5500
1391.7480;-73.9400;-67.0800;-6.8600
1391.9470;-74.8500;-67.1600;-7.6900
1392.1460;-75.6000;-67.3600;-8.2400
1392.3450;-76.3900;-67.5300;-8.8600
1392.5440;-77.0500;-67.9900;-9.0600
1392.7430;-76.9300;-68.2400;-8.6900
1392.9430;-76.7000;-68.1900;-8.5100
1393.1420;-76.7000;-68.0800;-8.6200
1393.3410;-76.1400;-67.8300;-8.3100
1393.5400;-76.0400;-67.8600;-8.1800
1393.7390;-75.2400;-67.8300;-7.4100
1393.9380;-74.4300;-67.9200;-6.5100
1394.1370;-74.2000;-68.1100;-6.0900
1394.3360;-73.8300;-68.1800;-5.6500
1394.5350;-73.7200;-68.2200;-5.5000
1394.7350;-72.9200;-68.3800;-4.5400
1394.9340;-73.0000;-68.6200;-4.3800
1395.1330;-72.9900;-68.9200;-4.0700
1395.3320;-72.6700;-69.0000;-3.6700
1395.5310;-72.4100;-69.2600;-3.1500
1395.7300;-72.3000;-69.2000;-3.1000
1395.9290;-72.0900;-69.1200;-2.9700
1396.1280;-71.8700;-69.2000;-2.6700
1396.3270;-71.9200;-69.3200;-2.6000
1396.5270;-72.0400;-69.6400;-2.4000
1396.7260;-72.1300;-69.8000;-2.3300
1396.9250;-72.1900;-69.8000;-2.3900
1397.1240;-71.7600;-69.5500;-2.2100
1397.3230;-71.8100;-69.5200;-2.2900
1397.5220;-71.6300;-69.5200;-2.1100
1397.7210;-71.8400;-69.4600;-2.3800
1397.9200;-72.2700;-69.5900;-2.6800
1398.1200;-72.3400;-69.8000;-2.5400
1398.3190;-72.3500;-69.7200;-2.6300
1398.5180;-72.6300;-69.6900;-2.9400
1398.7170;-72.7800;-69.8400;-2.9400
1398.9160;-73.4800;-69.8300;-3.6500
1399.1150;-73.2900;-70.0800;-3.2100
1399.3140;-73.9800;-70.1700;-3.8100
1399.5130;-74.1800;-70.4300;-3.7500
1399.7120;-74.5400;-70.6800;-3.8600
1399.9120;-74.9200;-70.7500;-4.1700
1400.1110;-75.2600;-70.9500;-4.3100
1400.3100;-75.3900;-70.7100;-4.6800
1400.5090;-76.1500;-70.7700;-5.3800
1400.7080;-76.2000;-71.2500;-4.9500
1400.9070;-76.6200;-71.3400;-5.2800
1401.1060;-76.3800;-71.5100;-4.8700
1401.3050;-76.4100;-71.5600;-4.8500
1401.5040;-76.5000;-71.4400;-5.0600
1401.7040;-77.0800;-71.3800;-5.7000
1401.9030;-76.6500;-71.6000;-5.0500
1402.1020;-76.3100;-71.3900;-4.9200
1402.3010;-76.3300;-71.3800;-4.9500
1402.5000;-76.3100;-71.5400;-4.7700
1402.6990;-75.3700;-71.5900;-3.7800
1402.8980;-76.3600;-71.7300;-4.6300
1403.0970;-75.5100;-71.8300;-3.6800
1403.2970;-75.6800;-72.0500;-3.6300
1403.4960;-75.5000;-72.1600;-3.3400
1403.6950;-75.3900;-71.8300;-3.5600
1403.8940;-75.4500;-72.1700;-3.2800
1404.0930;-75.6000;-72.3100;-3.2900
1404.2920;-75.7500;-72.4400;-3.3100
1404.4910;-75.5100;-72.7300;-2.7800
1404.6900;-76.4100;-72.8000;-3.6100
1404.8890;-77.2100;-73.0400;-4.1700
1405.0890;-76.6000;-73.2800;-3.3200
1405.2880;-76.4800;-73.5400;-2.9400
1405.4870;-75.9900;-73.3400;-2.6500
1405.6860;-75.8400;-73.0200;-2.8200
1405.8850;-76.0800;-72.9400;-3.1400
1406.0840;-77.0600;-73.1300;-3.9300
1406.2830;-76.5000;-73.4200;-3.0800
1406.4820;-76.4100;-73.2200;-3.1900
1406.6810;-76.3400;-73.2800;-3.0600
1406.8810;-77.4500;-73.3900;-4.0600
1407.0800;-78.2300;-73.5000;-4.7300
1407.2790;-77.8500;-74.4200;-3.4300
1407.4780;-79.1300;-74.1900;-4.9400
1407.6770;-78.8300;-73.8000;-5.0300
1407.8760;-80.5000;-74.1500;-6.3500
1408.0750;-78.1300;-73.8700;-4.2600
1408.2740;-78.7400;-73.8700;-4.8700
1408.4740;-78.1300;-73.5900;-4.5400
1408.6730;-79.3500;-73.7600;-5.5900
1408.8720;-79.4500;-74.0100;-5.4400
1409.0710;-79.0100;-74.0400;-4.9700
1409.2700;-79.2500;-74.3000;-4.9500
1409.4690;-81.1000;-74.6900;-6.4100
1409.6680;-79.9100;-74.3600;-5.5500
1409.8670;-80.3400;-74.7000;-5.6400
1410.0660;-79.4800;-75.2200;-4.2600
1410.2660;-78.4100;-74.3600;-4.0500
1410.4650;-80.4200;-74.3000;-6.1200
1410.6640;-82.1400;-75.0900;-7.0500
1410.8630;-79.9100;-74.9700;-4.9400
1411.0620;-80.1000;-75.3600;-4.7400
1411.2610;-78.7100;-74.8700;-3.8400
1411.4600;-79.4500;-74.9200;-4.5300
1411.6590;-78.1100;-74.7200;-3.3900
1411.8580;-78.4400;-74.5600;-3.8800
1412.0580;-78.7700;-74.8000;-3.9700
1412.2570;-79.0100;-74.8800;-4.1300
1412.4560;-78.5500;-75.2000;-3.3500
1412.6550;-79.2500;-75.2200;-4.0300
1412.8540;-80.1000;-75.4200;-4.6800
1413.0530;-79.1000;-75.0100;-4.0900
1413.2520;-78.6600;-75.2500;-3.4100
1413.4510;-78.8600;-74.8100;-4.0500
1413.6500;-79.7400;-74.6700;-5.0700
1413.8500;-78.4500;-75.3900;-3.0600
1414.0490;-78.7000;-75.7400;-2.9600
1414.2480;-79.3000;-75.8600;-3.4400
1414.4470;-78.9600;-75.4100;-3.5500
1414.6460;-79.9200;-75.5500;-4.3700
1414.8450;-79.6300;-75.7400;-3.8900
1415.0440;-79.2600;-75.0100;-4.2500
1415.2430;-80.5600;-75.4700;-5.0900
1415.4430;-80.1500;-75.1100;-5.0400
1415.6420;-79.7400;-75.3100;-4.4300
1415.8410;-79.1700;-75.9200;-3.2500
1416.0400;-79.1400;-75.7100;-3.4300
1416.2390;-79.9900;-75.2100;-4.7800
1416.4380;-78.7800;-75.0800;-3.7000
1416.6370;-78.9600;-75.6200;-3.3400
1416.8360;-79.8400;-75.4400;-4.4000
1417.0350;-80.0700;-75.3400;-4.7300
1417.2350;-79.0200;-75.2200;-3.8000
1417.4340;-78.5300;-75.5500;-2.9800
1417.6330;-79.5300;-75.8600;-3.6700
1417.8320;-79.2600;-75.6900;-3.5700
1418.0310;-78.5300;-75.8300;-2.7000
1418.2300;-78.9000;-75.3100;-3.5900
1418.4290;-78.9900;-75.3200;-3.6700
1418.6280;-79.6700;-74.9900;-4.6800
1418.8270;-78.1700;-75.8900;-2.2800
1419.0270;-80.0300;-75.9600;-4.0700
1419.2260;-81.1500;-75.7700;-5.3800
1419.4250;-79.9900;-75.9900;-4.0000
1419.6240;-79.2000;-75.6000;-3.6000
1419.8230;-80.3500;-75.8100;-4.5400
1420.0220;-79.4300;-76.3000;-3.1300
1420.2210;-78.9300;-76.2100;-2.7200
1420.4200;-79.0200;-76.4300;-2.5900
1420.6200;-78.3200;-75.8600;-2.4600
1420.8190;-79.2600;-75.0600;-4.2000
1421.0180;-79.2600;-75.2000;-4.0600
1421.2170;-79.5300;-75.3600;-4.1700
1421.4160;-78.6100;-75.7700;-2.8400
1421.6150;-78.8800;-75.5600;-3.3200
1421.8140;-79.0300;-75.6300;-3.4000
1422.0130;-78.5100;-75.9900;-2.5200
1422.2120;-79.1800;-75.6400;-3.5400
1422.4120;-78.0600;-75.2800;-2.7800
1422.6110;-79.9300;-75.6700;-4.2600
1422.8100;-78.2000;-76.0000;-2.2000
1423.0090;-78.8500;-75.8200;-3.0300
1423.2080;-79.6400;-75.3300;-4.3100
1423.4070;-78.8500;-75.3500;-3.5000
1423.6060;-78.4100;-75.2900;-3.1200
1423.8050;-78.6800;-75.9900;-2.6900
1424.0040;-79.4400;-75.4200;-4.0200
1424.2040;-79.3700;-75.3200;-4.0500
1424.4030;-79.4700;-75.6100;-3.8600
1424.6020;-78.5700;-75.4400;-3.1300
1424.8010;-79.6400;-75.1900;-4.4500
1425.0000;-78.5100;-75.3300;-3.1800
