Wavelength;Intensity_Meas;Intensity_Ref;Difference_dB
1200.0000;-60.7200;-55.6000;-5.1200
1200.1990;-60.6600;-55.5600;-5.1000
1200.3980;-60.6300;-55.5400;-5.0900
1200.5970;-60.6100;-55.5000;-5.1100
1200.7970;-60.5700;-55.4800;-5.0900
1200.9960;-60.4600;-55.4400;-5.0200
1201.1950;-60.4000;-55.3900;-5.0100
1201.3940;-60.4000;-55.3500;-5.0500
1201.5930;-60.3700;-55.3200;-5.0500
1201.7920;-60.2700;-55.2800;-4.9900
1201.9910;-60.1900;-55.2100;-4.9800
1202.1900;-60.1500;-55.1600;-4.9900
1202.3890;-60.1400;-55.1100;-5.0300
1202.5890;-60.0500;-55.0800;-4.9700
1202.7880;-59.9400;-55.0100;-4.9300
1202.9870;-59.8900;-54.9400;-4.9500
1203.1860;-59.8400;-54.8900;-4.9500
1203.3850;-59.7800;-54.8700;-4.9100
1203.5840;-59.6600;-54.8100;-4.8500
1203.7830;-59.6100;-54.7500;-4.8600
1203.9820;-59.6200;-54.7200;-4.9000
1204.1810;-59.6000;-54.6800;-4.9200
1204.3810;-59.5500;-54.6400;-4.9100
1204.5800;-59.5000;-54.6000;-4.9000
1204.7790;-59.5300;-54.5800;-4.9500
1204.9780;-59.5700;-54.5500;-5.0200
1205.1770;-59.5300;-54.5100;-5.0200
1205.3760;-59.5500;-54.4800;-5.0700
1205.5750;-59.5900;-54.4600;-5.1300
1205.7740;-59.6400;-54.4400;-5.2000
1205.9740;-59.6600;-54.4400;-5.2200
1206.1730;-59.6300;-54.4100;-5.2200
1206.3720;-59.6700;-54.3800;-5.2900
1206.5710;-59.7400;-54.3500;-5.3900
1206.7700;-59.7500;-54.3400;-5.4100
1206.9690;-59.6700;-54.3100;-5.3600
1207.1680;-59.6400;-54.2700;-5.3700
1207.3670;-59.6900;-54.2400;-5.4500
1207.5660;-59.6800;-54.2200;-5.4600
1207.7660;-59.5900;-54.1900;-5.4000
1207.9650;-59.5600;-54.1500;-5.4100
1208.1640;-59.5600;-54.0900;-5.4700
1208.3630;-59.5400;-54.0700;-5.4700
1208.5620;-59.4500;-54.0300;-5.4200
1208.7610;-59.3800;-53.9700;-5.4100
1208.9600;-59.3600;-53.9200;-5.4400
1209.1590;-59.3300;-53.8600;-5.4700
1209.3580;-59.2300;-53.8200;-5.4100
1209.5580;-59.1200;-53.7600;-5.3600
1209.7570;-59.0500;-53.7100;-5.3400
1209.9560;-59.0600;-53.6500;-5.4100
1210.1550;-58.9500;-53.6100;-5.3400
1210.3540;-58.8200;-53.5700;-5.2500
1210.5530;-58.7400;-53.4900;-5.2500
1210.7520;-58.7200;-53.4400;-5.2800
1210.9510;-58.6600;-53.4100;-5.2500
1211.1500;-58.5100;-53.3500;-5.1600
1211.3500;-58.4200;-53.3100;-5.1100
1211.5490;-58.4100;-53.2600;-5.1500
1211.7480;-58.3700;-53.2300;-5.1400
1211.9470;-58.2700;-53.2100;-5.0600
1212.1460;-58.1900;-53.1600;-5.0300
1212.3450;-58.2100;-53.1200;-5.0900
1212.5440;-58.2000;-53.1000;-5.1000
1212.7430;-58.1300;-53.0700;-5.0600
1212.9430;-58.1100;-53.0300;-5.0800
1213.1420;-58.1300;-52.9900;-5.1400
1213.3410;-58.1600;-52.9800;-5.1800
1213.5400;-58.1200;-52.9500;-5.1700
1213.7390;-58.0800;-52.9000;-5.1800
1213.9380;-58.1200;-52.8700;-5.2500
1214.1370;-58.1500;-52.8300;-5.3200
1214.3360;-58.1200;-52.8000;-5.3200
1214.5350;-58.0700;-52.7600;-5.3100
1214.7350;-58.0800;-52.7100;-5.3700
1214.9340;-58.1200;-52.6600;-5.4600
1215.1330;-58.0700;-52.6200;-5.4500
1215.3320;-58.0000;-52.5800;-5.4200
1215.5310;-58.0000;-52.5100;-5.4900
1215.7300;-58.0100;-52.4500;-5.5600
1215.9290;-57.9800;-52.4200;-5.5600
1216.1280;-57.8900;-52.3500;-5.5400
1216.3270;-57.8600;-52.2900;-5.5700
1216.5270;-57.8500;-52.2300;-5.6200
1216.7260;-57.7900;-52.1700;-5.6200
1216.9250;-57.6900;-52.1200;-5.5700
1217.1240;-57.6100;-52.0500;-5.5600
1217.3230;-57.5700;-52.0000;-5.5700
1217.5220;-57.4900;-51.9400;-5.5500
1217.7210;-57.3500;-51.8900;-5.4600
1217.9200;-57.2300;-51.8400;-5.3900
1218.1200;-57.1500;-51.7700;-5.3800
1218.3190;-57.0600;-51.7400;-5.3200
1218.5180;-56.9000;-51.6900;-5.2100
1218.7170;-56.7500;-51.6500;-5.1000
1218.9160;-56.6800;-51.6100;-5.0700
1219.1150;-56.5800;-51.5600;-5.0200
1219.3140;-56.4400;-51.5400;-4.9000
1219.5130;-56.3100;-51.5000;-4.8100
1219.7120;-56.2400;-51.4500;-4.7900
1219.9120;-56.1900;-51.4200;-4.7700
1220.1110;-56.0700;-51.3900;-4.6800
1220.3100;-55.9800;-51.3500;-4.6300
1220.5090;-55.9100;-51.3000;-4.6100
1220.7080;-55.9100;-51.2600;-4.6500
1220.9070;-55.8200;-51.2200;-4.6000
1221.1060;-55.7300;-51.1600;-4.5700
1221.3050;-55.7200;-51.1200;-4.6000
1221.5040;-55.6900;-51.0400;-4.6500
1221.7040;-55.6600;-50.9900;-4.6700
1221.9030;-55.5900;-50.9400;-4.6500
1222.1020;-55.5600;-50.8600;-4.7000
1222.3010;-55.5800;-50.8100;-4.7700
1222.5000;-55.5300;-50.7300;-4.8000
1222.6990;-55.5000;-50.6700;-4.8300
1222.8980;-55.4900;-50.5900;-4.9000
1223.0970;-55.5100;-50.5100;-5.0000
1223.2970;-55.5100;-50.4600;-5.0500
1223.4960;-55.4800;-50.3700;-5.1100
1223.6950;-55.5200;-50.3000;-5.2200
1223.8940;-55.5600;-50.2400;-5.3200
1224.0930;-55.5700;-50.1600;-5.4100
1224.2920;-55.5900;-50.1100;-5.4800
1224.4910;-55.6100;-50.0200;-5.5900
1224.6900;-55.6700;-49.9600;-5.7100
1224.8890;-55.6600;-49.9000;-5.7600
1225.0890;-55.6600;-49.8400;-5.8200
1225.2880;-55.6600;-49.7800;-5.8800
1225.4870;-55.6700;-49.7100;-5.9600
1225.6860;-55.6300;-49.6600;-5.9700
1225.8850;-55.5600;-49.6200;-5.9400
1226.0840;-55.4900;-49.5500;-5.9400
1226.2830;-55.4500;-49.5100;-5.9400
1226.4820;-55.3200;-49.4400;-5.8800
1226.6810;-55.1800;-49.4000;-5.7800
1226.8810;-55.0800;-49.3500;-5.7300
1227.0800;-54.9500;-49.2800;-5.6700
1227.2790;-54.8100;-49.2400;-5.5700
1227.4780;-54.6200;-49.1700;-5.4500
1227.6770;-54.4800;-49.1100;-5.3700
1227.8760;-54.3600;-49.0500;-5.3100
1228.0750;-54.1800;-48.9800;-5.2000
1228.2740;-54.0200;-48.9200;-5.1000
1228.4740;-53.8700;-48.8400;-5.0300
1228.6730;-53.7500;-48.7700;-4.9800
1228.8720;-53.6000;-48.7000;-4.9000
1229.0710;-53.4300;-48.6200;-4.8100
1229.2700;-53.3200;-48.5500;-4.7700
1229.4690;-53.2000;-48.4500;-4.7500
1229.6680;-53.0600;-48.3800;-4.6800
1229.8670;-52.9300;-48.3000;-4.6300
1230.0660;-52.8300;-48.2100;-4.6200
1230.2660;-52.7600;-48.1300;-4.6300
1230.4650;-52.6500;-48.0400;-4.6100
1230.6640;-52.5500;-47.9600;-4.5900
1230.8630;-52.5300;-47.8900;-4.6400
1231.0620;-52.4900;-47.8100;-4.6800
1231.2610;-52.4600;-47.7600;-4.7000
1231.4600;-52.4300;-47.6800;-4.7500
1231.6590;-52.4500;-47.6200;-4.8300
1231.8580;-52.4700;-47.5500;-4.9200
1232.0580;-52.4700;-47.5000;-4.9700
1232.2570;-52.5000;-47.4400;-5.0600
1232.4560;-52.5600;-47.3700;-5.1900
1232.6550;-52.6000;-47.3200;-5.2800
1232.8540;-52.6200;-47.2500;-5.3700
1233.0530;-52.6500;-47.2000;-5.4500
1233.2520;-52.7200;-47.1500;-5.5700
1233.4510;-52.7200;-47.0700;-5.6500
1233.6500;-52.7200;-47.0300;-5.6900
1233.8500;-52.7200;-46.9500;-5.7700
1234.0490;-52.7200;-46.8900;-5.8300
1234.2480;-52.6900;-46.8300;-5.8600
1234.4470;-52.6200;-46.7500;-5.8700
1234.6460;-52.5800;-46.6900;-5.8900
1234.8450;-52.5300;-46.6100;-5.9200
1235.0440;-52.4300;-46.5300;-5.9000
1235.2430;-52.3400;-46.4600;-5.8800
1235.4430;-52.2400;-46.3600;-5.8800
1235.6420;-52.1500;-46.2900;-5.8600
1235.8410;-52.0200;-46.1900;-5.8300
1236.0400;-51.8900;-46.1100;-5.7800
1236.2390;-51.8000;-46.0200;-5.7800
1236.4380;-51.6700;-45.9100;-5.7600
1236.6370;-51.5300;-45.8300;-5.7000
1236.8360;-51.4000;-45.7400;-5.6600
1237.0350;-51.2900;-45.6700;-5.6200
1237.2350;-51.1800;-45.5700;-5.6100
1237.4340;-51.0200;-45.4700;-5.5500
1237.6330;-50.9300;-45.3900;-5.5400
1237.8320;-50.8400;-45.3100;-5.5300
1238.0310;-50.7300;-45.2400;-5.4900
1238.2300;-50.6400;-45.1500;-5.4900
1238.4290;-50.5600;-45.0700;-5.4900
1238.6280;-50.5100;-45.0000;-5.5100
1238.8270;-50.4300;-44.9100;-5.5200
1239.0270;-50.3800;-44.8500;-5.5300
1239.2260;-50.3600;-44.7500;-5.6100
1239.4250;-50.3200;-44.6700;-5.6500
1239.6240;-50.2800;-44.6000;-5.6800
1239.8230;-50.2400;-44.5100;-5.7300
1240.0220;-50.2200;-44.4400;-5.7800
1240.2210;-50.1800;-44.3400;-5.8400
1240.4200;-50.0900;-44.2500;-5.8400
1240.6200;-50.0400;-44.1600;-5.8800
1240.8190;-49.9500;-44.0600;-5.8900
1241.0180;-49.8300;-43.9600;-5.8700
1241.2170;-49.7000;-43.8500;-5.8500
1241.4160;-49.5600;-43.7400;-5.8200
1241.6150;-49.4100;-43.6200;-5.7900
1241.8140;-49.2200;-43.5000;-5.7200
1242.0130;-49.0300;-43.4000;-5.6300
1242.2120;-48.8700;-43.2700;-5.6000
1242.4120;-48.6800;-43.1500;-5.5300
1242.6110;-48.4800;-43.0300;-5.4500
1242.8100;-48.2900;-42.9000;-5.3900
1243.0090;-48.1100;-42.7800;-5.3300
1243.2080;-47.9400;-42.6500;-5.2900
1243.4070;-47.7600;-42.5300;-5.2300
1243.6060;-47.6100;-42.4000;-5.2100
1243.8050;-47.4600;-42.2800;-5.1800
1244.0040;-47.3000;-42.1600;-5.1400
1244.2040;-47.1800;-42.0300;-5.1500
1244.4030;-47.0600;-41.9100;-5.1500
1244.6020;-46.9600;-41.7900;-5.1700
1244.8010;-46.8500;-41.6700;-5.1800
1245.0000;-46.7600;-41.5700;-5.1900
1245.1990;-46.7200;-41.4400;-5.2800
1245.3980;-46.6600;-41.3300;-5.3300
1245.5970;-46.6200;-41.2000;-5.4200
1245.7970;-46.6100;-41.0800;-5.5300
1245.9960;-46.6100;-40.9700;-5.6400
1246.1950;-46.6500;-40.8400;-5.8100
1246.3940;-46.6900;-40.7200;-5.9700
1246.5930;-46.7700;-40.5800;-6.1900
1246.7920;-46.8500;-40.4600;-6.3900
1246.9910;-46.9400;-40.3300;-6.6100
1247.1900;-47.0600;-40.1900;-6.8700
1247.3890;-47.1800;-40.0500;-7.1300
1247.5890;-47.2900;-39.9100;-7.3800
1247.7880;-47.3800;-39.7700;-7.6100
1247.9870;-47.4500;-39.6400;-7.8100
1248.1860;-47.5100;-39.4900;-8.0200
1248.3850;-47.5000;-39.3500;-8.1500
1248.5840;-47.4600;-39.2000;-8.2600
1248.7830;-47.3600;-39.0500;-8.3100
1248.9820;-47.2000;-38.9300;-8.2700
1249.1810;-47.0000;-38.7700;-8.2300
1249.3810;-46.7500;-38.6400;-8.1100
1249.5800;-46.4600;-38.5000;-7.9600
1249.7790;-46.1200;-38.3600;-7.7600
1249.9780;-45.7200;-38.2200;-7.5000
1250.1770;-45.4100;-38.0800;-7.3300
1250.3760;-45.0500;-37.9500;-7.1000
1250.5750;-44.6700;-37.8100;-6.8600
1250.7740;-44.2900;-37.6800;-6.6100
1250.9740;-43.9400;-37.5700;-6.3700
1251.1730;-43.5600;-37.4300;-6.1300
1251.3720;-43.2000;-37.3000;-5.9000
1251.5710;-42.8800;-37.1800;-5.7000
1251.7700;-42.5400;-37.0400;-5.5000
1251.9690;-42.2500;-36.9200;-5.3300
1252.1680;-41.9500;-36.7700;-5.1800
1252.3670;-41.6900;-36.6500;-5.0400
1252.5660;-41.4600;-36.5200;-4.9400
1252.7660;-41.2500;-36.3800;-4.8700
1252.9650;-41.1000;-36.2600;-4.8400
1253.1640;-40.9500;-36.1100;-4.8400
1253.3630;-40.8500;-35.9700;-4.8800
1253.5620;-40.8000;-35.8000;-5.0000
1253.7610;-40.7700;-35.6900;-5.0800
1253.9600;-40.8200;-35.5400;-5.2800
1254.1590;-40.8700;-35.4000;-5.4700
1254.3580;-40.9800;-35.2500;-5.7300
1254.5580;-41.1400;-35.1100;-6.0300
1254.7570;-41.3300;-34.9700;-6.3600
1254.9560;-41.5800;-34.8100;-6.7700
1255.1550;-41.8600;-34.6700;-7.1900
1255.3540;-42.1900;-34.5400;-7.6500
1255.5530;-42.5400;-34.4000;-8.1400
1255.7520;-42.9200;-34.2700;-8.6500
1255.9510;-43.3200;-34.1200;-9.2000
1256.1500;-43.7100;-34.0000;-9.7100
1256.3500;-44.0800;-33.8600;-10.2200
1256.5490;-44.3800;-33.7300;-10.6500
1256.7480;-44.5800;-33.6200;-10.9600
1256.9470;-44.6400;-33.4700;-11.1700
1257.1460;-44.5100;-33.3500;-11.1600
1257.3450;-44.2000;-33.2300;-10.9700
1257.5440;-43.7100;-33.1000;-10.6100
1257.7430;-43.0800;-32.9900;-10.0900
1257.9430;-42.3600;-32.8400;-9.5200
1258.1420;-41.5800;-32.7300;-8.8500
1258.3410;-40.7900;-32.5900;-8.2000
1258.5400;-40.0000;-32.4700;-7.5300
1258.7390;-39.2200;-32.3500;-6.8700
1258.9380;-38.4900;-32.2000;-6.2900
1259.1370;-37.8000;-32.0800;-5.7200
1259.3360;-37.1500;-31.9300;-5.2200
1259.5350;-36.5400;-31.8000;-4.7400
1259.7350;-35.8900;-31.6700;-4.2200
1259.9340;-35.4500;-31.5200;-3.9300
1260.1330;-34.9800;-31.4000;-3.5800
1260.3320;-34.5400;-31.2600;-3.2800
1260.5310;-34.1500;-31.1300;-3.0200
1260.7300;-33.7900;-31.0000;-2.7900
1260.9290;-33.4500;-30.8600;-2.5900
1261.1280;-33.1500;-30.7300;-2.4200
1261.3270;-32.8900;-30.5900;-2.3000
1261.5270;-32.6600;-30.4700;-2.1900
1261.7260;-32.4600;-30.3500;-2.1100
1261.9250;-32.2700;-30.2100;-2.0600
1262.1240;-32.1100;-30.0900;-2.0200
1262.3230;-31.9800;-29.9600;-2.0200
1262.5220;-31.8800;-29.8500;-2.0300
1262.7210;-31.8200;-29.7300;-2.0900
1262.9200;-31.7600;-29.6000;-2.1600
1263.1200;-31.7400;-29.4800;-2.2600
1263.3190;-31.7400;-29.3500;-2.3900
1263.5180;-31.7700;-29.2300;-2.5400
1263.7170;-31.8400;-29.1200;-2.7200
1263.9160;-31.9100;-28.9900;-2.9200
1264.1150;-32.0200;-28.8700;-3.1500
1264.3140;-32.1500;-28.7400;-3.4100
1264.5130;-32.3100;-28.6200;-3.6900
1264.7120;-32.4900;-28.5000;-3.9900
1264.9120;-32.6600;-28.3600;-4.3000
1265.1110;-32.8600;-28.2400;-4.6200
1265.3100;-33.0600;-28.1000;-4.9600
1265.5090;-33.2700;-27.9900;-5.2800
1265.7080;-33.4800;-27.8600;-5.6200
1265.9070;-33.6500;-27.7300;-5.9200
1266.1060;-33.8200;-27.6100;-6.2100
1266.3050;-33.9600;-27.4800;-6.4800
1266.5040;-34.0900;-27.3700;-6.7200
1266.7040;-34.1900;-27.2500;-6.9400
1266.9030;-34.2400;-27.1200;-7.1200
1267.1020;-34.2700;-27.0200;-7.2500
1267.3010;-34.2700;-26.8900;-7.3800
1267.5000;-34.2600;-26.7900;-7.4700
1267.6990;-34.2200;-26.6800;-7.5400
1267.8980;-34.1400;-26.5600;-7.5800
1268.0970;-34.0700;-26.4700;-7.6000
1268.2970;-33.9500;-26.3400;-7.6100
1268.4960;-33.8300;-26.2500;-7.5800
1268.6950;-33.7100;-26.1300;-7.5800
1268.8940;-33.5500;-26.0100;-7.5400
1269.0930;-33.4200;-25.9100;-7.5100
1269.2920;-33.2700;-25.8000;-7.4700
1269.4910;-33.1500;-25.7100;-7.4400
1269.6900;-33.0600;-25.5900;-7.4700
1269.8890;-32.9700;-25.4900;-7.4800
1270.0890;-32.9300;-25.3700;-7.5600
1270.2880;-32.9000;-25.2600;-7.6400
1270.4870;-32.9300;-25.1700;-7.7600
1270.6860;-33.0000;-25.0500;-7.9500
1270.8850;-33.1000;-24.9400;-8.1600
1271.0840;-33.2700;-24.8200;-8.4500
1271.2830;-33.4700;-24.7200;-8.7500
1271.4820;-33.7100;-24.6200;-9.0900
1271.6810;-34.0100;-24.5000;-9.5100
1271.8810;-34.3500;-24.4100;-9.9400
1272.0800;-34.7300;-24.2900;-10.4400
1272.2790;-35.1200;-24.1900;-10.9300
1272.4780;-35.5400;-24.0900;-11.4500
1272.6770;-35.9700;-23.9900;-11.9800
1272.8760;-36.3900;-23.9000;-12.4900
1273.0750;-36.8000;-23.7900;-13.0100
1273.2740;-37.1300;-23.7000;-13.4300
1273.4740;-37.4100;-23.6100;-13.8000
1273.6730;-37.5800;-23.5100;-14.0700
1273.8720;-37.6300;-23.4200;-14.2100
1274.0710;-37.5700;-23.3200;-14.2500
1274.2700;-37.3500;-23.2300;-14.1200
1274.4690;-37.0300;-23.1500;-13.8800
1274.6680;-36.5900;-23.0500;-13.5400
1274.8670;-36.0800;-22.9700;-13.1100
1275.0660;-35.5500;-22.8700;-12.6800
1275.2660;-34.9700;-22.7700;-12.2000
1275.4650;-34.4300;-22.6800;-11.7500
1275.6640;-33.8700;-22.5800;-11.2900
1275.8630;-33.3700;-22.5000;-10.8700
1276.0620;-32.9100;-22.3900;-10.5200
1276.2610;-32.4900;-22.3000;-10.1900
1276.4600;-32.1400;-22.2100;-9.9300
1276.6590;-31.8100;-22.1000;-9.7100
1276.8580;-31.5600;-22.0200;-9.5400
1277.0580;-31.3600;-21.9200;-9.4400
1277.2570;-31.2100;-21.8300;-9.3800
1277.4560;-31.1400;-21.7400;-9.4000
1277.6550;-31.1000;-21.6500;-9.4500
1277.8540;-31.1300;-21.5700;-9.5600
1278.0530;-31.2200;-21.4700;-9.7500
1278.2520;-31.3700;-21.3900;-9.9800
1278.4510;-31.5800;-21.3000;-10.2800
1278.6500;-31.8400;-21.2200;-10.6200
1278.8500;-32.1900;-21.1400;-11.0500
1279.0490;-32.5900;-21.0500;-11.5400
1279.2480;-33.0600;-20.9800;-12.0800
1279.4470;-33.6200;-20.8900;-12.7300
1279.6460;-34.2300;-20.8100;-13.4200
1279.8450;-34.9100;-20.7400;-14.1700
1280.0440;-35.6000;-20.6500;-14.9500
1280.2430;-36.2500;-20.5900;-15.6600
1280.4430;-36.7500;-20.5000;-16.2500
1280.6420;-36.9300;-20.4300;-16.5000
1280.8410;-36.7000;-20.3500;-16.3500
1281.0400;-36.0100;-20.2700;-15.7400
1281.2390;-35.0200;-20.2000;-14.8200
1281.4380;-33.8600;-20.1200;-13.7400
1281.6370;-32.6600;-20.0500;-12.6100
1281.8360;-31.4900;-19.9700;-11.5200
1282.0350;-30.3500;-19.8900;-10.4600
1282.2350;-29.3100;-19.8300;-9.4800
1282.4340;-28.3400;-19.7400;-8.6000
1282.6330;-27.4600;-19.6800;-7.7800
1282.8320;-26.6500;-19.6100;-7.0400
1283.0310;-25.7800;-19.5300;-6.2500
1283.2300;-25.2200;-19.4700;-5.7500
1283.4290;-24.5900;-19.4000;-5.1900
1283.6280;-24.0100;-19.3300;-4.6800
1283.8270;-23.4800;-19.2600;-4.2200
1284.0270;-23.0000;-19.1900;-3.8100
1284.2260;-22.5600;-19.1300;-3.4300
1284.4250;-22.1500;-19.0600;-3.0900
1284.6240;-21.8000;-19.0000;-2.8000
1284.8230;-21.4600;-18.9300;-2.5300
1285.0220;-21.1600;-18.8600;-2.3000
1285.2210;-20.9100;-18.8000;-2.1100
1285.4200;-20.6800;-18.7300;-1.9500
1285.6200;-20.5000;-18.6700;-1.8300
1285.8190;-20.3300;-18.5900;-1.7400
1286.0180;-20.2000;-18.5300;-1.6700
1286.2170;-20.1100;-18.4700;-1.6400
1286.4160;-20.0400;-18.3900;-1.6500
1286.6150;-20.0400;-18.3400;-1.7000
1286.8140;-20.0400;-18.2700;-1.7700
1287.0130;-20.0900;-18.2000;-1.8900
1287.2120;-20.1800;-18.1400;-2.0400
1287.4120;-20.2900;-18.0700;-2.2200
1287.6110;-20.4600;-18.0200;-2.4400
1287.8100;-20.6500;-17.9400;-2.7100
1288.0090;-20.8900;-17.8900;-3.0000
1288.2080;-21.1800;-17.8200;-3.3600
1288.4070;-21.5000;-17.7600;-3.7400
1288.6060;-21.8800;-17.7100;-4.1700
1288.8050;-22.2800;-17.6500;-4.6300
1289.0040;-22.7500;-17.6000;-5.1500
1289.2040;-23.2400;-17.5300;-5.7100
1289.4030;-23.7800;-17.4800;-6.3000
1289.6020;-24.3600;-17.4400;-6.9200
1289.8010;-24.9300;-17.3800;-7.5500
1290.0000;-25.5000;-17.3400;-8.1600
1290.1990;-26.0200;-17.2800;-8.7400
1290.3980;-26.4500;-17.2300;-9.2200
1290.5970;-26.7500;-17.2000;-9.5500
1290.7970;-26.8300;-17.1400;-9.6900
1290.9960;-26.6900;-17.1000;-9.5900
1291.1950;-26.3400;-17.0400;-9.3000
1291.3940;-25.8400;-17.0000;-8.8400
1291.5930;-25.2300;-16.9400;-8.2900
1291.7920;-24.5500;-16.9000;-7.6500
1291.9910;-23.8800;-16.8600;-7.0200
1292.1900;-23.2000;-16.8000;-6.4000
1292.3890;-22.5600;-16.7600;-5.8000
1292.5890;-21.9500;-16.7100;-5.2400
1292.7880;-21.3900;-16.6600;-4.7300
1292.9870;-20.8900;-16.6300;-4.2600
1293.1860;-20.4200;-16.5700;-3.8500
1293.3850;-20.0000;-16.5400;-3.4600
1293.5840;-19.6200;-16.4800;-3.1400
1293.7830;-19.2900;-16.4400;-2.8500
1293.9820;-19.0200;-16.4100;-2.6100
1294.1810;-18.7700;-16.3600;-2.4100
1294.3810;-18.5700;-16.3400;-2.2300
1294.5800;-18.3900;-16.2700;-2.1200
1294.7790;-18.2500;-16.2400;-2.0100
1294.9780;-18.1700;-16.2000;-1.9700
1295.1770;-18.1100;-16.1600;-1.9500
1295.3760;-18.0900;-16.1300;-1.9600
1295.5750;-18.0900;-16.0800;-2.0100
1295.7740;-18.1300;-16.0600;-2.0700
1295.9740;-18.2100;-16.0000;-2.2100
1296.1730;-18.3200;-15.9700;-2.3500
1296.3720;-18.4800;-15.9300;-2.5500
1296.5710;-18.6400;-15.8900;-2.7500
1296.7700;-18.8600;-15.8700;-2.9900
1296.9690;-19.1000;-15.8200;-3.2800
1297.1680;-19.3700;-15.8000;-3.5700
1297.3670;-19.6900;-15.7500;-3.9400
1297.5660;-19.9900;-15.7200;-4.2700
1297.7660;-20.3400;-15.6900;-4.6500
1297.9650;-20.6900;-15.6600;-5.0300
1298.1640;-21.0400;-15.6400;-5.4000
1298.3630;-21.3800;-15.6000;-5.7800
1298.5620;-21.6800;-15.5600;-6.1200
1298.7610;-21.9500;-15.5400;-6.4100
1298.9600;-22.1300;-15.5100;-6.6200
1299.1590;-22.2400;-15.5000;-6.7400
1299.3580;-22.2500;-15.4600;-6.7900
1299.5580;-22.1500;-15.4300;-6.7200
1299.7570;-21.9800;-15.4000;-6.5800
1299.9560;-21.7100;-15.3800;-6.3300
1300.1550;-21.3800;-15.3700;-6.0100
1300.3540;-21.0100;-15.3300;-5.6800
1300.5530;-20.5900;-15.3100;-5.2800
1300.7520;-20.1900;-15.2800;-4.9100
1300.9510;-19.7600;-15.2600;-4.5000
1301.1500;-19.3800;-15.2500;-4.1300
1301.3500;-18.9900;-15.2200;-3.7700
1301.5490;-18.6300;-15.2200;-3.4100
1301.7480;-18.3000;-15.1900;-3.1100
1301.9470;-17.9800;-15.1700;-2.8100
1302.1460;-17.7300;-15.1700;-2.5600
1302.3450;-17.4700;-15.1500;-2.3200
1302.5440;-17.2600;-15.1500;-2.1100
1302.7430;-17.0900;-15.1200;-1.9700
1302.9430;-16.9400;-15.1000;-1.8400
1303.1420;-16.8500;-15.1000;-1.7500
1303.3410;-16.7600;-15.0800;-1.6800
1303.5400;-16.7400;-15.0900;-1.6500
1303.7390;-16.7300;-15.0700;-1.6600
1303.9380;-16.7600;-15.0600;-1.7000
1304.1370;-16.8600;-15.0600;-1.8000
1304.3360;-16.9500;-15.0500;-1.9000
1304.5350;-17.1200;-15.0600;-2.0600
1304.7350;-17.3100;-15.0600;-2.2500
1304.9340;-17.5400;-15.0600;-2.4800
1305.1330;-17.8400;-15.0600;-2.7800
1305.3320;-18.1600;-15.0600;-3.1000
1305.5310;-18.5600;-15.0800;-3.4800
1305.7300;-18.9800;-15.0800;-3.9000
1305.9290;-19.4700;-15.0900;-4.3800
1306.1280;-20.0500;-15.1000;-4.9500
1306.3270;-20.6700;-15.1100;-5.5600
1306.5270;-21.4000;-15.1400;-6.2600
1306.7260;-22.1900;-15.1400;-7.0500
1306.9250;-23.0800;-15.1700;-7.9100
1307.1240;-24.0700;-15.1700;-8.9000
1307.3230;-25.1200;-15.1900;-9.9300
1307.5220;-26.2300;-15.2100;-11.0200
1307.7210;-27.2500;-15.2300;-12.0200
1307.9200;-28.0500;-15.2600;-12.7900
1308.1200;-28.4400;-15.2700;-13.1700
1308.3190;-28.1700;-15.2900;-12.8800
1308.5180;-27.4400;-15.3200;-12.1200
1308.7170;-26.4300;-15.3400;-11.0900
1308.9160;-25.1500;-15.3700;-9.7800
1309.1150;-24.2800;-15.3800;-8.9000
1309.3140;-23.2900;-15.4100;-7.8800
1309.5130;-22.3800;-15.4300;-6.9500
1309.7120;-21.5700;-15.4500;-6.1200
1309.9120;-20.8200;-15.4800;-5.3400
1310.1110;-20.1600;-15.5000;-4.6600
1310.3100;-19.5800;-15.5300;-4.0500
1310.5090;-19.0700;-15.5500;-3.5200
1310.7080;-18.6100;-15.5700;-3.0400
1310.9070;-18.1900;-15.5800;-2.6100
1311.1060;-17.8500;-15.6000;-2.2500
1311.3050;-17.5400;-15.6400;-1.9000
1311.5040;-17.2900;-15.6500;-1.6400
1311.7040;-17.0900;-15.6800;-1.4100
1311.9030;-16.9200;-15.6900;-1.2300
1312.1020;-16.8100;-15.7200;-1.0900
1312.3010;-16.7200;-15.7500;-0.9700
1312.5000;-16.6900;-15.7800;-0.9100
1312.6990;-16.6900;-15.8200;-0.8700
1312.8980;-16.7200;-15.8400;-0.8800
1313.0970;-16.8100;-15.8700;-0.9400
1313.2970;-16.9100;-15.9000;-1.0100
1313.4960;-17.0800;-15.9400;-1.1400
1313.6950;-17.2800;-15.9900;-1.2900
1313.8940;-17.5100;-16.0100;-1.5000
1314.0930;-17.8100;-16.0600;-1.7500
1314.2920;-18.1200;-16.1000;-2.0200
1314.4910;-18.5000;-16.1500;-2.3500
1314.6900;-18.9100;-16.2000;-2.7100
1314.8890;-19.3700;-16.2400;-3.1300
1315.0890;-19.9100;-16.3000;-3.6100
1315.2880;-20.4800;-16.3300;-4.1500
1315.4870;-21.1400;-16.3900;-4.7500
1315.6860;-21.8400;-16.4500;-5.3900
1315.8850;-22.6100;-16.5000;-6.1100
1316.0840;-23.4400;-16.5700;-6.8700
1316.2830;-24.3200;-16.6100;-7.7100
1316.4820;-25.2600;-16.6900;-8.5700
1316.6810;-26.1700;-16.7500;-9.4200
1316.8810;-27.0200;-16.8200;-10.2000
1317.0800;-27.7200;-16.9000;-10.8200
1317.2790;-28.1300;-16.9600;-11.1700
1317.4780;-28.2200;-17.0400;-11.1800
1317.6770;-27.9200;-17.1000;-10.8200
1317.8760;-27.3700;-17.1700;-10.2000
1318.0750;-26.6600;-17.2500;-9.4100
1318.2740;-25.9000;-17.3200;-8.5800
1318.4740;-25.1500;-17.4000;-7.7500
1318.6730;-24.4400;-17.4600;-6.9800
1318.8720;-23.7900;-17.5500;-6.2400
1319.0710;-23.2000;-17.6300;-5.5700
1319.2700;-22.6600;-17.7000;-4.9600
1319.4690;-22.2000;-17.7800;-4.4200
1319.6680;-21.7900;-17.8600;-3.9300
1319.8670;-21.4500;-17.9500;-3.5000
1320.0660;-21.1400;-18.0100;-3.1300
1320.2660;-20.9000;-18.0900;-2.8100
1320.4650;-20.7000;-18.1700;-2.5300
1320.6640;-20.5500;-18.2500;-2.3000
1320.8630;-20.4500;-18.3400;-2.1100
1321.0620;-20.3800;-18.4100;-1.9700
1321.2610;-20.3600;-18.5300;-1.8300
1321.4600;-20.3800;-18.5900;-1.7900
1321.6590;-20.4300;-18.6900;-1.7400
1321.8580;-20.5500;-18.7700;-1.7800
1322.0580;-20.6800;-18.8600;-1.8200
1322.2570;-20.8700;-18.9600;-1.9100
1322.4560;-21.0900;-19.0400;-2.0500
1322.6550;-21.3500;-19.1400;-2.2100
1322.8540;-21.6700;-19.2200;-2.4500
1323.0530;-22.0200;-19.3200;-2.7000
1323.2520;-22.4300;-19.4200;-3.0100
1323.4510;-22.8800;-19.5100;-3.3700
1323.6500;-23.3900;-19.6200;-3.7700
1323.8500;-23.9600;-19.7100;-4.2500
1324.0490;-24.5800;-19.8200;-4.7600
1324.2480;-25.2900;-19.9200;-5.3700
1324.4470;-26.0600;-20.0200;-6.0400
1324.6460;-26.9200;-20.1400;-6.7800
1324.8450;-27.8700;-20.2400;-7.6300
1325.0440;-29.1900;-20.3600;-8.8300
1325.2430;-30.1600;-20.4600;-9.7000
1325.4430;-31.4800;-20.5800;-10.9000
1325.6420;-33.0000;-20.7200;-12.2800
1325.8410;-34.6100;-20.8400;-13.7700
1326.0400;-36.2800;-20.9700;-15.3100
1326.2390;-37.6700;-21.0800;-16.5900
1326.4380;-38.3500;-21.2100;-17.1400
1326.6370;-38.0100;-21.3300;-16.6800
1326.8360;-36.9700;-21.4500;-15.5200
1327.0350;-35.7000;-21.5900;-14.1100
1327.2350;-34.4300;-21.7100;-12.7200
1327.4340;-33.3100;-21.8500;-11.4600
1327.6330;-32.3300;-21.9700;-10.3600
1327.8320;-31.5000;-22.1000;-9.4000
1328.0310;-30.8100;-22.2400;-8.5700
1328.2300;-30.2200;-22.3700;-7.8500
1328.4290;-29.7300;-22.5100;-7.2200
1328.6280;-29.3300;-22.6400;-6.6900
1328.8270;-29.0000;-22.7700;-6.2300
1329.0270;-28.7600;-22.9200;-5.8400
1329.2260;-28.5700;-23.0500;-5.5200
1329.4250;-28.4500;-23.1900;-5.2600
1329.6240;-28.3600;-23.3100;-5.0500
1329.8230;-28.3500;-23.4600;-4.8900
1330.0220;-28.3800;-23.6000;-4.7800
1330.2210;-28.4600;-23.7300;-4.7300
1330.4200;-28.6000;-23.8800;-4.7200
1330.6200;-28.7700;-24.0100;-4.7600
1330.8190;-29.0000;-24.1600;-4.8400
1331.0180;-29.2800;-24.3000;-4.9800
1331.2170;-29.6000;-24.4500;-5.1500
1331.4160;-29.9900;-24.6100;-5.3800
1331.6150;-30.4200;-24.7400;-5.6800
1331.8140;-30.9100;-24.9100;-6.0000
1332.0130;-31.4500;-25.0400;-6.4100
1332.2120;-32.0600;-25.2000;-6.8600
1332.4120;-32.7300;-25.3600;-7.3700
1332.6110;-33.4700;-25.5100;-7.9600
1332.8100;-34.2900;-25.6700;-8.6200
1333.0090;-35.1500;-25.8200;-9.3300
1333.2080;-36.1000;-25.9700;-10.1300
1333.4070;-37.0900;-26.1300;-10.9600
1333.6060;-38.1300;-26.2800;-11.8500
1333.8050;-39.3800;-26.4500;-12.9300
1334.0040;-40.1100;-26.6000;-13.5100
1334.2040;-40.8300;-26.7700;-14.0600
1334.4030;-41.2100;-26.9200;-14.2900
1334.6020;-41.2200;-27.0900;-14.1300
1334.8010;-40.8500;-27.2400;-13.6100
1335.0000;-40.2700;-27.4000;-12.8700
1335.1990;-39.5800;-27.5800;-12.0000
1335.3980;-38.8700;-27.7300;-11.1400
1335.5970;-38.2000;-27.9000;-10.3000
1335.7970;-37.5800;-28.0600;-9.5200
1335.9960;-37.0400;-28.2300;-8.8100
1336.1950;-36.5400;-28.4000;-8.1400
1336.3940;-36.0600;-28.5900;-7.4700
1336.5930;-35.7600;-28.7300;-7.0300
1336.7920;-35.4700;-28.8800;-6.5900
1336.9910;-35.2400;-29.0600;-6.1800
1337.1900;-35.0600;-29.2200;-5.8400
1337.3890;-34.9500;-29.3900;-5.5600
1337.5890;-34.8700;-29.5600;-5.3100
1337.7880;-34.8500;-29.7200;-5.1300
1337.9870;-34.8600;-29.9000;-4.9600
1338.1860;-34.9200;-30.0600;-4.8600
1338.3850;-35.0300;-30.2400;-4.7900
1338.5840;-35.1800;-30.4000;-4.7800
1338.7830;-35.3800;-30.5700;-4.8100
1338.9820;-35.5900;-30.7400;-4.8500
1339.1810;-35.8700;-30.9100;-4.9600
1339.3810;-36.1800;-31.1000;-5.0800
1339.5800;-36.5300;-31.2600;-5.2700
1339.7790;-36.9300;-31.4400;-5.4900
1339.9780;-37.3500;-31.6100;-5.7400
1340.1770;-37.8200;-31.7900;-6.0300
1340.3760;-38.3100;-31.9800;-6.3300
1340.5750;-38.9500;-32.1600;-6.7900
1340.7740;-39.3800;-32.3400;-7.0400
1340.9740;-39.9100;-32.5000;-7.4100
1341.1730;-40.4500;-32.6800;-7.7700
1341.3720;-40.9500;-32.8700;-8.0800
1341.5710;-41.4200;-33.0400;-8.3800
1341.7700;-41.8000;-33.2300;-8.5700
1341.9690;-42.1000;-33.4000;-8.7000
1342.1680;-42.2800;-33.5800;-8.7000
1342.3670;-42.3300;-33.7500;-8.5800
1342.5660;-42.2900;-33.9300;-8.3600
1342.7660;-42.1300;-34.1200;-8.0100
1342.9650;-41.9000;-34.2900;-7.6100
1343.1640;-41.6100;-34.4800;-7.1300
1343.3630;-41.3000;-34.6600;-6.6400
1343.5620;-40.9800;-34.8300;-6.1500
1343.7610;-40.6600;-35.0200;-5.6400
1343.9600;-40.3800;-35.1900;-5.1900
1344.1590;-40.0900;-35.3900;-4.7000
1344.3580;-39.8400;-35.5600;-4.2800
1344.5580;-39.6200;-35.7400;-3.8800
1344.7570;-39.4300;-35.9300;-3.5000
1344.9560;-39.2700;-36.0900;-3.1800
1345.1550;-39.1300;-36.2700;-2.8600
1345.3540;-39.0300;-36.4300;-2.6000
1345.5530;-38.9700;-36.6100;-2.3600
1345.7520;-38.9400;-36.7700;-2.1700
1345.9510;-38.9500;-36.9500;-2.0000
1346.1500;-38.9800;-37.1300;-1.8500
1346.3500;-39.0600;-37.3100;-1.7500
1346.5490;-39.1600;-37.5000;-1.6600
1346.7480;-39.2800;-37.6700;-1.6100
1346.9470;-39.4400;-37.8400;-1.6000
1347.1460;-39.6200;-38.0100;-1.6100
1347.3450;-39.8300;-38.1600;-1.6700
1347.5440;-40.1000;-38.3800;-1.7200
1347.7430;-40.4300;-38.6500;-1.7800
1347.9430;-40.7700;-38.8100;-1.9600
1348.1420;-41.1100;-38.9800;-2.1300
1348.3410;-41.5100;-39.1600;-2.3500
1348.5400;-41.8700;-39.3100;-2.5600
1348.7390;-42.2900;-39.4700;-2.8200
1348.9380;-42.7400;-39.6400;-3.1000
1349.1370;-43.2400;-39.7900;-3.4500
1349.3360;-43.7600;-39.9400;-3.8200
1349.5350;-44.3100;-40.1100;-4.2000
1349.7350;-44.9000;-40.2600;-4.6400
1349.9340;-45.5300;-40.4500;-5.0800
1350.1330;-46.2200;-40.6300;-5.5900
1350.3320;-46.9800;-40.8800;-6.1000
1350.5310;-47.7400;-41.0900;-6.6500
1350.7300;-48.6600;-41.2600;-7.4000
1350.9290;-49.2500;-41.4200;-7.8300
1351.1280;-49.9400;-41.5300;-8.4100
1351.3270;-50.5900;-41.6900;-8.9000
1351.5270;-51.2100;-41.8600;-9.3500
1351.7260;-51.7500;-42.0900;-9.6600
1351.9250;-52.1200;-42.2900;-9.8300
1352.1240;-52.3400;-42.4500;-9.8900
1352.3230;-52.3800;-42.6300;-9.7500
1352.5220;-52.3600;-42.8300;-9.5300
1352.7210;-52.1500;-42.9800;-9.1700
1352.9200;-51.9000;-43.1300;-8.7700
1353.1200;-51.7400;-43.3800;-8.3600
1353.3190;-51.4100;-43.4900;-7.9200
1353.5180;-51.1500;-43.6500;-7.5000
1353.7170;-50.9200;-43.8300;-7.0900
1353.9160;-50.6700;-43.9200;-6.7500
1354.1150;-50.4700;-44.0600;-6.4100
1354.3140;-50.4100;-44.2700;-6.1400
1354.5130;-50.3400;-44.4600;-5.8800
1354.7120;-50.4400;-44.7700;-5.6700
1354.9120;-50.5600;-45.0300;-5.5300
1355.1110;-50.6000;-45.2100;-5.3900
1355.3100;-50.6400;-45.3100;-5.3300
1355.5090;-50.6000;-45.3000;-5.3000
1355.7080;-50.8400;-45.5700;-5.2700
1355.9070;-51.1500;-45.8200;-5.3300
1356.1060;-51.3800;-45.9800;-5.4000
1356.3050;-51.6100;-46.0400;-5.5700
1356.5040;-51.8900;-46.1300;-5.7600
1356.7040;-51.9900;-46.0400;-5.9500
1356.9030;-52.3600;-46.1800;-6.1800
1357.1020;-52.9800;-46.5600;-6.4200
1357.3010;-53.5500;-46.7600;-6.7900
1357.5000;-54.1100;-46.9400;-7.1700
1357.6990;-54.7000;-47.0900;-7.6100
1357.8980;-55.2000;-47.1300;-8.0700
1358.0970;-55.6800;-47.1900;-8.4900
1358.2970;-56.3100;-47.3600;-8.9500
1358.4960;-56.9800;-47.5900;-9.3900
1358.6950;-57.5200;-47.7100;-9.8100
1358.8940;-58.0000;-47.8600;-10.1400
1359.0930;-58.5200;-47.9900;-10.5300
1359.2920;-58.5400;-48.0200;-10.5200
1359.4910;-58.8600;-48.4000;-10.4600
1359.6900;-58.9700;-48.7400;-10.2300
1359.8890;-58.7800;-48.8900;-9.8900
1360.0890;-58.3900;-48.9200;-9.4700
1360.2880;-57.9300;-48.9400;-8.9900
1360.4870;-57.4200;-48.9200;-8.5000
1360.6860;-57.0400;-49.0800;-7.9600
1360.8850;-56.8700;-49.4200;-7.4500
1361.0840;-56.6500;-49.7000;-6.9500
1361.2830;-56.2400;-49.8800;-6.3600
1361.4820;-55.9800;-50.0100;-5.9700
1361.6810;-55.8400;-50.2300;-5.6100
1361.8810;-55.6200;-50.3500;-5.2700
1362.0800;-55.5100;-50.5700;-4.9400
1362.2790;-55.6600;-50.9900;-4.6700
1362.4780;-55.6800;-51.2200;-4.4600
1362.6770;-55.6000;-51.3500;-4.2500
1362.8760;-55.3400;-51.2200;-4.1200
1363.0750;-55.1900;-51.1400;-4.0500
1363.2740;-54.9000;-50.9000;-4.0000
1363.4740;-54.9400;-50.9800;-3.9600
1363.6730;-55.0600;-51.0700;-3.9900
1363.8720;-55.2500;-51.2000;-4.0500
1364.0710;-55.5600;-51.4200;-4.1400
1364.2700;-55.9100;-51.6000;-4.3100
1364.4690;-56.3600;-51.9100;-4.4500
1364.6680;-57.0900;-52.4200;-4.6700
1364.8670;-57.6400;-52.6400;-5.0000
1365.0660;-57.9900;-52.6200;-5.3700
1365.2660;-58.7900;-52.7600;-6.0300
1365.4650;-58.8900;-52.7000;-6.1900
1365.6640;-59.4400;-52.7700;-6.6700
1365.8630;-60.0500;-52.8000;-7.2500
1366.0620;-60.6600;-52.8100;-7.8500
1366.2610;-61.2500;-52.8000;-8.4500
1366.4600;-61.9600;-52.8800;-9.0800
1366.6590;-62.7400;-53.0300;-9.7100
1366.8580;-63.5700;-53.2700;-10.3000
1367.0580;-64.2600;-53.4100;-10.8500
1367.2570;-64.7600;-53.5200;-11.2400
1367.4560;-65.2400;-53.7900;-11.4500
1367.6550;-65.3400;-53.9700;-11.3700
1367.8540;-65.3600;-54.2600;-11.1000
1368.0530;-64.9400;-54.3600;-10.5800
1368.2520;-64.3600;-54.3500;-10.0100
1368.4510;-64.1000;-54.6900;-9.4100
1368.6500;-63.5300;-54.7800;-8.7500
1368.8500;-62.8900;-54.9000;-7.9900
1369.0490;-62.1800;-54.8600;-7.3200
1369.2480;-61.5700;-54.8400;-6.7300
1369.4470;-60.9600;-54.7700;-6.1900
1369.6460;-60.5800;-54.8700;-5.7100
1369.8450;-60.4900;-55.2100;-5.2800
1370.0440;-60.2700;-55.4100;-4.8600
1370.2430;-60.0000;-55.5500;-4.4500
1370.4430;-59.7100;-55.5900;-4.1200
1370.6420;-59.4600;-55.6200;-3.8400
1370.8410;-59.5600;-55.9300;-3.6300
1371.0400;-59.6300;-56.2100;-3.4200
1371.2390;-59.6500;-56.4200;-3.2300
1371.4380;-59.5200;-56.4000;-3.1200
1371.6370;-59.4100;-56.4000;-3.0100
1371.8360;-59.3200;-56.3600;-2.9600
1372.0350;-59.4900;-56.5700;-2.9200
1372.2350;-59.7300;-56.7800;-2.9500
1372.4340;-59.8900;-56.8900;-3.0000
1372.6330;-60.0500;-56.9800;-3.0700
1372.8320;-60.1900;-57.0000;-3.1900
1373.0310;-60.3700;-57.0700;-3.3000
1373.2300;-60.6600;-57.1800;-3.4800
1373.4290;-61.0100;-57.3500;-3.6600
1373.6280;-61.3900;-57.4800;-3.9100
1373.8270;-61.7200;-57.5700;-4.1500
1374.0270;-62.1200;-57.7000;-4.4200
1374.2260;-62.4500;-57.8000;-4.6500
1374.4250;-62.8900;-57.9700;-4.9200
1374.6240;-63.3600;-58.0900;-5.2700
1374.8230;-63.8200;-58.3000;-5.5200
1375.0220;-64.3000;-58.5500;-5.7500
1375.2210;-64.6800;-58.5900;-6.0900
1375.4200;-64.9700;-58.6900;-6.2800
1375.6200;-65.2000;-58.7800;-6.4200
1375.8190;-65.3400;-58.9100;-6.4300
1376.0180;-65.5300;-59.0600;-6.4700
1376.2170;-65.6000;-59.2300;-6.3700
1376.4160;-65.5900;-59.3400;-6.2500
1376.6150;-65.4600;-59.4400;-6.0200
1376.8140;-65.3900;-59.6300;-5.7600
1377.0130;-65.3100;-59.8800;-5.4300
1377.2120;-65.1400;-60.0700;-5.0700
1377.4120;-64.9600;-60.1500;-4.8100
1377.6110;-64.6600;-60.2300;-4.4300
1377.8100;-64.3200;-60.2300;-4.0900
1378.0090;-64.0600;-60.3000;-3.7600
1378.2080;-63.8500;-60.4300;-3.4200
1378.4070;-63.7600;-60.6000;-3.1600
1378.6060;-63.7800;-60.8600;-2.9200
1378.8050;-63.8600;-61.1800;-2.6800
1379.0040;-63.7900;-61.3200;-2.4700
1379.2040;-63.6600;-61.3700;-2.2900
1379.4030;-63.5400;-61.3500;-2.1900
1379.6020;-63.4300;-61.3700;-2.0600
1379.8010;-63.3700;-61.4100;-1.9600
1380.0000;-63.4700;-61.5700;-1.9000
1380.1990;-63.6500;-61.7500;-1.9000
1380.3980;-63.8500;-61.9400;-1.9100
1380.5970;-64.4700;-62.5300;-1.9400
1380.7970;-64.9900;-62.9800;-2.0100
1380.9960;-65.2200;-63.1600;-2.0600
1381.1950;-65.5300;-63.2000;-2.3300
1381.3940;-65.4100;-62.9600;-2.4500
1381.5930;-65.4300;-62.6800;-2.7500
1381.7920;-65.6600;-62.7200;-2.9400
1381.9910;-66.0500;-62.7800;-3.2700
1382.1900;-66.5100;-62.9000;-3.6100
1382.3890;-67.2200;-63.2200;-4.0000
1382.5890;-68.0200;-63.7800;-4.2400
1382.7880;-69.0500;-64.2900;-4.7600
1382.9870;-69.6600;-64.5200;-5.1400
1383.1860;-70.1500;-64.3000;-5.8500
1383.3850;-70.3100;-64.0900;-6.2200
1383.5840;-70.6000;-63.8900;-6.7100
1383.7830;-71.0700;-64.0000;-7.0700
1383.9820;-71.5100;-64.1200;-7.3900
1384.1810;-71.9200;-64.2000;-7.7200
1384.3810;-72.3500;-64.2300;-8.1200
1384.5800;-72.4400;-64.2100;-8.2300
1384.7790;-72.4600;-64.3500;-8.1100
1384.9780;-72.6200;-64.6000;-8.0200
1385.1770;-72.6100;-64.8600;-7.7500
1385.3760;-72.3100;-64.9400;-7.3700
1385.5750;-71.8700;-64.9400;-6.9300
1385.7740;-71.2100;-64.9300;-6.2800
1385.9740;-70.8000;-64.9400;-5.8600
1386.1730;-70.3200;-65.0100;-5.3100
1386.3720;-70.0200;-65.1700;-4.8500
1386.5710;-69.5900;-65.1500;-4.4400
1386.7700;-69.2200;-65.1500;-4.0700
1386.9690;-68.9400;-65.2700;-3.6700
1387.1680;-68.6300;-65.2700;-3.3600
1387.3670;-68.3200;-65.3100;-3.0100
1387.5660;-68.1300;-65.4500;-2.6800
1387.7660;-68.2500;-65.6700;-2.5800
1387.9650;-68.4700;-65.9700;-2.5000
1388.1640;-68.3900;-66.2100;-2.1800
1388.3630;-68.5200;-66.3200;-2.2000
1388.5620;-68.3900;-66.2400;-2.1500
1388.7610;-68.2800;-66.1100;-2.1700
1388.9600;-68.1900;-66.1800;-2.0100
1389.1590;-68.1700;-66.0800;-2.0900
1389.3580;-68.2300;-66.0400;-2.1900
1389.5580;-68.5400;-66.1600;-2.3800
1389.7570;-68.6200;-66.3000;-2.3200
1389.9560;-68.9400;-66.4100;-2.5300
1390.1550;-69.1900;-66.4700;-2.7200
1390.3540;-69.5000;-66.4600;-3.0400
1390.5530;-69.9600;-66.6000;-3.3600
1390.7520;-70.3600;-66.5400;-3.8200
1390.9510;-70.7100;-66.7100;-4.0000
1391.1500;-71.2200;-66.7900;-4.4300
1391.3500;-71.6600;-66.8700;-4.7900
1391.5490;-72.1700;-67.0000;-5.1700
1391.7480;-72.6700;-67.0800;-5.5900
1391.9470;-73.4800;-67.1600;-6.3200
1392.1460;-74.0400;-67.3600;-6.6800
1392.3450;-74.6000;-67.5300;-7.0700
1392.5440;-75.6300;-67.9900;-7.6400
1392.7430;-75.7400;-68.2400;-7.5000
1392.9430;-76.4000;-68.1900;-8.2100
1393.1420;-76.4500;-68.0800;-8.3700
1393.3410;-77.1500;-67.8300;-9.3200
1393.5400;-76.4900;-67.8600;-8.6300
1393.7390;-76.4000;-67.8300;-8.5700
1393.9380;-76.6100;-67.9200;-8.6900
1394.1370;-76.4900;-68.1100;-8.3800
1394.3360;-76.1000;-68.1800;-7.9200
1394.5350;-75.2400;-68.2200;-7.0200
1394.7350;-74.4800;-68.3800;-6.1000
1394.9340;-74.4600;-68.6200;-5.8400
1395.1330;-73.9400;-68.9200;-5.0200
1395.3320;-73.9000;-69.0000;-4.9000
1395.5310;-74.0000;-69.2600;-4.7400
1395.7300;-73.5100;-69.2000;-4.3100
1395.9290;-73.0500;-69.1200;-3.9300
1396.1280;-73.1000;-69.2000;-3.9000
1396.3270;-72.5100;-69.3200;-3.1900
1396.5270;-72.6900;-69.6400;-3.0500
1396.7260;-72.4400;-69.8000;-2.6400
1396.9250;-72.2100;-69.8000;-2.4100
1397.1240;-72.3200;-69.5500;-2.7700
1397.3230;-72.1100;-69.5200;-2.5900
1397.5220;-72.1300;-69.5200;-2.6100
1397.7210;-71.9200;-69.4600;-2.4600
1397.9200;-72.1600;-69.5900;-2.5700
1398.1200;-72.0100;-69.8000;-2.2100
1398.3190;-72.3300;-69.7200;-2.6100
1398.5180;-72.2800;-69.6900;-2.5900
1398.7170;-72.6600;-69.8400;-2.8200
1398.9160;-72.9200;-69.8300;-3.0900
1399.1150;-73.4500;-70.0800;-3.3700
1399.3140;-73.4900;-70.1700;-3.3200
1399.5130;-73.9500;-70.4300;-3.5200
1399.7120;-74.3700;-70.6800;-3.6900
1399.9120;-74.6700;-70.7500;-3.9200
1400.1110;-75.4200;-70.9500;-4.4700
1400.3100;-75.5300;-70.7100;-4.8200
1400.5090;-76.0800;-70.7700;-5.3100
1400.7080;-76.5000;-71.2500;-5.2500
1400.9070;-77.1600;-71.3400;-5.8200
1401.1060;-77.1900;-71.5100;-5.6800
1401.3050;-76.9600;-71.5600;-5.4000
1401.5040;-77.8800;-71.4400;-6.4400
1401.7040;-77.0800;-71.3800;-5.7000
1401.9030;-77.3800;-71.6000;-5.7800
1402.1020;-77.2800;-71.3900;-5.8900
1402.3010;-77.0800;-71.3800;-5.7000
1402.5000;-77.2100;-71.5400;-5.6700
1402.6990;-76.4000;-71.5900;-4.8100
1402.8980;-76.3500;-71.7300;-4.6200
1403.0970;-77.2300;-71.8300;-5.4000
1403.2970;-76.8900;-72.0500;-4.8400
1403.4960;-75.9600;-72.1600;-3.8000
1403.6950;-75.6900;-71.8300;-3.8600
1403.8940;-75.9900;-72.1700;-3.8200
1404.0930;-75.9600;-72.3100;-3.6500
1404.2920;-75.4600;-72.4400;-3.0200
1404.4910;-75.5800;-72.7300;-2.8500
1404.6900;-75.7200;-72.8000;-2.9200
1404.8890;-76.5000;-73.0400;-3.4600
1405.0890;-76.4000;-73.2800;-3.1200
1405.2880;-75.9300;-73.5400;-2.3900
1405.4870;-75.9300;-73.3400;-2.5900
1405.6860;-75.8400;-73.0200;-2.8200
1405.8850;-75.0500;-72.9400;-2.1100
1406.0840;-75.7400;-73.1300;-2.6100
1406.2830;-75.8200;-73.4200;-2.4000
1406.4820;-76.0800;-73.2200;-2.8600
1406.6810;-77.0500;-73.2800;-3.7700
1406.8810;-76.7000;-73.3900;-3.3100
1407.0800;-77.0900;-73.5000;-3.5900
1407.2790;-76.9300;-74.4200;-2.5100
1407.4780;-77.2000;-74.1900;-3.0100
1407.6770;-77.2900;-73.8000;-3.4900
1407.8760;-78.0400;-74.1500;-3.8900
1408.0750;-78.7700;-73.8700;-4.9000
1408.2740;-77.5800;-73.8700;-3.7100
1408.4740;-77.7600;-73.5900;-4.1700
1408.6730;-79.2500;-73.7600;-5.4900
1408.8720;-78.8600;-74.0100;-4.8500
1409.0710;-79.1900;-74.0400;-5.1500
1409.2700;-79.9400;-74.3000;-5.6400
1409.4690;-79.9800;-74.6900;-5.2900
1409.6680;-80.9500;-74.3600;-6.5900
1409.8670;-79.7600;-74.7000;-5.0600
1410.0660;-81.9000;-75.2200;-6.6800
1410.2660;-79.9400;-74.3600;-5.5800
1410.4650;-80.1000;-74.3000;-5.8000
1410.6640;-79.9400;-75.0900;-4.8500
1410.8630;-79.8000;-74.9700;-4.8300
1411.0620;-80.1400;-75.3600;-4.7800
1411.2610;-80.5000;-74.8700;-5.6300
1411.4600;-79.2500;-74.9200;-4.3300
1411.6590;-79.4200;-74.7200;-4.7000
1411.8580;-78.8900;-74.5600;-4.3300
1412.0580;-79.7300;-74.8000;-4.9300
1412.2570;-78.8300;-74.8800;-3.9500
1412.4560;-80.1800;-75.2000;-4.9800
1412.6550;-78.1800;-75.2200;-2.9600
1412.8540;-78.9500;-75.4200;-3.5300
1413.0530;-78.9800;-75.0100;-3.9700
1413.2520;-78.7700;-75.2500;-3.5200
1413.4510;-78.8900;-74.8100;-4.0800
1413.6500;-79.1400;-74.6700;-4.4700
1413.8500;-78.5000;-75.3900;-3.1100
1414.0490;-78.7800;-75.7400;-3.0400
1414.2480;-78.9000;-75.8600;-3.0400
1414.4470;-78.7000;-75.4100;-3.2900
1414.6460;-77.5700;-75.5500;-2.0200
1414.8450;-79.4600;-75.7400;-3.7200
1415.0440;-78.9000;-75.0100;-3.8900
1415.2430;-80.1500;-75.4700;-4.6800
1415.4430;-80.4300;-75.1100;-5.3200
1415.6420;-77.6800;-75.3100;-2.3700
1415.8410;-78.7000;-75.9200;-2.7800
1416.0400;-79.6700;-75.7100;-3.9600
1416.2390;-79.2600;-75.2100;-4.0500
1416.4380;-79.6700;-75.0800;-4.5900
1416.6370;-79.9500;-75.6200;-4.3300
1416.8360;-80.5600;-75.4400;-5.1200
1417.0350;-79.2600;-75.3400;-3.9200
1417.2350;-79.7000;-75.2200;-4.4800
1417.4340;-79.0200;-75.5500;-3.4700
1417.6330;-79.2300;-75.8600;-3.3700
1417.8320;-80.1500;-75.6900;-4.4600
1418.0310;-80.6900;-75.8300;-4.8600
1418.2300;-80.3100;-75.3100;-5.0000
1418.4290;-78.7500;-75.3200;-3.4300
1418.6280;-78.4200;-74.9900;-3.4300
1418.8270;-80.6900;-75.8900;-4.8000
1419.0270;-79.5300;-75.9600;-3.5700
1419.2260;-79.0200;-75.7700;-3.2500
1419.4250;-79.6700;-75.9900;-3.6800
1419.6240;-78.7200;-75.6000;-3.1200
1419.8230;-79.9200;-75.8100;-4.1100
1420.0220;-78.7800;-76.3000;-2.4800
1420.2210;-80.4300;-76.2100;-4.2200
1420.4200;-79.7000;-76.4300;-3.2700
1420.6200;-79.8400;-75.8600;-3.9800
1420.8190;-79.4600;-75.0600;-4.4000
1421.0180;-78.7800;-75.2000;-3.5800
1421.2170;-79.7400;-75.3600;-4.3800
1421.4160;-78.4000;-75.7700;-2.6300
1421.6150;-78.7600;-75.5600;-3.2000
1421.8140;-78.5400;-75.6300;-2.9100
1422.0130;-78.3000;-75.9900;-2.3100
1422.2120;-79.3100;-75.6400;-3.6700
1422.4120;-78.6200;-75.2800;-3.3400
1422.6110;-78.2500;-75.6700;-2.5800
1422.8100;-77.8700;-76.0000;-1.8700
1423.0090;-78.8500;-75.8200;-3.0300
1423.2080;-78.4100;-75.3300;-3.0800
1423.4070;-79.6800;-75.3500;-4.3300
1423.6060;-78.8500;-75.2900;-3.5600
1423.8050;-79.1500;-75.9900;-3.1600
1424.0040;-78.1300;-75.4200;-2.7100
1424.2040;-79.8200;-75.3200;-4.5000
1424.4030;-79.1500;-75.6100;-3.5400
1424.6020;-80.2000;-75.4400;-4.7600
1424.8010;-79.0000;-75.1900;-3.8100
1425.0000;-79.3100;-75.3300;-3.9800
