Wavelength;Intensity_Meas;Intensity_Ref;Difference_dB
1200.0000;-60.6700;-55.6000;-5.0700
1200.1990;-60.5800;-55.5600;-5.0200
1200.3980;-60.5600;-55.5400;-5.0200
1200.5970;-60.5800;-55.5000;-5.0800
1200.7970;-60.5700;-55.4800;-5.0900
1200.9960;-60.4700;-55.4400;-5.0300
1201.1950;-60.4300;-55.3900;-5.0400
1201.3940;-60.4500;-55.3500;-5.1000
1201.5930;-60.4400;-55.3200;-5.1200
1201.7920;-60.3600;-55.2800;-5.0800
1201.9910;-60.2600;-55.2100;-5.0500
1202.1900;-60.2700;-55.1600;-5.1100
1202.3890;-60.2400;-55.1100;-5.1300
1202.5890;-60.1700;-55.0800;-5.0900
1202.7880;-60.0900;-55.0100;-5.0800
1202.9870;-60.0300;-54.9400;-5.0900
1203.1860;-60.0100;-54.8900;-5.1200
1203.3850;-59.9400;-54.8700;-5.0700
1203.5840;-59.8500;-54.8100;-5.0400
1203.7830;-59.8000;-54.7500;-5.0500
1203.9820;-59.7900;-54.7200;-5.0700
1204.1810;-59.7600;-54.6800;-5.0800
1204.3810;-59.7000;-54.6400;-5.0600
1204.5800;-59.6500;-54.6000;-5.0500
1204.7790;-59.7100;-54.5800;-5.1300
1204.9780;-59.7100;-54.5500;-5.1600
1205.1770;-59.6900;-54.5100;-5.1800
1205.3760;-59.6700;-54.4800;-5.1900
1205.5750;-59.7100;-54.4600;-5.2500
1205.7740;-59.7700;-54.4400;-5.3300
1205.9740;-59.7600;-54.4400;-5.3200
1206.1730;-59.7500;-54.4100;-5.3400
1206.3720;-59.7800;-54.3800;-5.4000
1206.5710;-59.8400;-54.3500;-5.4900
1206.7700;-59.8400;-54.3400;-5.5000
1206.9690;-59.7800;-54.3100;-5.4700
1207.1680;-59.7500;-54.2700;-5.4800
1207.3670;-59.8100;-54.2400;-5.5700
1207.5660;-59.8000;-54.2200;-5.5800
1207.7660;-59.7200;-54.1900;-5.5300
1207.9650;-59.6700;-54.1500;-5.5200
1208.1640;-59.6800;-54.0900;-5.5900
1208.3630;-59.6600;-54.0700;-5.5900
1208.5620;-59.5800;-54.0300;-5.5500
1208.7610;-59.5200;-53.9700;-5.5500
1208.9600;-59.5000;-53.9200;-5.5800
1209.1590;-59.4800;-53.8600;-5.6200
1209.3580;-59.4000;-53.8200;-5.5800
1209.5580;-59.3100;-53.7600;-5.5500
1209.7570;-59.2800;-53.7100;-5.5700
1209.9560;-59.2600;-53.6500;-5.6100
1210.1550;-59.1800;-53.6100;-5.5700
1210.3540;-59.0500;-53.5700;-5.4800
1210.5530;-59.0000;-53.4900;-5.5100
1210.7520;-58.9700;-53.4400;-5.5300
1210.9510;-58.8800;-53.4100;-5.4700
1211.1500;-58.7700;-53.3500;-5.4200
1211.3500;-58.6900;-53.3100;-5.3800
1211.5490;-58.6800;-53.2600;-5.4200
1211.7480;-58.6500;-53.2300;-5.4200
1211.9470;-58.5300;-53.2100;-5.3200
1212.1460;-58.4500;-53.1600;-5.2900
1212.3450;-58.4900;-53.1200;-5.3700
1212.5440;-58.4700;-53.1000;-5.3700
1212.7430;-58.4100;-53.0700;-5.3400
1212.9430;-58.3600;-53.0300;-5.3300
1213.1420;-58.3900;-52.9900;-5.4000
1213.3410;-58.4200;-52.9800;-5.4400
1213.5400;-58.3800;-52.9500;-5.4300
1213.7390;-58.3400;-52.9000;-5.4400
1213.9380;-58.3800;-52.8700;-5.5100
1214.1370;-58.4100;-52.8300;-5.5800
1214.3360;-58.3800;-52.8000;-5.5800
1214.5350;-58.3300;-52.7600;-5.5700
1214.7350;-58.3500;-52.7100;-5.6400
1214.9340;-58.3800;-52.6600;-5.7200
1215.1330;-58.3300;-52.6200;-5.7100
1215.3320;-58.2700;-52.5800;-5.6900
1215.5310;-58.2800;-52.5100;-5.7700
1215.7300;-58.2900;-52.4500;-5.8400
1215.9290;-58.2400;-52.4200;-5.8200
1216.1280;-58.1500;-52.3500;-5.8000
1216.3270;-58.1200;-52.2900;-5.8300
1216.5270;-58.1500;-52.2300;-5.9200
1216.7260;-58.0900;-52.1700;-5.9200
1216.9250;-57.9800;-52.1200;-5.8600
1217.1240;-57.9000;-52.0500;-5.8500
1217.3230;-57.8800;-52.0000;-5.8800
1217.5220;-57.8000;-51.9400;-5.8600
1217.7210;-57.6600;-51.8900;-5.7700
1217.9200;-57.5200;-51.8400;-5.6800
1218.1200;-57.4600;-51.7700;-5.6900
1218.3190;-57.3500;-51.7400;-5.6100
1218.5180;-57.1800;-51.6900;-5.4900
1218.7170;-57.0300;-51.6500;-5.3800
1218.9160;-56.9300;-51.6100;-5.3200
1219.1150;-56.8300;-51.5600;-5.2700
1219.3140;-56.6700;-51.5400;-5.1300
1219.5130;-56.5400;-51.5000;-5.0400
1219.7120;-56.4700;-51.4500;-5.0200
1219.9120;-56.3800;-51.4200;-4.9600
1220.1110;-56.2500;-51.3900;-4.8600
1220.3100;-56.1500;-51.3500;-4.8000
1220.5090;-56.0900;-51.3000;-4.7900
1220.7080;-56.0600;-51.2600;-4.8000
1220.9070;-55.9600;-51.2200;-4.7400
1221.1060;-55.8500;-51.1600;-4.6900
1221.3050;-55.8300;-51.1200;-4.7100
1221.5040;-55.8100;-51.0400;-4.7700
1221.7040;-55.7400;-50.9900;-4.7500
1221.9030;-55.6700;-50.9400;-4.7300
1222.1020;-55.6600;-50.8600;-4.8000
1222.3010;-55.6600;-50.8100;-4.8500
1222.5000;-55.6100;-50.7300;-4.8800
1222.6990;-55.5600;-50.6700;-4.8900
1222.8980;-55.5600;-50.5900;-4.9700
1223.0970;-55.6000;-50.5100;-5.0900
1223.2970;-55.5700;-50.4600;-5.1100
1223.4960;-55.5500;-50.3700;-5.1800
1223.6950;-55.6100;-50.3000;-5.3100
1223.8940;-55.6500;-50.2400;-5.4100
1224.0930;-55.6900;-50.1600;-5.5300
1224.2920;-55.7100;-50.1100;-5.6000
1224.4910;-55.7600;-50.0200;-5.7400
1224.6900;-55.8500;-49.9600;-5.8900
1224.8890;-55.8700;-49.9000;-5.9700
1225.0890;-55.9000;-49.8400;-6.0600
1225.2880;-55.9300;-49.7800;-6.1500
1225.4870;-55.9800;-49.7100;-6.2700
1225.6860;-55.9900;-49.6600;-6.3300
1225.8850;-55.9400;-49.6200;-6.3200
1226.0840;-55.9100;-49.5500;-6.3600
1226.2830;-55.8800;-49.5100;-6.3700
1226.4820;-55.7900;-49.4400;-6.3500
1226.6810;-55.6800;-49.4000;-6.2800
1226.8810;-55.5700;-49.3500;-6.2200
1227.0800;-55.4600;-49.2800;-6.1800
1227.2790;-55.3200;-49.2400;-6.0800
1227.4780;-55.1400;-49.1700;-5.9700
1227.6770;-55.0000;-49.1100;-5.8900
1227.8760;-54.8600;-49.0500;-5.8100
1228.0750;-54.6900;-48.9800;-5.7100
1228.2740;-54.5000;-48.9200;-5.5800
1228.4740;-54.3400;-48.8400;-5.5000
1228.6730;-54.2200;-48.7700;-5.4500
1228.8720;-54.0400;-48.7000;-5.3400
1229.0710;-53.8500;-48.6200;-5.2300
1229.2700;-53.7200;-48.5500;-5.1700
1229.4690;-53.5800;-48.4500;-5.1300
1229.6680;-53.4400;-48.3800;-5.0600
1229.8670;-53.2800;-48.3000;-4.9800
1230.0660;-53.1700;-48.2100;-4.9600
1230.2660;-53.0700;-48.1300;-4.9400
1230.4650;-52.9400;-48.0400;-4.9000
1230.6640;-52.8400;-47.9600;-4.8800
1230.8630;-52.7900;-47.8900;-4.9000
1231.0620;-52.7500;-47.8100;-4.9400
1231.2610;-52.7000;-47.7600;-4.9400
1231.4600;-52.6700;-47.6800;-4.9900
1231.6590;-52.7000;-47.6200;-5.0800
1231.8580;-52.7000;-47.5500;-5.1500
1232.0580;-52.7100;-47.5000;-5.2100
1232.2570;-52.7500;-47.4400;-5.3100
1232.4560;-52.8200;-47.3700;-5.4500
1232.6550;-52.8800;-47.3200;-5.5600
1232.8540;-52.9000;-47.2500;-5.6500
1233.0530;-52.9600;-47.2000;-5.7600
1233.2520;-53.0300;-47.1500;-5.8800
1233.4510;-53.0600;-47.0700;-5.9900
1233.6500;-53.0800;-47.0300;-6.0500
1233.8500;-53.0900;-46.9500;-6.1400
1234.0490;-53.1200;-46.8900;-6.2300
1234.2480;-53.0800;-46.8300;-6.2500
1234.4470;-53.0200;-46.7500;-6.2700
1234.6460;-53.0000;-46.6900;-6.3100
1234.8450;-52.9400;-46.6100;-6.3300
1235.0440;-52.8400;-46.5300;-6.3100
1235.2430;-52.7200;-46.4600;-6.2600
1235.4430;-52.6200;-46.3600;-6.2600
1235.6420;-52.5200;-46.2900;-6.2300
1235.8410;-52.3500;-46.1900;-6.1600
1236.0400;-52.2100;-46.1100;-6.1000
1236.2390;-52.0700;-46.0200;-6.0500
1236.4380;-51.9200;-45.9100;-6.0100
1236.6370;-51.7600;-45.8300;-5.9300
1236.8360;-51.5900;-45.7400;-5.8500
1237.0350;-51.4600;-45.6700;-5.7900
1237.2350;-51.3000;-45.5700;-5.7300
1237.4340;-51.1300;-45.4700;-5.6600
1237.6330;-51.0100;-45.3900;-5.6200
1237.8320;-50.8900;-45.3100;-5.5800
1238.0310;-50.7700;-45.2400;-5.5300
1238.2300;-50.6500;-45.1500;-5.5000
1238.4290;-50.5600;-45.0700;-5.4900
1238.6280;-50.5100;-45.0000;-5.5100
1238.8270;-50.4300;-44.9100;-5.5200
1239.0270;-50.3800;-44.8500;-5.5300
1239.2260;-50.3400;-44.7500;-5.5900
1239.4250;-50.3100;-44.6700;-5.6400
1239.6240;-50.2900;-44.6000;-5.6900
1239.8230;-50.2500;-44.5100;-5.7400
1240.0220;-50.2600;-44.4400;-5.8200
1240.2210;-50.2200;-44.3400;-5.8800
1240.4200;-50.1600;-44.2500;-5.9100
1240.6200;-50.1200;-44.1600;-5.9600
1240.8190;-50.0600;-44.0600;-6.0000
1241.0180;-49.9600;-43.9600;-6.0000
1241.2170;-49.8200;-43.8500;-5.9700
1241.4160;-49.7000;-43.7400;-5.9600
1241.6150;-49.5500;-43.6200;-5.9300
1241.8140;-49.3700;-43.5000;-5.8700
1242.0130;-49.1800;-43.4000;-5.7800
1242.2120;-48.9800;-43.2700;-5.7100
1242.4120;-48.7800;-43.1500;-5.6300
1242.6110;-48.5500;-43.0300;-5.5200
1242.8100;-48.3300;-42.9000;-5.4300
1243.0090;-48.1200;-42.7800;-5.3400
1243.2080;-47.8900;-42.6500;-5.2400
1243.4070;-47.6700;-42.5300;-5.1400
1243.6060;-47.4600;-42.4000;-5.0600
1243.8050;-47.2700;-42.2800;-4.9900
1244.0040;-47.0700;-42.1600;-4.9100
1244.2040;-46.8800;-42.0300;-4.8500
1244.4030;-46.7200;-41.9100;-4.8100
1244.6020;-46.5700;-41.7900;-4.7800
1244.8010;-46.4200;-41.6700;-4.7500
1245.0000;-46.3100;-41.5700;-4.7400
1245.1990;-46.2000;-41.4400;-4.7600
1245.3980;-46.1200;-41.3300;-4.7900
1245.5970;-46.0500;-41.2000;-4.8500
1245.7970;-46.0200;-41.0800;-4.9400
1245.9960;-46.0100;-40.9700;-5.0400
1246.1950;-46.0200;-40.8400;-5.1800
1246.3940;-46.0600;-40.7200;-5.3400
1246.5930;-46.1300;-40.5800;-5.5500
1246.7920;-46.2300;-40.4600;-5.7700
1246.9910;-46.3400;-40.3300;-6.0100
1247.1900;-46.4800;-40.1900;-6.2900
1247.3890;-46.6600;-40.0500;-6.6100
1247.5890;-46.8300;-39.9100;-6.9200
1247.7880;-47.0200;-39.7700;-7.2500
1247.9870;-47.2100;-39.6400;-7.5700
1248.1860;-47.3700;-39.4900;-7.8800
1248.3850;-47.5200;-39.3500;-8.1700
1248.5840;-47.6200;-39.2000;-8.4200
1248.7830;-47.6700;-39.0500;-8.6200
1248.9820;-47.6500;-38.9300;-8.7200
1249.1810;-47.5400;-38.7700;-8.7700
1249.3810;-47.3600;-38.6400;-8.7200
1249.5800;-47.0900;-38.5000;-8.5900
1249.7790;-46.7400;-38.3600;-8.3800
1249.9780;-46.3400;-38.2200;-8.1200
1250.1770;-45.8800;-38.0800;-7.8000
1250.3760;-45.3300;-37.9500;-7.3800
1250.5750;-44.8800;-37.8100;-7.0700
1250.7740;-44.3700;-37.6800;-6.6900
1250.9740;-43.8500;-37.5700;-6.2800
1251.1730;-43.3300;-37.4300;-5.9000
1251.3720;-42.8400;-37.3000;-5.5400
1251.5710;-42.3600;-37.1800;-5.1800
1251.7700;-41.9000;-37.0400;-4.8600
1251.9690;-41.4500;-36.9200;-4.5300
1252.1680;-41.0400;-36.7700;-4.2700
1252.3670;-40.6600;-36.6500;-4.0100
1252.5660;-40.3100;-36.5200;-3.7900
1252.7660;-40.0000;-36.3800;-3.6200
1252.9650;-39.7100;-36.2600;-3.4500
1253.1640;-39.4600;-36.1100;-3.3500
1253.3630;-39.2500;-35.9700;-3.2800
1253.5620;-39.0700;-35.8000;-3.2700
1253.7610;-38.9300;-35.6900;-3.2400
1253.9600;-38.8200;-35.5400;-3.2800
1254.1590;-38.7500;-35.4000;-3.3500
1254.3580;-38.7100;-35.2500;-3.4600
1254.5580;-38.7100;-35.1100;-3.6000
1254.7570;-38.7400;-34.9700;-3.7700
1254.9560;-38.7900;-34.8100;-3.9800
1255.1550;-38.8900;-34.6700;-4.2200
1255.3540;-39.0100;-34.5400;-4.4700
1255.5530;-39.1600;-34.4000;-4.7600
1255.7520;-39.3300;-34.2700;-5.0600
1255.9510;-39.5100;-34.1200;-5.3900
1256.1500;-39.7100;-34.0000;-5.7100
1256.3500;-39.9100;-33.8600;-6.0500
1256.5490;-40.1100;-33.7300;-6.3800
1256.7480;-40.2900;-33.6200;-6.6700
1256.9470;-40.4100;-33.4700;-6.9400
1257.1460;-40.4800;-33.3500;-7.1300
1257.3450;-40.4700;-33.2300;-7.2400
1257.5440;-40.3900;-33.1000;-7.2900
1257.7430;-40.2000;-32.9900;-7.2100
1257.9430;-39.9000;-32.8400;-7.0600
1258.1420;-39.5300;-32.7300;-6.8000
1258.3410;-39.0700;-32.5900;-6.4800
1258.5400;-38.5600;-32.4700;-6.0900
1258.7390;-38.0200;-32.3500;-5.6700
1258.9380;-37.4500;-32.2000;-5.2500
1259.1370;-36.8900;-32.0800;-4.8100
1259.3360;-36.3200;-31.9300;-4.3900
1259.5350;-35.7000;-31.8000;-3.9000
1259.7350;-35.2600;-31.6700;-3.5900
1259.9340;-34.7600;-31.5200;-3.2400
1260.1330;-34.3100;-31.4000;-2.9100
1260.3320;-33.8500;-31.2600;-2.5900
1260.5310;-33.4600;-31.1300;-2.3300
1260.7300;-33.0700;-31.0000;-2.0700
1260.9290;-32.7200;-30.8600;-1.8600
1261.1280;-32.4200;-30.7300;-1.6900
1261.3270;-32.1300;-30.5900;-1.5400
1261.5270;-31.9000;-30.4700;-1.4300
1261.7260;-31.6600;-30.3500;-1.3100
1261.9250;-31.4700;-30.2100;-1.2600
1262.1240;-31.3200;-30.0900;-1.2300
1262.3230;-31.1900;-29.9600;-1.2300
1262.5220;-31.1100;-29.8500;-1.2600
1262.7210;-31.0400;-29.7300;-1.3100
1262.9200;-31.0200;-29.6000;-1.4200
1263.1200;-31.0400;-29.4800;-1.5600
1263.3190;-31.0800;-29.3500;-1.7300
1263.5180;-31.1800;-29.2300;-1.9500
1263.7170;-31.3000;-29.1200;-2.1800
1263.9160;-31.4700;-28.9900;-2.4800
1264.1150;-31.6900;-28.8700;-2.8200
1264.3140;-31.9500;-28.7400;-3.2100
1264.5130;-32.2800;-28.6200;-3.6600
1264.7120;-32.6500;-28.5000;-4.1500
1264.9120;-33.0800;-28.3600;-4.7200
1265.1110;-33.5700;-28.2400;-5.3300
1265.3100;-34.1300;-28.1000;-6.0300
1265.5090;-34.7900;-27.9900;-6.8000
1265.7080;-35.4900;-27.8600;-7.6300
1265.9070;-36.2800;-27.7300;-8.5500
1266.1060;-37.1600;-27.6100;-9.5500
1266.3050;-38.2900;-27.4800;-10.8100
1266.5040;-39.0900;-27.3700;-11.7200
1266.7040;-39.9900;-27.2500;-12.7400
1266.9030;-40.7300;-27.1200;-13.6100
1267.1020;-41.0700;-27.0200;-14.0500
1267.3010;-40.9300;-26.8900;-14.0400
1267.5000;-40.3200;-26.7900;-13.5300
1267.6990;-39.3800;-26.6800;-12.7000
1267.8980;-38.3200;-26.5600;-11.7600
1268.0970;-37.2300;-26.4700;-10.7600
1268.2970;-36.1800;-26.3400;-9.8400
1268.4960;-35.0500;-26.2500;-8.8000
1268.6950;-34.3200;-26.1300;-8.1900
1268.8940;-33.5200;-26.0100;-7.5100
1269.0930;-32.7800;-25.9100;-6.8700
1269.2920;-32.1400;-25.8000;-6.3400
1269.4910;-31.5700;-25.7100;-5.8600
1269.6900;-31.0500;-25.5900;-5.4600
1269.8890;-30.6000;-25.4900;-5.1100
1270.0890;-30.2100;-25.3700;-4.8400
1270.2880;-29.8900;-25.2600;-4.6300
1270.4870;-29.6100;-25.1700;-4.4400
1270.6860;-29.3900;-25.0500;-4.3400
1270.8850;-29.2100;-24.9400;-4.2700
1271.0840;-29.0800;-24.8200;-4.2600
1271.2830;-29.0100;-24.7200;-4.2900
1271.4820;-28.9600;-24.6200;-4.3400
1271.6810;-28.9800;-24.5000;-4.4800
1271.8810;-29.0300;-24.4100;-4.6200
1272.0800;-29.1300;-24.2900;-4.8400
1272.2790;-29.2800;-24.1900;-5.0900
1272.4780;-29.4600;-24.0900;-5.3700
1272.6770;-29.7000;-23.9900;-5.7100
1272.8760;-29.9800;-23.9000;-6.0800
1273.0750;-30.3100;-23.7900;-6.5200
1273.2740;-30.7000;-23.7000;-7.0000
1273.4740;-31.1300;-23.6100;-7.5200
1273.6730;-31.6400;-23.5100;-8.1300
1273.8720;-32.1800;-23.4200;-8.7600
1274.0710;-32.7900;-23.3200;-9.4700
1274.2700;-33.4600;-23.2300;-10.2300
1274.4690;-34.1500;-23.1500;-11.0000
1274.6680;-34.8600;-23.0500;-11.8100
1274.8670;-35.5200;-22.9700;-12.5500
1275.0660;-36.0600;-22.8700;-13.1900
1275.2660;-36.3900;-22.7700;-13.6200
1275.4650;-36.4400;-22.6800;-13.7600
1275.6640;-36.2000;-22.5800;-13.6200
1275.8630;-35.6800;-22.5000;-13.1800
1276.0620;-35.0000;-22.3900;-12.6100
1276.2610;-34.2400;-22.3000;-11.9400
1276.4600;-33.4500;-22.2100;-11.2400
1276.6590;-32.7000;-22.1000;-10.6000
1276.8580;-31.9800;-22.0200;-9.9600
1277.0580;-31.3200;-21.9200;-9.4000
1277.2570;-30.7200;-21.8300;-8.8900
1277.4560;-30.1800;-21.7400;-8.4400
1277.6550;-29.7200;-21.6500;-8.0700
1277.8540;-29.3000;-21.5700;-7.7300
1278.0530;-28.9400;-21.4700;-7.4700
1278.2520;-28.6300;-21.3900;-7.2400
1278.4510;-28.3700;-21.3000;-7.0700
1278.6500;-28.1800;-21.2200;-6.9600
1278.8500;-28.0200;-21.1400;-6.8800
1279.0490;-27.9300;-21.0500;-6.8800
1279.2480;-27.8800;-20.9800;-6.9000
1279.4470;-27.8800;-20.8900;-6.9900
1279.6460;-27.9600;-20.8100;-7.1500
1279.8450;-28.0900;-20.7400;-7.3500
1280.0440;-28.3000;-20.6500;-7.6500
1280.2430;-28.5600;-20.5900;-7.9700
1280.4430;-28.9000;-20.5000;-8.4000
1280.6420;-29.3400;-20.4300;-8.9100
1280.8410;-29.8500;-20.3500;-9.5000
1281.0400;-30.4800;-20.2700;-10.2100
1281.2390;-31.2100;-20.2000;-11.0100
1281.4380;-32.0500;-20.1200;-11.9300
1281.6370;-33.0000;-20.0500;-12.9500
1281.8360;-34.0100;-19.9700;-14.0400
1282.0350;-35.0000;-19.8900;-15.1100
1282.2350;-35.7100;-19.8300;-15.8800
1282.4340;-35.9100;-19.7400;-16.1700
1282.6330;-35.4200;-19.6800;-15.7400
1282.8320;-34.3500;-19.6100;-14.7400
1283.0310;-33.0300;-19.5300;-13.5000
1283.2300;-31.6300;-19.4700;-12.1600
1283.4290;-30.3000;-19.4000;-10.9000
1283.6280;-29.0500;-19.3300;-9.7200
1283.8270;-27.9200;-19.2600;-8.6600
1284.0270;-26.9000;-19.1900;-7.7100
1284.2260;-25.8000;-19.1300;-6.6700
1284.4250;-25.1100;-19.0600;-6.0500
1284.6240;-24.3300;-19.0000;-5.3300
1284.8230;-23.6400;-18.9300;-4.7100
1285.0220;-22.9900;-18.8600;-4.1300
1285.2210;-22.4000;-18.8000;-3.6000
1285.4200;-21.8700;-18.7300;-3.1400
1285.6200;-21.3900;-18.6700;-2.7200
1285.8190;-20.9700;-18.5900;-2.3800
1286.0180;-20.5700;-18.5300;-2.0400
1286.2170;-20.2400;-18.4700;-1.7700
1286.4160;-19.9400;-18.3900;-1.5500
1286.6150;-19.6900;-18.3400;-1.3500
1286.8140;-19.4800;-18.2700;-1.2100
1287.0130;-19.3000;-18.2000;-1.1000
1287.2120;-19.1600;-18.1400;-1.0200
1287.4120;-19.0600;-18.0700;-0.9900
1287.6110;-19.0000;-18.0200;-0.9800
1287.8100;-18.9900;-17.9400;-1.0500
1288.0090;-19.0000;-17.8900;-1.1100
1288.2080;-19.0600;-17.8200;-1.2400
1288.4070;-19.1600;-17.7600;-1.4000
1288.6060;-19.3000;-17.7100;-1.5900
1288.8050;-19.5000;-17.6500;-1.8500
1289.0040;-19.7300;-17.6000;-2.1300
1289.2040;-20.0200;-17.5300;-2.4900
1289.4030;-20.3500;-17.4800;-2.8700
1289.6020;-20.7500;-17.4400;-3.3100
1289.8010;-21.2200;-17.3800;-3.8400
1290.0000;-21.7400;-17.3400;-4.4000
1290.1990;-22.3400;-17.2800;-5.0600
1290.3980;-23.0200;-17.2300;-5.7900
1290.5970;-23.8200;-17.2000;-6.6200
1290.7970;-24.7300;-17.1400;-7.5900
1290.9960;-25.7200;-17.1000;-8.6200
1291.1950;-26.8400;-17.0400;-9.8000
1291.3940;-28.0300;-17.0000;-11.0300
1291.5930;-29.4900;-16.9400;-12.5500
1291.7920;-30.2500;-16.9000;-13.3500
1291.9910;-30.7300;-16.8600;-13.8700
1292.1900;-30.4800;-16.8000;-13.6800
1292.3890;-29.5900;-16.7600;-12.8300
1292.5890;-28.3700;-16.7100;-11.6600
1292.7880;-27.0500;-16.6600;-10.3900
1292.9870;-25.6200;-16.6300;-8.9900
1293.1860;-24.6700;-16.5700;-8.1000
1293.3850;-23.6600;-16.5400;-7.1200
1293.5840;-22.7400;-16.4800;-6.2600
1293.7830;-21.9200;-16.4400;-5.4800
1293.9820;-21.2000;-16.4100;-4.7900
1294.1810;-20.5600;-16.3600;-4.2000
1294.3810;-19.9900;-16.3400;-3.6500
1294.5800;-19.4700;-16.2700;-3.2000
1294.7790;-19.0200;-16.2400;-2.7800
1294.9780;-18.6400;-16.2000;-2.4400
1295.1770;-18.2900;-16.1600;-2.1300
1295.3760;-18.0200;-16.1300;-1.8900
1295.5750;-17.7500;-16.0800;-1.6700
1295.7740;-17.5500;-16.0600;-1.4900
1295.9740;-17.3800;-16.0000;-1.3800
1296.1730;-17.2600;-15.9700;-1.2900
1296.3720;-17.2000;-15.9300;-1.2700
1296.5710;-17.1400;-15.8900;-1.2500
1296.7700;-17.1400;-15.8700;-1.2700
1296.9690;-17.1700;-15.8200;-1.3500
1297.1680;-17.2500;-15.8000;-1.4500
1297.3670;-17.3700;-15.7500;-1.6200
1297.5660;-17.5100;-15.7200;-1.7900
1297.7660;-17.7000;-15.6900;-2.0100
1297.9650;-17.9200;-15.6600;-2.2600
1298.1640;-18.1900;-15.6400;-2.5500
1298.3630;-18.5000;-15.6000;-2.9000
1298.5620;-18.8300;-15.5600;-3.2700
1298.7610;-19.2200;-15.5400;-3.6800
1298.9600;-19.6300;-15.5100;-4.1200
1299.1590;-20.0800;-15.5000;-4.5800
1299.3580;-20.5600;-15.4600;-5.1000
1299.5580;-21.0400;-15.4300;-5.6100
1299.7570;-21.5500;-15.4000;-6.1500
1299.9560;-22.0300;-15.3800;-6.6500
1300.1550;-22.4800;-15.3700;-7.1100
1300.3540;-22.8500;-15.3300;-7.5200
1300.5530;-23.1000;-15.3100;-7.7900
1300.7520;-23.2300;-15.2800;-7.9500
1300.9510;-23.2000;-15.2600;-7.9400
1301.1500;-23.0300;-15.2500;-7.7800
1301.3500;-22.7100;-15.2200;-7.4900
1301.5490;-22.3100;-15.2200;-7.0900
1301.7480;-21.8400;-15.1900;-6.6500
1301.9470;-21.3100;-15.1700;-6.1400
1302.1460;-20.8000;-15.1700;-5.6300
1302.3450;-20.2800;-15.1500;-5.1300
1302.5440;-19.7900;-15.1500;-4.6400
1302.7430;-19.3400;-15.1200;-4.2200
1302.9430;-18.9000;-15.1000;-3.8000
1303.1420;-18.5400;-15.1000;-3.4400
1303.3410;-18.1700;-15.0800;-3.0900
1303.5400;-17.8700;-15.0900;-2.7800
1303.7390;-17.6100;-15.0700;-2.5400
1303.9380;-17.3800;-15.0600;-2.3200
1304.1370;-17.2100;-15.0600;-2.1500
1304.3360;-17.0500;-15.0500;-2.0000
1304.5350;-16.9500;-15.0600;-1.8900
1304.7350;-16.8700;-15.0600;-1.8100
1304.9340;-16.8400;-15.0600;-1.7800
1305.1330;-16.8700;-15.0600;-1.8100
1305.3320;-16.9000;-15.0600;-1.8400
1305.5310;-17.0000;-15.0800;-1.9200
1305.7300;-17.1200;-15.0800;-2.0400
1305.9290;-17.2900;-15.0900;-2.2000
1306.1280;-17.5200;-15.1000;-2.4200
1306.3270;-17.7700;-15.1100;-2.6600
1306.5270;-18.1100;-15.1400;-2.9700
1306.7260;-18.4700;-15.1400;-3.3300
1306.9250;-18.8900;-15.1700;-3.7200
1307.1240;-19.3900;-15.1700;-4.2200
1307.3230;-19.9400;-15.1900;-4.7500
1307.5220;-20.5800;-15.2100;-5.3700
1307.7210;-21.2800;-15.2300;-6.0500
1307.9200;-22.0600;-15.2600;-6.8000
1308.1200;-22.9400;-15.2700;-7.6700
1308.3190;-23.8800;-15.2900;-8.5900
1308.5180;-24.9100;-15.3200;-9.5900
1308.7170;-25.9200;-15.3400;-10.5800
1308.9160;-26.8600;-15.3700;-11.4900
1309.1150;-27.5600;-15.3800;-12.1800
1309.3140;-27.8400;-15.4100;-12.4300
1309.5130;-27.6300;-15.4300;-12.2000
1309.7120;-26.9500;-15.4500;-11.5000
1309.9120;-26.0400;-15.4800;-10.5600
1310.1110;-25.0200;-15.5000;-9.5200
1310.3100;-24.0100;-15.5300;-8.4800
1310.5090;-23.0700;-15.5500;-7.5200
1310.7080;-22.1700;-15.5700;-6.6000
1310.9070;-21.3800;-15.5800;-5.8000
1311.1060;-20.6500;-15.6000;-5.0500
1311.3050;-20.0100;-15.6400;-4.3700
1311.5040;-19.4500;-15.6500;-3.8000
1311.7040;-18.9500;-15.6800;-3.2700
1311.9030;-18.5200;-15.6900;-2.8300
1312.1020;-18.1300;-15.7200;-2.4100
1312.3010;-17.8100;-15.7500;-2.0600
1312.5000;-17.5400;-15.7800;-1.7600
1312.6990;-17.3100;-15.8200;-1.4900
1312.8980;-17.1400;-15.8400;-1.3000
1313.0970;-17.0000;-15.8700;-1.1300
1313.2970;-16.9200;-15.9000;-1.0200
1313.4960;-16.8700;-15.9400;-0.9300
1313.6950;-16.8600;-15.9900;-0.8700
1313.8940;-16.8900;-16.0100;-0.8800
1314.0930;-16.9700;-16.0600;-0.9100
1314.2920;-17.0900;-16.1000;-0.9900
1314.4910;-17.2500;-16.1500;-1.1000
1314.6900;-17.4500;-16.2000;-1.2500
1314.8890;-17.6900;-16.2400;-1.4500
1315.0890;-17.9700;-16.3000;-1.6700
1315.2880;-18.3300;-16.3300;-2.0000
1315.4870;-18.7200;-16.3900;-2.3300
1315.6860;-19.1800;-16.4500;-2.7300
1315.8850;-19.6800;-16.5000;-3.1800
1316.0840;-20.2500;-16.5700;-3.6800
1316.2830;-20.9000;-16.6100;-4.2900
1316.4820;-21.6300;-16.6900;-4.9400
1316.6810;-22.4500;-16.7500;-5.7000
1316.8810;-23.3600;-16.8200;-6.5400
1317.0800;-24.4100;-16.9000;-7.5100
1317.2790;-25.5800;-16.9600;-8.6200
1317.4780;-26.9200;-17.0400;-9.8800
1317.6770;-28.7200;-17.1000;-11.6200
1317.8760;-30.0400;-17.1700;-12.8700
1318.0750;-31.5900;-17.2500;-14.3400
1318.2740;-32.7100;-17.3200;-15.3900
1318.4740;-32.8800;-17.4000;-15.4800
1318.6730;-32.0300;-17.4600;-14.5700
1318.8720;-30.6600;-17.5500;-13.1100
1319.0710;-29.2100;-17.6300;-11.5800
1319.2700;-27.8500;-17.7000;-10.1500
1319.4690;-26.6600;-17.7800;-8.8800
1319.6680;-25.4500;-17.8600;-7.5900
1319.8670;-24.7400;-17.9500;-6.7900
1320.0660;-23.9600;-18.0100;-5.9500
1320.2660;-23.2900;-18.0900;-5.2000
1320.4650;-22.7200;-18.1700;-4.5500
1320.6640;-22.2300;-18.2500;-3.9800
1320.8630;-21.8200;-18.3400;-3.4800
1321.0620;-21.4500;-18.4100;-3.0400
1321.2610;-21.1700;-18.5300;-2.6400
1321.4600;-20.9300;-18.5900;-2.3400
1321.6590;-20.7400;-18.6900;-2.0500
1321.8580;-20.6200;-18.7700;-1.8500
1322.0580;-20.5200;-18.8600;-1.6600
1322.2570;-20.4900;-18.9600;-1.5300
1322.4560;-20.4800;-19.0400;-1.4400
1322.6550;-20.5200;-19.1400;-1.3800
1322.8540;-20.6200;-19.2200;-1.4000
1323.0530;-20.7500;-19.3200;-1.4300
1323.2520;-20.9300;-19.4200;-1.5100
1323.4510;-21.1400;-19.5100;-1.6300
1323.6500;-21.4000;-19.6200;-1.7800
1323.8500;-21.7100;-19.7100;-2.0000
1324.0490;-22.0500;-19.8200;-2.2300
1324.2480;-22.4600;-19.9200;-2.5400
1324.4470;-22.8900;-20.0200;-2.8700
1324.6460;-23.3900;-20.1400;-3.2500
1324.8450;-23.9500;-20.2400;-3.7100
1325.0440;-24.5700;-20.3600;-4.2100
1325.2430;-25.2600;-20.4600;-4.8000
1325.4430;-26.0100;-20.5800;-5.4300
1325.6420;-26.8700;-20.7200;-6.1500
1325.8410;-27.7900;-20.8400;-6.9500
1326.0400;-29.0600;-20.9700;-8.0900
1326.2390;-29.9800;-21.0800;-8.9000
1326.4380;-31.2100;-21.2100;-10.0000
1326.6370;-32.5600;-21.3300;-11.2300
1326.8360;-33.9500;-21.4500;-12.5000
1327.0350;-35.2800;-21.5900;-13.6900
1327.2350;-36.2900;-21.7100;-14.5800
1327.4340;-36.7200;-21.8500;-14.8700
1327.6330;-36.4300;-21.9700;-14.4600
1327.8320;-35.6300;-22.1000;-13.5300
1328.0310;-34.6300;-22.2400;-12.3900
1328.2300;-33.5900;-22.3700;-11.2200
1328.4290;-32.6200;-22.5100;-10.1100
1328.6280;-31.7600;-22.6400;-9.1200
1328.8270;-31.0100;-22.7700;-8.2400
1329.0270;-30.3800;-22.9200;-7.4600
1329.2260;-29.8200;-23.0500;-6.7700
1329.4250;-29.3700;-23.1900;-6.1800
1329.6240;-28.9700;-23.3100;-5.6600
1329.8230;-28.6600;-23.4600;-5.2000
1330.0220;-28.4200;-23.6000;-4.8200
1330.2210;-28.2300;-23.7300;-4.5000
1330.4200;-28.1000;-23.8800;-4.2200
1330.6200;-28.0100;-24.0100;-4.0000
1330.8190;-27.9900;-24.1600;-3.8300
1331.0180;-28.0100;-24.3000;-3.7100
1331.2170;-28.0800;-24.4500;-3.6300
1331.4160;-28.2000;-24.6100;-3.5900
1331.6150;-28.3600;-24.7400;-3.6200
1331.8140;-28.5700;-24.9100;-3.6600
1332.0130;-28.8100;-25.0400;-3.7700
1332.2120;-29.1100;-25.2000;-3.9100
1332.4120;-29.4500;-25.3600;-4.0900
1332.6110;-29.8500;-25.5100;-4.3400
1332.8100;-30.2900;-25.6700;-4.6200
1333.0090;-30.7500;-25.8200;-4.9300
1333.2080;-31.2700;-25.9700;-5.3000
1333.4070;-31.8400;-26.1300;-5.7100
1333.6060;-32.4400;-26.2800;-6.1600
1333.8050;-33.1000;-26.4500;-6.6500
1334.0040;-33.7700;-26.6000;-7.1700
1334.2040;-34.4700;-26.7700;-7.7000
1334.4030;-35.1500;-26.9200;-8.2300
1334.6020;-35.8200;-27.0900;-8.7300
1334.8010;-36.4300;-27.2400;-9.1900
1335.0000;-36.9300;-27.4000;-9.5300
1335.1990;-37.3000;-27.5800;-9.7200
1335.3980;-37.4800;-27.7300;-9.7500
1335.5970;-37.5100;-27.9000;-9.6100
1335.7970;-37.3600;-28.0600;-9.3000
1335.9960;-37.0900;-28.2300;-8.8600
1336.1950;-36.7500;-28.4000;-8.3500
1336.3940;-36.3500;-28.5900;-7.7600
1336.5930;-35.9500;-28.7300;-7.2200
1336.7920;-35.5400;-28.8800;-6.6600
1336.9910;-35.1800;-29.0600;-6.1200
1337.1900;-34.8400;-29.2200;-5.6200
1337.3890;-34.5400;-29.3900;-5.1500
1337.5890;-34.2900;-29.5600;-4.7300
1337.7880;-34.0700;-29.7200;-4.3500
1337.9870;-33.9000;-29.9000;-4.0000
1338.1860;-33.7600;-30.0600;-3.7000
1338.3850;-33.6800;-30.2400;-3.4400
1338.5840;-33.6300;-30.4000;-3.2300
1338.7830;-33.6200;-30.5700;-3.0500
1338.9820;-33.6600;-30.7400;-2.9200
1339.1810;-33.7300;-30.9100;-2.8200
1339.3810;-33.8400;-31.1000;-2.7400
1339.5800;-33.9900;-31.2600;-2.7300
1339.7790;-34.1800;-31.4400;-2.7400
1339.9780;-34.4200;-31.6100;-2.8100
1340.1770;-34.6900;-31.7900;-2.9000
1340.3760;-35.0100;-31.9800;-3.0300
1340.5750;-35.3700;-32.1600;-3.2100
1340.7740;-35.7600;-32.3400;-3.4200
1340.9740;-36.1900;-32.5000;-3.6900
1341.1730;-36.6600;-32.6800;-3.9800
1341.3720;-37.1800;-32.8700;-4.3100
1341.5710;-37.7400;-33.0400;-4.7000
1341.7700;-38.3500;-33.2300;-5.1200
1341.9690;-39.1400;-33.4000;-5.7400
1342.1680;-39.6900;-33.5800;-6.1100
1342.3670;-40.4000;-33.7500;-6.6500
1342.5660;-41.1300;-33.9300;-7.2000
1342.7660;-41.8800;-34.1200;-7.7600
1342.9650;-42.5700;-34.2900;-8.2800
1343.1640;-43.2200;-34.4800;-8.7400
1343.3630;-43.7300;-34.6600;-9.0700
1343.5620;-44.0800;-34.8300;-9.2500
1343.7610;-44.2600;-35.0200;-9.2400
1343.9600;-44.2400;-35.1900;-9.0500
1344.1590;-44.0500;-35.3900;-8.6600
1344.3580;-43.7300;-35.5600;-8.1700
1344.5580;-43.3500;-35.7400;-7.6100
1344.7570;-42.9300;-35.9300;-7.0000
1344.9560;-42.4800;-36.0900;-6.3900
1345.1550;-42.0700;-36.2700;-5.8000
1345.3540;-41.6700;-36.4300;-5.2400
1345.5530;-41.3200;-36.6100;-4.7100
1345.7520;-41.0000;-36.7700;-4.2300
1345.9510;-40.7300;-36.9500;-3.7800
1346.1500;-40.5100;-37.1300;-3.3800
1346.3500;-40.3300;-37.3100;-3.0200
1346.5490;-40.2100;-37.5000;-2.7100
1346.7480;-40.0900;-37.6700;-2.4200
1346.9470;-40.0100;-37.8400;-2.1700
1347.1460;-39.9900;-38.0100;-1.9800
1347.3450;-39.9800;-38.1600;-1.8200
1347.5440;-40.0800;-38.3800;-1.7000
1347.7430;-40.2000;-38.6500;-1.5500
1347.9430;-40.3500;-38.8100;-1.5400
1348.1420;-40.5000;-38.9800;-1.5200
1348.3410;-40.7000;-39.1600;-1.5400
1348.5400;-40.9000;-39.3100;-1.5900
1348.7390;-41.1400;-39.4700;-1.6700
1348.9380;-41.4300;-39.6400;-1.7900
1349.1370;-41.7500;-39.7900;-1.9600
1349.3360;-42.0900;-39.9400;-2.1500
1349.5350;-42.5000;-40.1100;-2.3900
1349.7350;-42.9300;-40.2600;-2.6700
1349.9340;-43.4400;-40.4500;-2.9900
1350.1330;-43.9900;-40.6300;-3.3600
1350.3320;-44.6400;-40.8800;-3.7600
1350.5310;-45.3400;-41.0900;-4.2500
1350.7300;-46.0700;-41.2600;-4.8100
1350.9290;-46.8700;-41.4200;-5.4500
1351.1280;-47.6700;-41.5300;-6.1400
1351.3270;-48.8100;-41.6900;-7.1200
1351.5270;-49.6600;-41.8600;-7.8000
1351.7260;-50.8500;-42.0900;-8.7600
1351.9250;-52.1700;-42.2900;-9.8800
1352.1240;-53.6000;-42.4500;-11.1500
1352.3230;-55.1100;-42.6300;-12.4800
1352.5220;-56.6500;-42.8300;-13.8200
1352.7210;-57.9800;-42.9800;-15.0000
1352.9200;-59.0200;-43.1300;-15.8900
1353.1200;-59.0500;-43.3800;-15.6700
1353.3190;-58.2800;-43.4900;-14.7900
1353.5180;-57.2100;-43.6500;-13.5600
1353.7170;-55.8800;-43.8300;-12.0500
1353.9160;-54.9700;-43.9200;-11.0500
1354.1150;-54.0400;-44.0600;-9.9800
1354.3140;-53.2800;-44.2700;-9.0100
1354.5130;-52.6200;-44.4600;-8.1600
1354.7120;-52.1900;-44.7700;-7.4200
1354.9120;-51.8000;-45.0300;-6.7700
1355.1110;-51.3800;-45.2100;-6.1700
1355.3100;-50.9700;-45.3100;-5.6600
1355.5090;-50.5400;-45.3000;-5.2400
1355.7080;-50.4500;-45.5700;-4.8800
1355.9070;-50.4200;-45.8200;-4.6000
1356.1060;-50.3000;-45.9800;-4.3200
1356.3050;-50.1600;-46.0400;-4.1200
1356.5040;-50.1200;-46.1300;-3.9900
1356.7040;-49.9200;-46.0400;-3.8800
1356.9030;-50.0000;-46.1800;-3.8200
1357.1020;-50.3300;-46.5600;-3.7700
1357.3010;-50.5900;-46.7600;-3.8300
1357.5000;-50.8300;-46.9400;-3.8900
1357.6990;-51.1100;-47.0900;-4.0200
1357.8980;-51.3500;-47.1300;-4.2200
1358.0970;-51.5900;-47.1900;-4.4000
1358.2970;-52.0000;-47.3600;-4.6400
1358.4960;-52.5200;-47.5900;-4.9300
1358.6950;-52.9800;-47.7100;-5.2700
1358.8940;-53.5400;-47.8600;-5.6800
1359.0930;-54.1600;-47.9900;-6.1700
1359.2920;-54.6700;-48.0200;-6.6500
1359.4910;-55.5200;-48.4000;-7.1200
1359.6900;-56.3900;-48.7400;-7.6500
1359.8890;-57.2600;-48.8900;-8.3700
1360.0890;-58.0500;-48.9200;-9.1300
1360.2880;-58.8300;-48.9400;-9.8900
1360.4870;-59.3500;-48.9200;-10.4300
1360.6860;-60.0200;-49.0800;-10.9400
1360.8850;-60.7400;-49.4200;-11.3200
1361.0840;-61.2500;-49.7000;-11.5500
1361.2830;-61.3600;-49.8800;-11.4800
1361.4820;-61.2200;-50.0100;-11.2100
1361.6810;-61.0100;-50.2300;-10.7800
1361.8810;-60.5300;-50.3500;-10.1800
1362.0800;-60.0800;-50.5700;-9.5100
1362.2790;-59.8500;-50.9900;-8.8600
1362.4780;-59.4700;-51.2200;-8.2500
1362.6770;-58.9000;-51.3500;-7.5500
1362.8760;-58.1600;-51.2200;-6.9400
1363.0750;-57.5900;-51.1400;-6.4500
1363.2740;-56.9400;-50.9000;-6.0400
1363.4740;-56.6200;-50.9800;-5.6400
1363.6730;-56.3000;-51.0700;-5.2300
1363.8720;-56.1800;-51.2000;-4.9800
1364.0710;-56.1200;-51.4200;-4.7000
1364.2700;-56.1100;-51.6000;-4.5100
1364.4690;-56.2200;-51.9100;-4.3100
1364.6680;-56.6100;-52.4200;-4.1900
1364.8670;-56.7700;-52.6400;-4.1300
1365.0660;-56.6900;-52.6200;-4.0700
1365.2660;-56.8800;-52.7600;-4.1200
1365.4650;-56.8400;-52.7000;-4.1400
1365.6640;-56.9800;-52.7700;-4.2100
1365.8630;-57.1600;-52.8000;-4.3600
1366.0620;-57.3300;-52.8100;-4.5200
1366.2610;-57.5200;-52.8000;-4.7200
1366.4600;-57.8100;-52.8800;-4.9300
1366.6590;-58.2600;-53.0300;-5.2300
1366.8580;-58.9400;-53.2700;-5.6700
1367.0580;-59.3400;-53.4100;-5.9300
1367.2570;-59.8400;-53.5200;-6.3200
1367.4560;-60.5300;-53.7900;-6.7400
1367.6550;-61.1200;-53.9700;-7.1500
1367.8540;-61.8800;-54.2600;-7.6200
1368.0530;-62.5200;-54.3600;-8.1600
1368.2520;-62.9800;-54.3500;-8.6300
1368.4510;-63.6900;-54.6900;-9.0000
1368.6500;-64.0900;-54.7800;-9.3100
1368.8500;-64.5400;-54.9000;-9.6400
1369.0490;-64.6800;-54.8600;-9.8200
1369.2480;-64.6800;-54.8400;-9.8400
1369.4470;-64.4300;-54.7700;-9.6600
1369.6460;-64.2800;-54.8700;-9.4100
1369.8450;-64.2700;-55.2100;-9.0600
1370.0440;-64.0000;-55.4100;-8.5900
1370.2430;-63.6300;-55.5500;-8.0800
1370.4430;-63.1300;-55.5900;-7.5400
1370.6420;-62.7000;-55.6200;-7.0800
1370.8410;-62.5800;-55.9300;-6.6500
1371.0400;-62.3700;-56.2100;-6.1600
1371.2390;-62.1100;-56.4200;-5.6900
1371.4380;-61.6800;-56.4000;-5.2800
1371.6370;-61.3100;-56.4000;-4.9100
1371.8360;-60.9700;-56.3600;-4.6100
1372.0350;-60.8700;-56.5700;-4.3000
1372.2350;-60.8300;-56.7800;-4.0500
1372.4340;-60.6900;-56.8900;-3.8000
1372.6330;-60.5600;-56.9800;-3.5800
1372.8320;-60.4400;-57.0000;-3.4400
1373.0310;-60.3400;-57.0700;-3.2700
1373.2300;-60.3700;-57.1800;-3.1900
1373.4290;-60.4600;-57.3500;-3.1100
1373.6280;-60.5300;-57.4800;-3.0500
1373.8270;-60.5800;-57.5700;-3.0100
1374.0270;-60.7100;-57.7000;-3.0100
1374.2260;-60.8200;-57.8000;-3.0200
1374.4250;-61.0100;-57.9700;-3.0400
1374.6240;-61.2300;-58.0900;-3.1400
1374.8230;-61.5100;-58.3000;-3.2100
1375.0220;-61.7600;-58.5500;-3.2100
1375.2210;-61.9600;-58.5900;-3.3700
1375.4200;-62.1600;-58.6900;-3.4700
1375.6200;-62.3500;-58.7800;-3.5700
1375.8190;-62.5800;-58.9100;-3.6700
1376.0180;-62.8700;-59.0600;-3.8100
1376.2170;-63.1200;-59.2300;-3.8900
1376.4160;-63.3400;-59.3400;-4.0000
1376.6150;-63.5300;-59.4400;-4.0900
1376.8140;-63.7400;-59.6300;-4.1100
1377.0130;-64.0300;-59.8800;-4.1500
1377.2120;-64.2500;-60.0700;-4.1800
1377.4120;-64.2800;-60.1500;-4.1300
1377.6110;-64.3400;-60.2300;-4.1100
1377.8100;-64.2300;-60.2300;-4.0000
1378.0090;-64.2500;-60.3000;-3.9500
1378.2080;-64.2000;-60.4300;-3.7700
1378.4070;-64.2600;-60.6000;-3.6600
1378.6060;-64.3900;-60.8600;-3.5300
1378.8050;-64.5600;-61.1800;-3.3800
1379.0040;-64.5600;-61.3200;-3.2400
1379.2040;-64.4400;-61.3700;-3.0700
1379.4030;-64.2800;-61.3500;-2.9300
1379.6020;-64.1300;-61.3700;-2.7600
1379.8010;-64.0300;-61.4100;-2.6200
1380.0000;-64.0400;-61.5700;-2.4700
1380.1990;-64.1900;-61.7500;-2.4400
1380.3980;-64.2600;-61.9400;-2.3200
1380.5970;-64.7100;-62.5300;-2.1800
1380.7970;-65.1400;-62.9800;-2.1600
1380.9960;-65.2800;-63.1600;-2.1200
1381.1950;-65.3300;-63.2000;-2.1300
1381.3940;-65.1000;-62.9600;-2.1400
1381.5930;-64.8300;-62.6800;-2.1500
1381.7920;-65.0000;-62.7200;-2.2800
1381.9910;-65.0900;-62.7800;-2.3100
1382.1900;-65.3400;-62.9000;-2.4400
1382.3890;-65.8200;-63.2200;-2.6000
1382.5890;-66.4200;-63.7800;-2.6400
1382.7880;-67.0200;-64.2900;-2.7300
1382.9870;-67.5700;-64.5200;-3.0500
1383.1860;-67.6700;-64.3000;-3.3700
1383.3850;-67.6500;-64.0900;-3.5600
1383.5840;-67.7700;-63.8900;-3.8800
1383.7830;-68.1300;-64.0000;-4.1300
1383.9820;-68.6000;-64.1200;-4.4800
1384.1810;-68.8800;-64.2000;-4.6800
1384.3810;-69.1600;-64.2300;-4.9300
1384.5800;-69.2900;-64.2100;-5.0800
1384.7790;-69.5400;-64.3500;-5.1900
1384.9780;-70.1500;-64.6000;-5.5500
1385.1770;-70.5100;-64.8600;-5.6500
1385.3760;-70.6600;-64.9400;-5.7200
1385.5750;-70.8400;-64.9400;-5.9000
1385.7740;-70.7300;-64.9300;-5.8000
1385.9740;-70.6400;-64.9400;-5.7000
1386.1730;-70.7300;-65.0100;-5.7200
1386.3720;-70.5900;-65.1700;-5.4200
1386.5710;-70.4600;-65.1500;-5.3100
1386.7700;-70.0900;-65.1500;-4.9400
1386.9690;-69.8100;-65.2700;-4.5400
1387.1680;-69.5900;-65.2700;-4.3200
1387.3670;-69.4100;-65.3100;-4.1000
1387.5660;-69.2800;-65.4500;-3.8300
1387.7660;-69.3600;-65.6700;-3.6900
1387.9650;-69.3900;-65.9700;-3.4200
1388.1640;-69.2900;-66.2100;-3.0800
1388.3630;-69.2300;-66.3200;-2.9100
1388.5620;-69.1000;-66.2400;-2.8600
1388.7610;-68.8500;-66.1100;-2.7400
1388.9600;-68.7200;-66.1800;-2.5400
1389.1590;-68.5600;-66.0800;-2.4800
1389.3580;-68.5000;-66.0400;-2.4600
1389.5580;-68.4900;-66.1600;-2.3300
1389.7570;-68.6100;-66.3000;-2.3100
1389.9560;-68.7000;-66.4100;-2.2900
1390.1550;-68.9700;-66.4700;-2.5000
1390.3540;-69.1000;-66.4600;-2.6400
1390.5530;-69.1700;-66.6000;-2.5700
1390.7520;-69.3400;-66.5400;-2.8000
1390.9510;-69.5600;-66.7100;-2.8500
1391.1500;-69.7400;-66.7900;-2.9500
1391.3500;-70.2100;-66.8700;-3.3400
1391.5490;-70.4200;-67.0000;-3.4200
1391.7480;-70.8000;-67.0800;-3.7200
1391.9470;-71.1100;-67.1600;-3.9500
1392.1460;-71.4300;-67.3600;-4.0700
1392.3450;-72.0800;-67.5300;-4.5500
1392.5440;-72.7000;-67.9900;-4.7100
1392.7430;-73.3400;-68.2400;-5.1000
1392.9430;-73.6100;-68.1900;-5.4200
1393.1420;-73.8800;-68.0800;-5.8000
1393.3410;-73.7100;-67.8300;-5.8800
1393.5400;-73.9100;-67.8600;-6.0500
1393.7390;-74.0100;-67.8300;-6.1800
1393.9380;-74.4700;-67.9200;-6.5500
1394.1370;-74.5100;-68.1100;-6.4000
1394.3360;-74.3400;-68.1800;-6.1600
1394.5350;-74.3700;-68.2200;-6.1500
1394.7350;-74.2600;-68.3800;-5.8800
1394.9340;-74.3400;-68.6200;-5.7200
1395.1330;-74.5700;-68.9200;-5.6500
1395.3320;-74.2100;-69.0000;-5.2100
1395.5310;-73.9400;-69.2600;-4.6800
1395.7300;-73.7800;-69.2000;-4.5800
1395.9290;-73.6100;-69.1200;-4.4900
1396.1280;-72.9500;-69.2000;-3.7500
1396.3270;-72.8200;-69.3200;-3.5000
1396.5270;-72.6400;-69.6400;-3.0000
1396.7260;-72.7300;-69.8000;-2.9300
1396.9250;-72.5600;-69.8000;-2.7600
1397.1240;-72.2900;-69.5500;-2.7400
1397.3230;-71.8500;-69.5200;-2.3300
1397.5220;-71.9800;-69.5200;-2.4600
1397.7210;-71.7600;-69.4600;-2.3000
1397.9200;-71.9200;-69.5900;-2.3300
1398.1200;-71.8700;-69.8000;-2.0700
1398.3190;-71.8600;-69.7200;-2.1400
1398.5180;-71.9200;-69.6900;-2.2300
1398.7170;-71.8900;-69.8400;-2.0500
1398.9160;-72.3600;-69.8300;-2.5300
1399.1150;-72.4600;-70.0800;-2.3800
1399.3140;-72.5900;-70.1700;-2.4200
1399.5130;-72.7300;-70.4300;-2.3000
1399.7120;-73.4400;-70.6800;-2.7600
1399.9120;-73.6300;-70.7500;-2.8800
1400.1110;-74.1700;-70.9500;-3.2200
1400.3100;-74.5600;-70.7100;-3.8500
1400.5090;-74.6200;-70.7700;-3.8500
1400.7080;-75.2600;-71.2500;-4.0100
1400.9070;-75.8100;-71.3400;-4.4700
1401.1060;-76.1100;-71.5100;-4.6000
1401.3050;-76.3100;-71.5600;-4.7500
1401.5040;-76.8900;-71.4400;-5.4500
1401.7040;-76.7800;-71.3800;-5.4000
1401.9030;-77.5500;-71.6000;-5.9500
1402.1020;-77.5500;-71.3900;-6.1600
1402.3010;-76.6700;-71.3800;-5.2900
1402.5000;-78.0300;-71.5400;-6.4900
1402.6990;-76.9600;-71.5900;-5.3700
1402.8980;-77.2800;-71.7300;-5.5500
1403.0970;-78.0300;-71.8300;-6.2000
1403.2970;-78.1500;-72.0500;-6.1000
1403.4960;-78.0300;-72.1600;-5.8700
1403.6950;-78.1200;-71.8300;-6.2900
1403.8940;-76.9600;-72.1700;-4.7900
1404.0930;-77.2100;-72.3100;-4.9000
1404.2920;-77.3200;-72.4400;-4.8800
1404.4910;-76.8900;-72.7300;-4.1600
1404.6900;-77.0000;-72.8000;-4.2000
1404.8890;-77.0800;-73.0400;-4.0400
1405.0890;-76.7100;-73.2800;-3.4300
1405.2880;-77.2300;-73.5400;-3.6900
1405.4870;-76.5000;-73.3400;-3.1600
1405.6860;-75.8400;-73.0200;-2.8200
1405.8850;-75.5300;-72.9400;-2.5900
1406.0840;-75.9900;-73.1300;-2.8600
1406.2830;-76.4500;-73.4200;-3.0300
1406.4820;-76.1200;-73.2200;-2.9000
1406.6810;-75.9500;-73.2800;-2.6700
1406.8810;-76.7300;-73.3900;-3.3400
1407.0800;-76.3700;-73.5000;-2.8700
1407.2790;-76.3900;-74.4200;-1.9700
1407.4780;-76.9300;-74.1900;-2.7400
1407.6770;-76.4100;-73.8000;-2.6100
1407.8760;-77.4500;-74.1500;-3.3000
1408.0750;-76.8800;-73.8700;-3.0100
1408.2740;-77.5600;-73.8700;-3.6900
1408.4740;-77.1700;-73.5900;-3.5800
1408.6730;-77.7100;-73.7600;-3.9500
1408.8720;-78.2800;-74.0100;-4.2700
1409.0710;-77.7100;-74.0400;-3.6700
1409.2700;-77.9900;-74.3000;-3.6900
1409.4690;-79.2200;-74.6900;-4.5300
1409.6680;-78.6000;-74.3600;-4.2400
1409.8670;-78.6300;-74.7000;-3.9300
1410.0660;-79.7300;-75.2200;-4.5100
1410.2660;-80.0200;-74.3600;-5.6600
1410.4650;-80.3000;-74.3000;-6.0000
1410.6640;-78.6000;-75.0900;-3.5100
1410.8630;-78.6000;-74.9700;-3.6300
1411.0620;-79.8000;-75.3600;-4.4400
1411.2610;-79.3800;-74.8700;-4.5100
1411.4600;-79.1000;-74.9200;-4.1800
1411.6590;-78.7700;-74.7200;-4.0500
1411.8580;-80.1000;-74.5600;-5.5400
1412.0580;-79.1900;-74.8000;-4.3900
1412.2570;-80.3400;-74.8800;-5.4600
1412.4560;-79.1300;-75.2000;-3.9300
1412.6550;-80.8600;-75.2200;-5.6400
1412.8540;-79.5200;-75.4200;-4.1000
1413.0530;-79.9400;-75.0100;-4.9300
1413.2520;-79.4200;-75.2500;-4.1700
1413.4510;-79.2500;-74.8100;-4.4400
1413.6500;-80.1900;-74.6700;-5.5200
1413.8500;-78.9000;-75.3900;-3.5100
1414.0490;-79.0500;-75.7400;-3.3100
1414.2480;-78.9600;-75.8600;-3.1000
1414.4470;-79.5300;-75.4100;-4.1200
1414.6460;-78.6700;-75.5500;-3.1200
1414.8450;-79.6700;-75.7400;-3.9300
1415.0440;-78.6700;-75.0100;-3.6600
1415.2430;-79.5300;-75.4700;-4.0600
1415.4430;-80.1100;-75.1100;-5.0000
1415.6420;-80.6900;-75.3100;-5.3800
1415.8410;-79.7700;-75.9200;-3.8500
1416.0400;-77.7700;-75.7100;-2.0600
1416.2390;-78.7200;-75.2100;-3.5100
1416.4380;-78.9600;-75.0800;-3.8800
1416.6370;-79.3900;-75.6200;-3.7700
1416.8360;-78.7800;-75.4400;-3.3400
1417.0350;-78.8400;-75.3400;-3.5000
1417.2350;-79.3600;-75.2200;-4.1400
1417.4340;-79.1100;-75.5500;-3.5600
1417.6330;-78.6700;-75.8600;-2.8100
1417.8320;-79.6700;-75.6900;-3.9800
1418.0310;-79.8400;-75.8300;-4.0100
1418.2300;-78.4200;-75.3100;-3.1100
1418.4290;-78.1900;-75.3200;-2.8700
1418.6280;-78.3200;-74.9900;-3.3300
1418.8270;-78.9000;-75.8900;-3.0100
1419.0270;-79.1700;-75.9600;-3.2100
1419.2260;-78.9000;-75.7700;-3.1300
1419.4250;-80.5100;-75.9900;-4.5200
1419.6240;-80.1500;-75.6000;-4.5500
1419.8230;-79.7700;-75.8100;-3.9600
1420.0220;-79.5300;-76.3000;-3.2300
1420.2210;-79.1100;-76.2100;-2.9000
1420.4200;-80.3900;-76.4300;-3.9600
1420.6200;-79.2300;-75.8600;-3.3700
1420.8190;-79.5300;-75.0600;-4.4700
1421.0180;-78.9000;-75.2000;-3.7000
1421.2170;-79.3900;-75.3600;-4.0300
1421.4160;-79.7400;-75.7700;-3.9700
1421.6150;-80.1200;-75.5600;-4.5600
1421.8140;-79.4400;-75.6300;-3.8100
1422.0130;-79.4000;-75.9900;-3.4100
1422.2120;-80.2800;-75.6400;-4.6400
1422.4120;-80.2000;-75.2800;-4.9200
1422.6110;-78.7300;-75.6700;-3.0600
1422.8100;-77.9600;-76.0000;-1.9600
1423.0090;-78.5700;-75.8200;-2.7500
1423.2080;-78.9700;-75.3300;-3.6400
1423.4070;-78.5700;-75.3500;-3.2200
1423.6060;-79.2100;-75.2900;-3.9200
1423.8050;-78.5100;-75.9900;-2.5200
1424.0040;-77.4900;-75.4200;-2.0700
1424.2040;-78.4900;-75.3200;-3.1700
1424.4030;-78.6500;-75.6100;-3.0400
1424.6020;-78.8200;-75.4400;-3.3800
1424.8010;-79.5400;-75.1900;-4.3500
1425.0000;-79.0300;-75.3300;-3.7000
