Wavelength;Intensity_Meas;Intensity_Ref;Difference_dB
1200.0000;-60.7400;-55.6000;-5.1400
1200.1990;-60.6400;-55.5600;-5.0800
1200.3980;-60.6400;-55.5400;-5.1000
1200.5970;-60.6400;-55.5000;-5.1400
1200.7970;-60.5900;-55.4800;-5.1100
1200.9960;-60.5300;-55.4400;-5.0900
1201.1950;-60.4800;-55.3900;-5.0900
1201.3940;-60.5100;-55.3500;-5.1600
1201.5930;-60.5000;-55.3200;-5.1800
1201.7920;-60.4200;-55.2800;-5.1400
1201.9910;-60.3600;-55.2100;-5.1500
1202.1900;-60.3700;-55.1600;-5.2100
1202.3890;-60.3600;-55.1100;-5.2500
1202.5890;-60.3000;-55.0800;-5.2200
1202.7880;-60.2400;-55.0100;-5.2300
1202.9870;-60.2200;-54.9400;-5.2800
1203.1860;-60.2300;-54.8900;-5.3400
1203.3850;-60.1800;-54.8700;-5.3100
1203.5840;-60.1100;-54.8100;-5.3000
1203.7830;-60.0600;-54.7500;-5.3100
1203.9820;-60.0800;-54.7200;-5.3600
1204.1810;-60.0900;-54.6800;-5.4100
1204.3810;-60.0200;-54.6400;-5.3800
1204.5800;-59.9800;-54.6000;-5.3800
1204.7790;-60.0400;-54.5800;-5.4600
1204.9780;-60.0600;-54.5500;-5.5100
1205.1770;-60.0300;-54.5100;-5.5200
1205.3760;-60.0100;-54.4800;-5.5300
1205.5750;-60.0700;-54.4600;-5.6100
1205.7740;-60.1200;-54.4400;-5.6800
1205.9740;-60.1100;-54.4400;-5.6700
1206.1730;-60.0800;-54.4100;-5.6700
1206.3720;-60.0800;-54.3800;-5.7000
1206.5710;-60.1300;-54.3500;-5.7800
1206.7700;-60.1300;-54.3400;-5.7900
1206.9690;-60.0400;-54.3100;-5.7300
1207.1680;-60.0300;-54.2700;-5.7600
1207.3670;-60.0200;-54.2400;-5.7800
1207.5660;-60.0300;-54.2200;-5.8100
1207.7660;-59.9000;-54.1900;-5.7100
1207.9650;-59.8500;-54.1500;-5.7000
1208.1640;-59.8700;-54.0900;-5.7800
1208.3630;-59.8200;-54.0700;-5.7500
1208.5620;-59.7300;-54.0300;-5.7000
1208.7610;-59.6500;-53.9700;-5.6800
1208.9600;-59.6200;-53.9200;-5.7000
1209.1590;-59.6000;-53.8600;-5.7400
1209.3580;-59.5000;-53.8200;-5.6800
1209.5580;-59.4000;-53.7600;-5.6400
1209.7570;-59.3800;-53.7100;-5.6700
1209.9560;-59.3400;-53.6500;-5.6900
1210.1550;-59.2800;-53.6100;-5.6700
1210.3540;-59.1700;-53.5700;-5.6000
1210.5530;-59.1100;-53.4900;-5.6200
1210.7520;-59.1200;-53.4400;-5.6800
1210.9510;-59.0500;-53.4100;-5.6400
1211.1500;-58.9300;-53.3500;-5.5800
1211.3500;-58.8600;-53.3100;-5.5500
1211.5490;-58.8900;-53.2600;-5.6300
1211.7480;-58.8900;-53.2300;-5.6600
1211.9470;-58.7900;-53.2100;-5.5800
1212.1460;-58.7400;-53.1600;-5.5800
1212.3450;-58.7700;-53.1200;-5.6500
1212.5440;-58.7700;-53.1000;-5.6700
1212.7430;-58.7300;-53.0700;-5.6600
1212.9430;-58.7000;-53.0300;-5.6700
1213.1420;-58.7600;-52.9900;-5.7700
1213.3410;-58.7700;-52.9800;-5.7900
1213.5400;-58.7600;-52.9500;-5.8100
1213.7390;-58.7300;-52.9000;-5.8300
1213.9380;-58.7500;-52.8700;-5.8800
1214.1370;-58.8000;-52.8300;-5.9700
1214.3360;-58.7600;-52.8000;-5.9600
1214.5350;-58.6900;-52.7600;-5.9300
1214.7350;-58.7100;-52.7100;-6.0000
1214.9340;-58.7200;-52.6600;-6.0600
1215.1330;-58.6600;-52.6200;-6.0400
1215.3320;-58.5500;-52.5800;-5.9700
1215.5310;-58.5400;-52.5100;-6.0300
1215.7300;-58.5500;-52.4500;-6.1000
1215.9290;-58.4600;-52.4200;-6.0400
1216.1280;-58.3600;-52.3500;-6.0100
1216.3270;-58.2800;-52.2900;-5.9900
1216.5270;-58.2600;-52.2300;-6.0300
1216.7260;-58.1800;-52.1700;-6.0100
1216.9250;-58.0300;-52.1200;-5.9100
1217.1240;-57.9400;-52.0500;-5.8900
1217.3230;-57.8800;-52.0000;-5.8800
1217.5220;-57.7900;-51.9400;-5.8500
1217.7210;-57.6300;-51.8900;-5.7400
1217.9200;-57.5000;-51.8400;-5.6600
1218.1200;-57.4300;-51.7700;-5.6600
1218.3190;-57.3300;-51.7400;-5.5900
1218.5180;-57.1800;-51.6900;-5.4900
1218.7170;-57.0500;-51.6500;-5.4000
1218.9160;-56.9800;-51.6100;-5.3700
1219.1150;-56.9300;-51.5600;-5.3700
1219.3140;-56.7800;-51.5400;-5.2400
1219.5130;-56.6800;-51.5000;-5.1800
1219.7120;-56.6500;-51.4500;-5.2000
1219.9120;-56.6200;-51.4200;-5.2000
1220.1110;-56.5400;-51.3900;-5.1500
1220.3100;-56.4600;-51.3500;-5.1100
1220.5090;-56.4700;-51.3000;-5.1700
1220.7080;-56.4800;-51.2600;-5.2200
1220.9070;-56.4400;-51.2200;-5.2200
1221.1060;-56.4000;-51.1600;-5.2400
1221.3050;-56.4100;-51.1200;-5.2900
1221.5040;-56.4400;-51.0400;-5.4000
1221.7040;-56.4300;-50.9900;-5.4400
1221.9030;-56.4000;-50.9400;-5.4600
1222.1020;-56.4300;-50.8600;-5.5700
1222.3010;-56.4700;-50.8100;-5.6600
1222.5000;-56.4500;-50.7300;-5.7200
1222.6990;-56.4500;-50.6700;-5.7800
1222.8980;-56.4700;-50.5900;-5.8800
1223.0970;-56.5100;-50.5100;-6.0000
1223.2970;-56.5100;-50.4600;-6.0500
1223.4960;-56.4800;-50.3700;-6.1100
1223.6950;-56.5200;-50.3000;-6.2200
1223.8940;-56.5700;-50.2400;-6.3300
1224.0930;-56.5700;-50.1600;-6.4100
1224.2920;-56.5500;-50.1100;-6.4400
1224.4910;-56.5600;-50.0200;-6.5400
1224.6900;-56.5900;-49.9600;-6.6300
1224.8890;-56.5600;-49.9000;-6.6600
1225.0890;-56.5100;-49.8400;-6.6700
1225.2880;-56.4700;-49.7800;-6.6900
1225.4870;-56.4300;-49.7100;-6.7200
1225.6860;-56.3600;-49.6600;-6.7000
1225.8850;-56.2300;-49.6200;-6.6100
1226.0840;-56.1300;-49.5500;-6.5800
1226.2830;-56.0300;-49.5100;-6.5200
1226.4820;-55.8800;-49.4400;-6.4400
1226.6810;-55.6600;-49.4000;-6.2600
1226.8810;-55.5600;-49.3500;-6.2100
1227.0800;-55.4300;-49.2800;-6.1500
1227.2790;-55.2700;-49.2400;-6.0300
1227.4780;-55.0900;-49.1700;-5.9200
1227.6770;-54.9500;-49.1100;-5.8400
1227.8760;-54.8300;-49.0500;-5.7800
1228.0750;-54.6800;-48.9800;-5.7000
1228.2740;-54.5200;-48.9200;-5.6000
1228.4740;-54.4100;-48.8400;-5.5700
1228.6730;-54.3200;-48.7700;-5.5500
1228.8720;-54.2000;-48.7000;-5.5000
1229.0710;-54.0700;-48.6200;-5.4500
1229.2700;-54.0000;-48.5500;-5.4500
1229.4690;-53.9300;-48.4500;-5.4800
1229.6680;-53.8500;-48.3800;-5.4700
1229.8670;-53.7500;-48.3000;-5.4500
1230.0660;-53.7200;-48.2100;-5.5100
1230.2660;-53.6800;-48.1300;-5.5500
1230.4650;-53.6200;-48.0400;-5.5800
1230.6640;-53.5700;-47.9600;-5.6100
1230.8630;-53.5900;-47.8900;-5.7000
1231.0620;-53.6100;-47.8100;-5.8000
1231.2610;-53.6100;-47.7600;-5.8500
1231.4600;-53.6300;-47.6800;-5.9500
1231.6590;-53.6800;-47.6200;-6.0600
1231.8580;-53.7300;-47.5500;-6.1800
1232.0580;-53.7700;-47.5000;-6.2700
1232.2570;-53.8100;-47.4400;-6.3700
1232.4560;-53.8900;-47.3700;-6.5200
1232.6550;-53.9400;-47.3200;-6.6200
1232.8540;-53.9500;-47.2500;-6.7000
1233.0530;-53.9900;-47.2000;-6.7900
1233.2520;-54.0200;-47.1500;-6.8700
1233.4510;-54.0100;-47.0700;-6.9400
1233.6500;-53.9700;-47.0300;-6.9400
1233.8500;-53.9200;-46.9500;-6.9700
1234.0490;-53.8900;-46.8900;-7.0000
1234.2480;-53.7700;-46.8300;-6.9400
1234.4470;-53.6400;-46.7500;-6.8900
1234.6460;-53.5300;-46.6900;-6.8400
1234.8450;-53.4100;-46.6100;-6.8000
1235.0440;-53.2400;-46.5300;-6.7100
1235.2430;-53.0600;-46.4600;-6.6000
1235.4430;-52.9100;-46.3600;-6.5500
1235.6420;-52.7500;-46.2900;-6.4600
1235.8410;-52.5500;-46.1900;-6.3600
1236.0400;-52.3700;-46.1100;-6.2600
1236.2390;-52.2200;-46.0200;-6.2000
1236.4380;-52.0600;-45.9100;-6.1500
1236.6370;-51.8700;-45.8300;-6.0400
1236.8360;-51.7100;-45.7400;-5.9700
1237.0350;-51.5900;-45.6700;-5.9200
1237.2350;-51.4400;-45.5700;-5.8700
1237.4340;-51.2900;-45.4700;-5.8200
1237.6330;-51.1700;-45.3900;-5.7800
1237.8320;-51.0900;-45.3100;-5.7800
1238.0310;-50.9900;-45.2400;-5.7500
1238.2300;-50.8900;-45.1500;-5.7400
1238.4290;-50.8400;-45.0700;-5.7700
1238.6280;-50.7900;-45.0000;-5.7900
1238.8270;-50.7300;-44.9100;-5.8200
1239.0270;-50.6900;-44.8500;-5.8400
1239.2260;-50.6700;-44.7500;-5.9200
1239.4250;-50.6700;-44.6700;-6.0000
1239.6240;-50.6300;-44.6000;-6.0300
1239.8230;-50.6000;-44.5100;-6.0900
1240.0220;-50.6000;-44.4400;-6.1600
1240.2210;-50.5500;-44.3400;-6.2100
1240.4200;-50.5000;-44.2500;-6.2500
1240.6200;-50.4400;-44.1600;-6.2800
1240.8190;-50.3700;-44.0600;-6.3100
1241.0180;-50.2500;-43.9600;-6.2900
1241.2170;-50.1200;-43.8500;-6.2700
1241.4160;-50.0000;-43.7400;-6.2600
1241.6150;-49.8300;-43.6200;-6.2100
1241.8140;-49.6600;-43.5000;-6.1600
1242.0130;-49.4800;-43.4000;-6.0800
1242.2120;-49.3000;-43.2700;-6.0300
1242.4120;-49.1200;-43.1500;-5.9700
1242.6110;-48.9000;-43.0300;-5.8700
1242.8100;-48.7100;-42.9000;-5.8100
1243.0090;-48.5200;-42.7800;-5.7400
1243.2080;-48.3300;-42.6500;-5.6800
1243.4070;-48.1600;-42.5300;-5.6300
1243.6060;-47.9800;-42.4000;-5.5800
1243.8050;-47.8400;-42.2800;-5.5600
1244.0040;-47.6900;-42.1600;-5.5300
1244.2040;-47.5500;-42.0300;-5.5200
1244.4030;-47.4600;-41.9100;-5.5500
1244.6020;-47.3500;-41.7900;-5.5600
1244.8010;-47.2700;-41.6700;-5.6000
1245.0000;-47.2100;-41.5700;-5.6400
1245.1990;-47.1700;-41.4400;-5.7300
1245.3980;-47.1600;-41.3300;-5.8300
1245.5970;-47.1300;-41.2000;-5.9300
1245.7970;-47.1600;-41.0800;-6.0800
1245.9960;-47.1700;-40.9700;-6.2000
1246.1950;-47.2200;-40.8400;-6.3800
1246.3940;-47.2900;-40.7200;-6.5700
1246.5930;-47.3500;-40.5800;-6.7700
1246.7920;-47.4300;-40.4600;-6.9700
1246.9910;-47.4900;-40.3300;-7.1600
1247.1900;-47.5700;-40.1900;-7.3800
1247.3890;-47.6400;-40.0500;-7.5900
1247.5890;-47.6400;-39.9100;-7.7300
1247.7880;-47.6500;-39.7700;-7.8800
1247.9870;-47.5900;-39.6400;-7.9500
1248.1860;-47.4800;-39.4900;-7.9900
1248.3850;-47.3200;-39.3500;-7.9700
1248.5840;-47.0800;-39.2000;-7.8800
1248.7830;-46.8100;-39.0500;-7.7600
1248.9820;-46.4700;-38.9300;-7.5400
1249.1810;-46.0900;-38.7700;-7.3200
1249.3810;-45.6200;-38.6400;-6.9800
1249.5800;-45.2500;-38.5000;-6.7500
1249.7790;-44.8000;-38.3600;-6.4400
1249.9780;-44.3400;-38.2200;-6.1200
1250.1770;-43.8900;-38.0800;-5.8100
1250.3760;-43.4300;-37.9500;-5.4800
1250.5750;-42.9700;-37.8100;-5.1600
1250.7740;-42.5500;-37.6800;-4.8700
1250.9740;-42.1400;-37.5700;-4.5700
1251.1730;-41.7600;-37.4300;-4.3300
1251.3720;-41.3700;-37.3000;-4.0700
1251.5710;-41.0300;-37.1800;-3.8500
1251.7700;-40.7000;-37.0400;-3.6600
1251.9690;-40.3900;-36.9200;-3.4700
1252.1680;-40.1200;-36.7700;-3.3500
1252.3670;-39.8500;-36.6500;-3.2000
1252.5660;-39.6300;-36.5200;-3.1100
1252.7660;-39.4200;-36.3800;-3.0400
1252.9650;-39.2400;-36.2600;-2.9800
1253.1640;-39.1000;-36.1100;-2.9900
1253.3630;-38.9600;-35.9700;-2.9900
1253.5620;-38.8700;-35.8000;-3.0700
1253.7610;-38.7900;-35.6900;-3.1000
1253.9600;-38.7400;-35.5400;-3.2000
1254.1590;-38.7200;-35.4000;-3.3200
1254.3580;-38.6900;-35.2500;-3.4400
1254.5580;-38.7100;-35.1100;-3.6000
1254.7570;-38.7300;-34.9700;-3.7600
1254.9560;-38.7600;-34.8100;-3.9500
1255.1550;-38.8300;-34.6700;-4.1600
1255.3540;-38.8600;-34.5400;-4.3200
1255.5530;-38.9100;-34.4000;-4.5100
1255.7520;-38.9400;-34.2700;-4.6700
1255.9510;-38.9500;-34.1200;-4.8300
1256.1500;-38.9600;-34.0000;-4.9600
1256.3500;-38.9000;-33.8600;-5.0400
1256.5490;-38.8300;-33.7300;-5.1000
1256.7480;-38.6900;-33.6200;-5.0700
1256.9470;-38.5100;-33.4700;-5.0400
1257.1460;-38.2900;-33.3500;-4.9400
1257.3450;-38.0100;-33.2300;-4.7800
1257.5440;-37.7200;-33.1000;-4.6200
1257.7430;-37.3700;-32.9900;-4.3800
1257.9430;-36.9900;-32.8400;-4.1500
1258.1420;-36.6300;-32.7300;-3.9000
1258.3410;-36.2200;-32.5900;-3.6300
1258.5400;-35.7500;-32.4700;-3.2800
1258.7390;-35.4100;-32.3500;-3.0600
1258.9380;-35.0300;-32.2000;-2.8300
1259.1370;-34.6400;-32.0800;-2.5600
1259.3360;-34.2800;-31.9300;-2.3500
1259.5350;-33.9300;-31.8000;-2.1300
1259.7350;-33.6000;-31.6700;-1.9300
1259.9340;-33.3000;-31.5200;-1.7800
1260.1330;-33.0100;-31.4000;-1.6100
1260.3320;-32.7600;-31.2600;-1.5000
1260.5310;-32.5400;-31.1300;-1.4100
1260.7300;-32.3300;-31.0000;-1.3300
1260.9290;-32.1700;-30.8600;-1.3100
1261.1280;-32.0100;-30.7300;-1.2800
1261.3270;-31.9000;-30.5900;-1.3100
1261.5270;-31.8300;-30.4700;-1.3600
1261.7260;-31.7800;-30.3500;-1.4300
1261.9250;-31.7800;-30.2100;-1.5700
1262.1240;-31.7800;-30.0900;-1.6900
1262.3230;-31.8400;-29.9600;-1.8800
1262.5220;-31.9500;-29.8500;-2.1000
1262.7210;-32.0800;-29.7300;-2.3500
1262.9200;-32.2800;-29.6000;-2.6800
1263.1200;-32.5000;-29.4800;-3.0200
1263.3190;-32.7800;-29.3500;-3.4300
1263.5180;-33.1200;-29.2300;-3.8900
1263.7170;-33.5100;-29.1200;-4.3900
1263.9160;-33.9800;-28.9900;-4.9900
1264.1150;-34.5000;-28.8700;-5.6300
1264.3140;-35.1200;-28.7400;-6.3800
1264.5130;-35.8300;-28.6200;-7.2100
1264.7120;-36.6400;-28.5000;-8.1400
1264.9120;-37.5600;-28.3600;-9.2000
1265.1110;-38.7700;-28.2400;-10.5300
1265.3100;-39.6900;-28.1000;-11.5900
1265.5090;-40.7700;-27.9900;-12.7800
1265.7080;-41.6800;-27.8600;-13.8200
1265.9070;-42.1200;-27.7300;-14.3900
1266.1060;-41.9000;-27.6100;-14.2900
1266.3050;-41.0600;-27.4800;-13.5800
1266.5040;-39.8500;-27.3700;-12.4800
1266.7040;-38.5500;-27.2500;-11.3000
1266.9030;-37.2500;-27.1200;-10.1300
1267.1020;-35.8700;-27.0200;-8.8500
1267.3010;-34.9600;-26.8900;-8.0700
1267.5000;-34.0000;-26.7900;-7.2100
1267.6990;-33.1100;-26.6800;-6.4300
1267.8980;-32.3100;-26.5600;-5.7500
1268.0970;-31.6100;-26.4700;-5.1400
1268.2970;-30.9400;-26.3400;-4.6000
1268.4960;-30.3600;-26.2500;-4.1100
1268.6950;-29.8300;-26.1300;-3.7000
1268.8940;-29.3600;-26.0100;-3.3500
1269.0930;-28.9500;-25.9100;-3.0400
1269.2920;-28.5600;-25.8000;-2.7600
1269.4910;-28.2400;-25.7100;-2.5300
1269.6900;-27.9600;-25.5900;-2.3700
1269.8890;-27.7200;-25.4900;-2.2300
1270.0890;-27.5300;-25.3700;-2.1600
1270.2880;-27.3600;-25.2600;-2.1000
1270.4870;-27.2500;-25.1700;-2.0800
1270.6860;-27.1800;-25.0500;-2.1300
1270.8850;-27.1300;-24.9400;-2.1900
1271.0840;-27.1400;-24.8200;-2.3200
1271.2830;-27.1700;-24.7200;-2.4500
1271.4820;-27.2500;-24.6200;-2.6300
1271.6810;-27.3600;-24.5000;-2.8600
1271.8810;-27.5100;-24.4100;-3.1000
1272.0800;-27.7000;-24.2900;-3.4100
1272.2790;-27.9100;-24.1900;-3.7200
1272.4780;-28.1700;-24.0900;-4.0800
1272.6770;-28.4500;-23.9900;-4.4600
1272.8760;-28.7500;-23.9000;-4.8500
1273.0750;-29.0900;-23.7900;-5.3000
1273.2740;-29.4300;-23.7000;-5.7300
1273.4740;-29.7700;-23.6100;-6.1600
1273.6730;-30.0900;-23.5100;-6.5800
1273.8720;-30.3800;-23.4200;-6.9600
1274.0710;-30.6200;-23.3200;-7.3000
1274.2700;-30.7700;-23.2300;-7.5400
1274.4690;-30.8400;-23.1500;-7.6900
1274.6680;-30.7800;-23.0500;-7.7300
1274.8670;-30.6200;-22.9700;-7.6500
1275.0660;-30.3600;-22.8700;-7.4900
1275.2660;-30.0000;-22.7700;-7.2300
1275.4650;-29.6000;-22.6800;-6.9200
1275.6640;-29.1300;-22.5800;-6.5500
1275.8630;-28.6500;-22.5000;-6.1500
1276.0620;-28.1700;-22.3900;-5.7800
1276.2610;-27.6900;-22.3000;-5.3900
1276.4600;-27.2400;-22.2100;-5.0300
1276.6590;-26.8000;-22.1000;-4.7000
1276.8580;-26.4000;-22.0200;-4.3800
1277.0580;-25.9800;-21.9200;-4.0600
1277.2570;-25.7100;-21.8300;-3.8800
1277.4560;-25.4200;-21.7400;-3.6800
1277.6550;-25.1600;-21.6500;-3.5100
1277.8540;-24.9500;-21.5700;-3.3800
1278.0530;-24.7500;-21.4700;-3.2800
1278.2520;-24.6000;-21.3900;-3.2100
1278.4510;-24.4900;-21.3000;-3.1900
1278.6500;-24.4100;-21.2200;-3.1900
1278.8500;-24.3800;-21.1400;-3.2400
1279.0490;-24.3700;-21.0500;-3.3200
1279.2480;-24.4100;-20.9800;-3.4300
1279.4470;-24.4900;-20.8900;-3.6000
1279.6460;-24.6100;-20.8100;-3.8000
1279.8450;-24.7800;-20.7400;-4.0400
1280.0440;-24.9700;-20.6500;-4.3200
1280.2430;-25.2200;-20.5900;-4.6300
1280.4430;-25.5000;-20.5000;-5.0000
1280.6420;-25.8300;-20.4300;-5.4000
1280.8410;-26.2100;-20.3500;-5.8600
1281.0400;-26.6000;-20.2700;-6.3300
1281.2390;-27.0300;-20.2000;-6.8300
1281.4380;-27.4400;-20.1200;-7.3200
1281.6370;-27.8400;-20.0500;-7.7900
1281.8360;-28.2500;-19.9700;-8.2800
1282.0350;-28.4300;-19.8900;-8.5400
1282.2350;-28.5300;-19.8300;-8.7000
1282.4340;-28.4500;-19.7400;-8.7100
1282.6330;-28.2100;-19.6800;-8.5300
1282.8320;-27.7700;-19.6100;-8.1600
1283.0310;-27.2200;-19.5300;-7.6900
1283.2300;-26.5700;-19.4700;-7.1000
1283.4290;-25.7600;-19.4000;-6.3600
1283.6280;-25.1700;-19.3300;-5.8400
1283.8270;-24.4700;-19.2600;-5.2100
1284.0270;-23.8000;-19.1900;-4.6100
1284.2260;-23.1400;-19.1300;-4.0100
1284.4250;-22.5400;-19.0600;-3.4800
1284.6240;-21.9700;-19.0000;-2.9700
1284.8230;-21.4300;-18.9300;-2.5000
1285.0220;-20.9600;-18.8600;-2.1000
1285.2210;-20.5000;-18.8000;-1.7000
1285.4200;-20.1000;-18.7300;-1.3700
1285.6200;-19.7300;-18.6700;-1.0600
1285.8190;-19.4000;-18.5900;-0.8100
1286.0180;-19.1300;-18.5300;-0.6000
1286.2170;-18.8700;-18.4700;-0.4000
1286.4160;-18.6600;-18.3900;-0.2700
1286.6150;-18.4900;-18.3400;-0.1500
1286.8140;-18.3500;-18.2700;-0.0800
1287.0130;-18.2600;-18.2000;-0.0600
1287.2120;-18.2000;-18.1400;-0.0600
1287.4120;-18.1900;-18.0700;-0.1200
1287.6110;-18.2000;-18.0200;-0.1800
1287.8100;-18.2500;-17.9400;-0.3100
1288.0090;-18.3600;-17.8900;-0.4700
1288.2080;-18.5000;-17.8200;-0.6800
1288.4070;-18.6900;-17.7600;-0.9300
1288.6060;-18.9200;-17.7100;-1.2100
1288.8050;-19.2000;-17.6500;-1.5500
1289.0040;-19.5500;-17.6000;-1.9500
1289.2040;-19.9400;-17.5300;-2.4100
1289.4030;-20.4100;-17.4800;-2.9300
1289.6020;-20.9200;-17.4400;-3.4800
1289.8010;-21.5200;-17.3800;-4.1400
1290.0000;-22.2000;-17.3400;-4.8600
1290.1990;-22.9600;-17.2800;-5.6800
1290.3980;-23.8200;-17.2300;-6.5900
1290.5970;-24.7700;-17.2000;-7.5700
1290.7970;-25.8200;-17.1400;-8.6800
1290.9960;-26.8900;-17.1000;-9.7900
1291.1950;-27.9100;-17.0400;-10.8700
1291.3940;-28.8300;-17.0000;-11.8300
1291.5930;-28.9700;-16.9400;-12.0300
1291.7920;-28.6500;-16.9000;-11.7500
1291.9910;-27.8100;-16.8600;-10.9500
1292.1900;-26.7100;-16.8000;-9.9100
1292.3890;-25.3400;-16.7600;-8.5800
1292.5890;-24.3900;-16.7100;-7.6800
1292.7880;-23.3300;-16.6600;-6.6700
1292.9870;-22.3600;-16.6300;-5.7300
1293.1860;-21.5000;-16.5700;-4.9300
1293.3850;-20.7200;-16.5400;-4.1800
1293.5840;-20.0300;-16.4800;-3.5500
1293.7830;-19.3900;-16.4400;-2.9500
1293.9820;-18.8400;-16.4100;-2.4300
1294.1810;-18.3700;-16.3600;-2.0100
1294.3810;-17.9300;-16.3400;-1.5900
1294.5800;-17.5600;-16.2700;-1.2900
1294.7790;-17.2200;-16.2400;-0.9800
1294.9780;-16.9500;-16.2000;-0.7500
1295.1770;-16.7200;-16.1600;-0.5600
1295.3760;-16.5300;-16.1300;-0.4000
1295.5750;-16.3900;-16.0800;-0.3100
1295.7740;-16.2800;-16.0600;-0.2200
1295.9740;-16.2100;-16.0000;-0.2100
1296.1730;-16.1900;-15.9700;-0.2200
1296.3720;-16.2100;-15.9300;-0.2800
1296.5710;-16.2700;-15.8900;-0.3800
1296.7700;-16.3700;-15.8700;-0.5000
1296.9690;-16.5300;-15.8200;-0.7100
1297.1680;-16.7100;-15.8000;-0.9100
1297.3670;-16.9500;-15.7500;-1.2000
1297.5660;-17.2400;-15.7200;-1.5200
1297.7660;-17.5800;-15.6900;-1.8900
1297.9650;-17.9900;-15.6600;-2.3300
1298.1640;-18.4500;-15.6400;-2.8100
1298.3630;-18.9800;-15.6000;-3.3800
1298.5620;-19.5900;-15.5600;-4.0300
1298.7610;-20.2800;-15.5400;-4.7400
1298.9600;-21.0800;-15.5100;-5.5700
1299.1590;-21.9800;-15.5000;-6.4800
1299.3580;-23.0200;-15.4600;-7.5600
1299.5580;-24.2000;-15.4300;-8.7700
1299.7570;-25.5400;-15.4000;-10.1400
1299.9560;-27.0600;-15.3800;-11.6800
1300.1550;-28.9700;-15.3700;-13.6000
1300.3540;-30.0000;-15.3300;-14.6700
1300.5530;-30.5200;-15.3100;-15.2100
1300.7520;-29.9600;-15.2800;-14.6800
1300.9510;-28.5800;-15.2600;-13.3200
1301.1500;-26.9800;-15.2500;-11.7300
1301.3500;-25.2000;-15.2200;-9.9800
1301.5490;-24.0700;-15.2200;-8.8500
1301.7480;-22.8700;-15.1900;-7.6800
1301.9470;-21.8000;-15.1700;-6.6300
1302.1460;-20.9000;-15.1700;-5.7300
1302.3450;-20.0600;-15.1500;-4.9100
1302.5440;-19.3500;-15.1500;-4.2000
1302.7430;-18.7300;-15.1200;-3.6100
1302.9430;-18.1600;-15.1000;-3.0600
1303.1420;-17.7000;-15.1000;-2.6000
1303.3410;-17.2700;-15.0800;-2.1900
1303.5400;-16.9200;-15.0900;-1.8300
1303.7390;-16.6100;-15.0700;-1.5400
1303.9380;-16.3400;-15.0600;-1.2800
1304.1370;-16.1600;-15.0600;-1.1000
1304.3360;-15.9500;-15.0500;-0.9000
1304.5350;-15.8800;-15.0600;-0.8200
1304.7350;-15.7900;-15.0600;-0.7300
1304.9340;-15.7600;-15.0600;-0.7000
1305.1330;-15.7600;-15.0600;-0.7000
1305.3320;-15.8100;-15.0600;-0.7500
1305.5310;-15.9200;-15.0800;-0.8400
1305.7300;-16.0400;-15.0800;-0.9600
1305.9290;-16.2200;-15.0900;-1.1300
1306.1280;-16.4400;-15.1000;-1.3400
1306.3270;-16.7100;-15.1100;-1.6000
1306.5270;-17.0500;-15.1400;-1.9100
1306.7260;-17.4100;-15.1400;-2.2700
1306.9250;-17.8600;-15.1700;-2.6900
1307.1240;-18.4700;-15.1700;-3.3000
1307.3230;-18.9500;-15.1900;-3.7600
1307.5220;-19.5900;-15.2100;-4.3800
1307.7210;-20.3200;-15.2300;-5.0900
1307.9200;-21.1600;-15.2600;-5.9000
1308.1200;-22.1000;-15.2700;-6.8300
1308.3190;-23.1700;-15.2900;-7.8800
1308.5180;-24.3500;-15.3200;-9.0300
1308.7170;-25.6500;-15.3400;-10.3100
1308.9160;-27.0100;-15.3700;-11.6400
1309.1150;-28.5600;-15.3800;-13.1800
1309.3140;-29.2100;-15.4100;-13.8000
1309.5130;-29.3600;-15.4300;-13.9300
1309.7120;-28.7100;-15.4500;-13.2600
1309.9120;-27.5500;-15.4800;-12.0700
1310.1110;-26.2500;-15.5000;-10.7500
1310.3100;-24.7600;-15.5300;-9.2300
1310.5090;-23.8200;-15.5500;-8.2700
1310.7080;-22.7800;-15.5700;-7.2100
1310.9070;-21.8500;-15.5800;-6.2700
1311.1060;-21.0500;-15.6000;-5.4500
1311.3050;-20.3200;-15.6400;-4.6800
1311.5040;-19.7200;-15.6500;-4.0700
1311.7040;-19.1900;-15.6800;-3.5100
1311.9030;-18.7200;-15.6900;-3.0300
1312.1020;-18.3300;-15.7200;-2.6100
1312.3010;-17.9800;-15.7500;-2.2300
1312.5000;-17.7200;-15.7800;-1.9400
1312.6990;-17.4900;-15.8200;-1.6700
1312.8980;-17.3100;-15.8400;-1.4700
1313.0970;-17.1900;-15.8700;-1.3200
1313.2970;-17.1000;-15.9000;-1.2000
1313.4960;-17.0800;-15.9400;-1.1400
1313.6950;-17.0900;-15.9900;-1.1000
1313.8940;-17.1300;-16.0100;-1.1200
1314.0930;-17.2500;-16.0600;-1.1900
1314.2920;-17.3800;-16.1000;-1.2800
1314.4910;-17.5700;-16.1500;-1.4200
1314.6900;-17.7900;-16.2000;-1.5900
1314.8890;-18.0700;-16.2400;-1.8300
1315.0890;-18.4000;-16.3000;-2.1000
1315.2880;-18.7800;-16.3300;-2.4500
1315.4870;-19.2300;-16.3900;-2.8400
1315.6860;-19.7100;-16.4500;-3.2600
1315.8850;-20.2500;-16.5000;-3.7500
1316.0840;-20.8700;-16.5700;-4.3000
1316.2830;-21.5500;-16.6100;-4.9400
1316.4820;-22.3300;-16.6900;-5.6400
1316.6810;-23.1500;-16.7500;-6.4000
1316.8810;-24.0600;-16.8200;-7.2400
1317.0800;-25.0400;-16.9000;-8.1400
1317.2790;-26.0400;-16.9600;-9.0800
1317.4780;-27.0600;-17.0400;-10.0200
1317.6770;-27.9200;-17.1000;-10.8200
1317.8760;-28.6700;-17.1700;-11.5000
1318.0750;-28.7700;-17.2500;-11.5200
1318.2740;-28.5300;-17.3200;-11.2100
1318.4740;-27.9200;-17.4000;-10.5200
1318.6730;-27.1300;-17.4600;-9.6700
1318.8720;-26.0900;-17.5500;-8.5400
1319.0710;-25.3900;-17.6300;-7.7600
1319.2700;-24.5700;-17.7000;-6.8700
1319.4690;-23.8100;-17.7800;-6.0300
1319.6680;-23.1600;-17.8600;-5.3000
1319.8670;-22.5400;-17.9500;-4.5900
1320.0660;-22.0100;-18.0100;-4.0000
1320.2660;-21.5400;-18.0900;-3.4500
1320.4650;-21.1400;-18.1700;-2.9700
1320.6640;-20.8100;-18.2500;-2.5600
1320.8630;-20.5100;-18.3400;-2.1700
1321.0620;-20.2800;-18.4100;-1.8700
1321.2610;-20.0800;-18.5300;-1.5500
1321.4600;-19.9300;-18.5900;-1.3400
1321.6590;-19.8400;-18.6900;-1.1500
1321.8580;-19.7700;-18.7700;-1.0000
1322.0580;-19.7600;-18.8600;-0.9000
1322.2570;-19.7700;-18.9600;-0.8100
1322.4560;-19.8300;-19.0400;-0.7900
1322.6550;-19.9400;-19.1400;-0.8000
1322.8540;-20.0700;-19.2200;-0.8500
1323.0530;-20.2600;-19.3200;-0.9400
1323.2520;-20.4600;-19.4200;-1.0400
1323.4510;-20.7200;-19.5100;-1.2100
1323.6500;-21.0100;-19.6200;-1.3900
1323.8500;-21.3400;-19.7100;-1.6300
1324.0490;-21.7200;-19.8200;-1.9000
1324.2480;-22.1200;-19.9200;-2.2000
1324.4470;-22.5700;-20.0200;-2.5500
1324.6460;-23.0600;-20.1400;-2.9200
1324.8450;-23.5800;-20.2400;-3.3400
1325.0440;-24.1500;-20.3600;-3.7900
1325.2430;-24.7500;-20.4600;-4.2900
1325.4430;-25.3900;-20.5800;-4.8100
1325.6420;-26.0300;-20.7200;-5.3100
1325.8410;-26.6900;-20.8400;-5.8500
1326.0400;-27.3300;-20.9700;-6.3600
1326.2390;-27.9300;-21.0800;-6.8500
1326.4380;-28.5700;-21.2100;-7.3600
1326.6370;-28.8900;-21.3300;-7.5600
1326.8360;-29.1800;-21.4500;-7.7300
1327.0350;-29.3000;-21.5900;-7.7100
1327.2350;-29.2900;-21.7100;-7.5800
1327.4340;-29.1300;-21.8500;-7.2800
1327.6330;-28.8700;-21.9700;-6.9000
1327.8320;-28.5600;-22.1000;-6.4600
1328.0310;-28.2100;-22.2400;-5.9700
1328.2300;-27.8600;-22.3700;-5.4900
1328.4290;-27.5000;-22.5100;-4.9900
1328.6280;-27.1700;-22.6400;-4.5300
1328.8270;-26.8800;-22.7700;-4.1100
1329.0270;-26.6100;-22.9200;-3.6900
1329.2260;-26.3900;-23.0500;-3.3400
1329.4250;-26.1500;-23.1900;-2.9600
1329.6240;-26.0400;-23.3100;-2.7300
1329.8230;-25.9100;-23.4600;-2.4500
1330.0220;-25.8400;-23.6000;-2.2400
1330.2210;-25.7900;-23.7300;-2.0600
1330.4200;-25.7800;-23.8800;-1.9000
1330.6200;-25.8200;-24.0100;-1.8100
1330.8190;-25.8700;-24.1600;-1.7100
1331.0180;-25.9800;-24.3000;-1.6800
1331.2170;-26.1100;-24.4500;-1.6600
1331.4160;-26.2700;-24.6100;-1.6600
1331.6150;-26.4800;-24.7400;-1.7400
1331.8140;-26.7000;-24.9100;-1.7900
1332.0130;-26.9700;-25.0400;-1.9300
1332.2120;-27.2400;-25.2000;-2.0400
1332.4120;-27.5700;-25.3600;-2.2100
1332.6110;-27.9200;-25.5100;-2.4100
1332.8100;-28.2800;-25.6700;-2.6100
1333.0090;-28.7600;-25.8200;-2.9400
1333.2080;-29.0800;-25.9700;-3.1100
1333.4070;-29.5100;-26.1300;-3.3800
1333.6060;-29.9300;-26.2800;-3.6500
1333.8050;-30.3600;-26.4500;-3.9100
1334.0040;-30.7600;-26.6000;-4.1600
1334.2040;-31.1500;-26.7700;-4.3800
1334.4030;-31.5000;-26.9200;-4.5800
1334.6020;-31.8100;-27.0900;-4.7200
1334.8010;-32.0800;-27.2400;-4.8400
1335.0000;-32.2700;-27.4000;-4.8700
1335.1990;-32.4100;-27.5800;-4.8300
1335.3980;-32.4700;-27.7300;-4.7400
1335.5970;-32.4900;-27.9000;-4.5900
1335.7970;-32.4700;-28.0600;-4.4100
1335.9960;-32.4100;-28.2300;-4.1800
1336.1950;-32.3300;-28.4000;-3.9300
1336.3940;-32.2000;-28.5900;-3.6100
1336.5930;-32.0900;-28.7300;-3.3600
1336.7920;-31.9700;-28.8800;-3.0900
1336.9910;-31.8600;-29.0600;-2.8000
1337.1900;-31.7900;-29.2200;-2.5700
1337.3890;-31.7100;-29.3900;-2.3200
1337.5890;-31.6700;-29.5600;-2.1100
1337.7880;-31.6400;-29.7200;-1.9200
1337.9870;-31.6400;-29.9000;-1.7400
1338.1860;-31.6800;-30.0600;-1.6200
1338.3850;-31.7400;-30.2400;-1.5000
1338.5840;-31.8400;-30.4000;-1.4400
1338.7830;-31.9600;-30.5700;-1.3900
1338.9820;-32.1200;-30.7400;-1.3800
1339.1810;-32.3200;-30.9100;-1.4100
1339.3810;-32.5600;-31.1000;-1.4600
1339.5800;-32.8400;-31.2600;-1.5800
1339.7790;-33.1400;-31.4400;-1.7000
1339.9780;-33.5100;-31.6100;-1.9000
1340.1770;-33.9000;-31.7900;-2.1100
1340.3760;-34.3500;-31.9800;-2.3700
1340.5750;-34.8600;-32.1600;-2.7000
1340.7740;-35.4000;-32.3400;-3.0600
1340.9740;-36.0000;-32.5000;-3.5000
1341.1730;-36.6600;-32.6800;-3.9800
1341.3720;-37.3800;-32.8700;-4.5100
1341.5710;-38.1800;-33.0400;-5.1400
1341.7700;-39.3000;-33.2300;-6.0700
1341.9690;-40.1100;-33.4000;-6.7100
1342.1680;-41.2200;-33.5800;-7.6400
1342.3670;-42.5000;-33.7500;-8.7500
1342.5660;-43.9100;-33.9300;-9.9800
1342.7660;-45.5400;-34.1200;-11.4200
1342.9650;-47.3200;-34.2900;-13.0300
1343.1640;-49.6600;-34.4800;-15.1800
1343.3630;-50.8500;-34.6600;-16.1900
1343.5620;-51.4800;-34.8300;-16.6500
1343.7610;-50.8800;-35.0200;-15.8600
1343.9600;-49.5100;-35.1900;-14.3200
1344.1590;-48.0100;-35.3900;-12.6200
1344.3580;-46.6000;-35.5600;-11.0400
1344.5580;-45.2100;-35.7400;-9.4700
1344.7570;-44.3800;-35.9300;-8.4500
1344.9560;-43.5200;-36.0900;-7.4300
1345.1550;-42.7700;-36.2700;-6.5000
1345.3540;-42.1500;-36.4300;-5.7200
1345.5530;-41.6400;-36.6100;-5.0300
1345.7520;-41.2100;-36.7700;-4.4400
1345.9510;-40.8600;-36.9500;-3.9100
1346.1500;-40.5700;-37.1300;-3.4400
1346.3500;-40.3500;-37.3100;-3.0400
1346.5490;-40.2100;-37.5000;-2.7100
1346.7480;-40.0900;-37.6700;-2.4200
1346.9470;-40.0400;-37.8400;-2.2000
1347.1460;-40.0100;-38.0100;-2.0000
1347.3450;-40.0300;-38.1600;-1.8700
1347.5440;-40.1500;-38.3800;-1.7700
1347.7430;-40.3100;-38.6500;-1.6600
1347.9430;-40.5100;-38.8100;-1.7000
1348.1420;-40.7000;-38.9800;-1.7200
1348.3410;-40.9600;-39.1600;-1.8000
1348.5400;-41.2100;-39.3100;-1.9000
1348.7390;-41.5200;-39.4700;-2.0500
1348.9380;-41.8800;-39.6400;-2.2400
1349.1370;-42.2800;-39.7900;-2.4900
1349.3360;-42.7100;-39.9400;-2.7700
1349.5350;-43.2000;-40.1100;-3.0900
1349.7350;-43.7400;-40.2600;-3.4800
1349.9340;-44.3600;-40.4500;-3.9100
1350.1330;-45.0400;-40.6300;-4.4100
1350.3320;-45.8400;-40.8800;-4.9600
1350.5310;-46.6900;-41.0900;-5.6000
1350.7300;-47.6000;-41.2600;-6.3400
1350.9290;-48.7700;-41.4200;-7.3500
1351.1280;-49.6100;-41.5300;-8.0800
1351.3270;-50.7200;-41.6900;-9.0300
1351.5270;-51.9400;-41.8600;-10.0800
1351.7260;-53.2400;-42.0900;-11.1500
1351.9250;-54.4400;-42.2900;-12.1500
1352.1240;-55.3900;-42.4500;-12.9400
1352.3230;-55.8600;-42.6300;-13.2300
1352.5220;-55.8100;-42.8300;-12.9800
1352.7210;-55.2100;-42.9800;-12.2300
1352.9200;-54.3700;-43.1300;-11.2400
1353.1200;-53.5900;-43.3800;-10.2100
1353.3190;-52.6400;-43.4900;-9.1500
1353.5180;-51.8200;-43.6500;-8.1700
1353.7170;-51.1000;-43.8300;-7.2700
1353.9160;-50.4100;-43.9200;-6.4900
1354.1150;-49.8600;-44.0600;-5.8000
1354.3140;-49.4500;-44.2700;-5.1800
1354.5130;-49.0900;-44.4600;-4.6300
1354.7120;-48.9100;-44.7700;-4.1400
1354.9120;-48.7600;-45.0300;-3.7300
1355.1110;-48.5500;-45.2100;-3.3400
1355.3100;-48.3300;-45.3100;-3.0200
1355.5090;-48.0800;-45.3000;-2.7800
1355.7080;-48.1200;-45.5700;-2.5500
1355.9070;-48.2400;-45.8200;-2.4200
1356.1060;-48.2500;-45.9800;-2.2700
1356.3050;-48.2500;-46.0400;-2.2100
1356.5040;-48.3200;-46.1300;-2.1900
1356.7040;-48.2300;-46.0400;-2.1900
1356.9030;-48.4300;-46.1800;-2.2500
1357.1020;-48.8600;-46.5600;-2.3000
1357.3010;-49.2300;-46.7600;-2.4700
1357.5000;-49.6000;-46.9400;-2.6600
1357.6990;-50.0100;-47.0900;-2.9200
1357.8980;-50.3700;-47.1300;-3.2400
1358.0970;-50.7400;-47.1900;-3.5500
1358.2970;-51.3000;-47.3600;-3.9400
1358.4960;-51.9800;-47.5900;-4.3900
1358.6950;-52.6300;-47.7100;-4.9200
1358.8940;-53.4000;-47.8600;-5.5400
1359.0930;-54.2600;-47.9900;-6.2700
1359.2920;-55.0500;-48.0200;-7.0300
1359.4910;-56.1900;-48.4000;-7.7900
1359.6900;-57.4500;-48.7400;-8.7100
1359.8890;-59.1600;-48.8900;-10.2700
1360.0890;-60.2700;-48.9200;-11.3500
1360.2880;-61.6200;-48.9400;-12.6800
1360.4870;-62.7100;-48.9200;-13.7900
1360.6860;-63.7400;-49.0800;-14.6600
1360.8850;-64.3100;-49.4200;-14.8900
1361.0840;-64.0000;-49.7000;-14.3000
1361.2830;-62.9800;-49.8800;-13.1000
1361.4820;-61.7600;-50.0100;-11.7500
1361.6810;-60.8500;-50.2300;-10.6200
1361.8810;-59.7600;-50.3500;-9.4100
1362.0800;-58.8800;-50.5700;-8.3100
1362.2790;-58.3800;-50.9900;-7.3900
1362.4780;-57.8200;-51.2200;-6.6000
1362.6770;-57.1100;-51.3500;-5.7600
1362.8760;-56.1300;-51.2200;-4.9100
1363.0750;-55.6700;-51.1400;-4.5300
1363.2740;-55.0200;-50.9000;-4.1200
1363.4740;-54.6800;-50.9800;-3.7000
1363.6730;-54.4200;-51.0700;-3.3500
1363.8720;-54.2700;-51.2000;-3.0700
1364.0710;-54.2300;-51.4200;-2.8100
1364.2700;-54.2200;-51.6000;-2.6200
1364.4690;-54.3700;-51.9100;-2.4600
1364.6680;-54.7900;-52.4200;-2.3700
1364.8670;-54.9600;-52.6400;-2.3200
1365.0660;-54.9300;-52.6200;-2.3100
1365.2660;-55.1600;-52.7600;-2.4000
1365.4650;-55.1600;-52.7000;-2.4600
1365.6640;-55.3700;-52.7700;-2.6000
1365.8630;-55.5900;-52.8000;-2.7900
1366.0620;-55.8300;-52.8100;-3.0200
1366.2610;-56.1000;-52.8000;-3.3000
1366.4600;-56.4700;-52.8800;-3.5900
1366.6590;-57.0200;-53.0300;-3.9900
1366.8580;-57.7000;-53.2700;-4.4300
1367.0580;-58.3500;-53.4100;-4.9400
1367.2570;-59.2100;-53.5200;-5.6900
1367.4560;-59.9800;-53.7900;-6.1900
1367.6550;-60.8400;-53.9700;-6.8700
1367.8540;-61.9500;-54.2600;-7.6900
1368.0530;-63.1100;-54.3600;-8.7500
1368.2520;-64.1600;-54.3500;-9.8100
1368.4510;-65.5500;-54.6900;-10.8600
1368.6500;-66.7300;-54.7800;-11.9500
1368.8500;-67.9600;-54.9000;-13.0600
1369.0490;-68.9000;-54.8600;-14.0400
1369.2480;-69.1400;-54.8400;-14.3000
1369.4470;-68.7300;-54.7700;-13.9600
1369.6460;-67.9100;-54.8700;-13.0400
1369.8450;-67.2200;-55.2100;-12.0100
1370.0440;-66.2300;-55.4100;-10.8200
1370.2430;-65.1500;-55.5500;-9.6000
1370.4430;-64.1500;-55.5900;-8.5600
1370.6420;-63.2900;-55.6200;-7.6700
1370.8410;-62.9400;-55.9300;-7.0100
1371.0400;-62.4200;-56.2100;-6.2100
1371.2390;-61.8700;-56.4200;-5.4500
1371.4380;-61.2500;-56.4000;-4.8500
1371.6370;-60.7500;-56.4000;-4.3500
1371.8360;-60.3000;-56.3600;-3.9400
1372.0350;-60.1000;-56.5700;-3.5300
1372.2350;-59.9800;-56.7800;-3.2000
1372.4340;-59.7800;-56.8900;-2.8900
1372.6330;-59.6100;-56.9800;-2.6300
1372.8320;-59.4500;-57.0000;-2.4500
1373.0310;-59.3400;-57.0700;-2.2700
1373.2300;-59.3700;-57.1800;-2.1900
1373.4290;-59.4300;-57.3500;-2.0800
1373.6280;-59.5200;-57.4800;-2.0400
1373.8270;-59.5900;-57.5700;-2.0200
1374.0270;-59.7500;-57.7000;-2.0500
1374.2260;-59.9100;-57.8000;-2.1100
1374.4250;-60.1600;-57.9700;-2.1900
1374.6240;-60.4500;-58.0900;-2.3600
1374.8230;-60.7800;-58.3000;-2.4800
1375.0220;-61.1800;-58.5500;-2.6300
1375.2210;-61.5300;-58.5900;-2.9400
1375.4200;-61.8600;-58.6900;-3.1700
1375.6200;-62.2500;-58.7800;-3.4700
1375.8190;-62.6800;-58.9100;-3.7700
1376.0180;-63.1900;-59.0600;-4.1300
1376.2170;-63.7200;-59.2300;-4.4900
1376.4160;-64.1700;-59.3400;-4.8300
1376.6150;-64.7000;-59.4400;-5.2600
1376.8140;-65.1900;-59.6300;-5.5600
1377.0130;-65.7300;-59.8800;-5.8500
1377.2120;-66.2300;-60.0700;-6.1600
1377.4120;-66.5900;-60.1500;-6.4400
1377.6110;-66.8000;-60.2300;-6.5700
1377.8100;-66.9200;-60.2300;-6.6900
1378.0090;-66.8700;-60.3000;-6.5700
1378.2080;-66.9500;-60.4300;-6.5200
1378.4070;-66.8700;-60.6000;-6.2700
1378.6060;-66.9100;-60.8600;-6.0500
1378.8050;-66.8100;-61.1800;-5.6300
1379.0040;-66.6300;-61.3200;-5.3100
1379.2040;-66.3200;-61.3700;-4.9500
1379.4030;-65.9400;-61.3500;-4.5900
1379.6020;-65.5200;-61.3700;-4.1500
1379.8010;-65.2200;-61.4100;-3.8100
1380.0000;-65.0600;-61.5700;-3.4900
1380.1990;-64.9500;-61.7500;-3.2000
1380.3980;-64.9500;-61.9400;-3.0100
1380.5970;-65.2100;-62.5300;-2.6800
1380.7970;-65.5100;-62.9800;-2.5300
1380.9960;-65.4900;-63.1600;-2.3300
1381.1950;-65.3100;-63.2000;-2.1100
1381.3940;-64.9800;-62.9600;-2.0200
1381.5930;-64.6800;-62.6800;-2.0000
1381.7920;-64.6700;-62.7200;-1.9500
1381.9910;-64.6700;-62.7800;-1.8900
1382.1900;-64.8100;-62.9000;-1.9100
1382.3890;-65.1500;-63.2200;-1.9300
1382.5890;-65.8600;-63.7800;-2.0800
1382.7880;-66.5100;-64.2900;-2.2200
1382.9870;-66.9200;-64.5200;-2.4000
1383.1860;-66.9700;-64.3000;-2.6700
1383.3850;-66.9700;-64.0900;-2.8800
1383.5840;-67.0300;-63.8900;-3.1400
1383.7830;-67.4400;-64.0000;-3.4400
1383.9820;-67.9200;-64.1200;-3.8000
1384.1810;-68.3700;-64.2000;-4.1700
1384.3810;-68.8700;-64.2300;-4.6400
1384.5800;-69.3400;-64.2100;-5.1300
1384.7790;-69.8700;-64.3500;-5.5200
1384.9780;-70.7100;-64.6000;-6.1100
1385.1770;-71.5200;-64.8600;-6.6600
1385.3760;-72.2000;-64.9400;-7.2600
1385.5750;-72.8300;-64.9400;-7.8900
1385.7740;-73.1600;-64.9300;-8.2300
1385.9740;-73.2500;-64.9400;-8.3100
1386.1730;-73.5300;-65.0100;-8.5200
1386.3720;-73.6900;-65.1700;-8.5200
1386.5710;-73.5400;-65.1500;-8.3900
1386.7700;-73.0100;-65.1500;-7.8600
1386.9690;-72.9300;-65.2700;-7.6600
1387.1680;-72.2600;-65.2700;-6.9900
1387.3670;-72.2500;-65.3100;-6.9400
1387.5660;-71.6300;-65.4500;-6.1800
1387.7660;-71.3400;-65.6700;-5.6700
1387.9650;-71.3400;-65.9700;-5.3700
1388.1640;-71.0500;-66.2100;-4.8400
1388.3630;-70.6800;-66.3200;-4.3600
1388.5620;-70.0900;-66.2400;-3.8500
1388.7610;-69.9400;-66.1100;-3.8300
1388.9600;-69.4700;-66.1800;-3.2900
1389.1590;-69.0800;-66.0800;-3.0000
1389.3580;-68.8200;-66.0400;-2.7800
1389.5580;-68.8700;-66.1600;-2.7100
1389.7570;-68.7800;-66.3000;-2.4800
1389.9560;-68.7000;-66.4100;-2.2900
1390.1550;-68.7000;-66.4700;-2.2300
1390.3540;-68.7500;-66.4600;-2.2900
1390.5530;-68.7200;-66.6000;-2.1200
1390.7520;-68.7900;-66.5400;-2.2500
1390.9510;-68.7500;-66.7100;-2.0400
1391.1500;-69.0700;-66.7900;-2.2800
1391.3500;-69.1800;-66.8700;-2.3100
1391.5490;-69.3800;-67.0000;-2.3800
1391.7480;-69.6400;-67.0800;-2.5600
1391.9470;-69.9200;-67.1600;-2.7600
1392.1460;-70.5700;-67.3600;-3.2100
1392.3450;-70.7600;-67.5300;-3.2300
1392.5440;-71.4900;-67.9900;-3.5000
1392.7430;-72.1800;-68.2400;-3.9400
1392.9430;-72.6600;-68.1900;-4.4700
1393.1420;-72.9400;-68.0800;-4.8600
1393.3410;-72.9400;-67.8300;-5.1100
1393.5400;-73.3000;-67.8600;-5.4400
1393.7390;-74.0600;-67.8300;-6.2300
1393.9380;-74.2800;-67.9200;-6.3600
1394.1370;-75.0500;-68.1100;-6.9400
1394.3360;-75.6400;-68.1800;-7.4600
1394.5350;-75.8600;-68.2200;-7.6400
1394.7350;-75.9800;-68.3800;-7.6000
1394.9340;-76.7000;-68.6200;-8.0800
1395.1330;-76.3200;-68.9200;-7.4000
1395.3320;-76.7000;-69.0000;-7.7000
1395.5310;-75.8100;-69.2600;-6.5500
1395.7300;-76.4900;-69.2000;-7.2900
1395.9290;-75.5200;-69.1200;-6.4000
1396.1280;-75.3700;-69.2000;-6.1700
1396.3270;-75.3100;-69.3200;-5.9900
1396.5270;-74.5800;-69.6400;-4.9400
1396.7260;-74.3200;-69.8000;-4.5200
1396.9250;-73.8100;-69.8000;-4.0100
1397.1240;-73.5300;-69.5500;-3.9800
1397.3230;-73.1800;-69.5200;-3.6600
1397.5220;-72.9700;-69.5200;-3.4500
1397.7210;-72.6400;-69.4600;-3.1800
1397.9200;-72.5100;-69.5900;-2.9200
1398.1200;-72.2400;-69.8000;-2.4400
1398.3190;-72.2400;-69.7200;-2.5200
1398.5180;-72.4400;-69.6900;-2.7500
1398.7170;-72.0500;-69.8400;-2.2100
1398.9160;-72.2500;-69.8300;-2.4200
1399.1150;-72.3200;-70.0800;-2.2400
1399.3140;-72.4800;-70.1700;-2.3100
1399.5130;-72.7400;-70.4300;-2.3100
1399.7120;-72.7300;-70.6800;-2.0500
1399.9120;-73.1600;-70.7500;-2.4100
1400.1110;-73.3100;-70.9500;-2.3600
1400.3100;-73.0700;-70.7100;-2.3600
1400.5090;-73.5300;-70.7700;-2.7600
1400.7080;-74.0000;-71.2500;-2.7500
1400.9070;-74.4800;-71.3400;-3.1400
1401.1060;-74.5600;-71.5100;-3.0500
1401.3050;-75.3200;-71.5600;-3.7600
1401.5040;-74.9000;-71.4400;-3.4600
1401.7040;-75.1800;-71.3800;-3.8000
1401.9030;-75.5700;-71.6000;-3.9700
1402.1020;-76.2700;-71.3900;-4.8800
1402.3010;-76.6900;-71.3800;-5.3100
1402.5000;-76.9600;-71.5400;-5.4200
1402.6990;-76.4800;-71.5900;-4.8900
1402.8980;-76.8900;-71.7300;-5.1600
1403.0970;-76.6900;-71.8300;-4.8600
1403.2970;-76.2300;-72.0500;-4.1800
1403.4960;-76.9100;-72.1600;-4.7500
1403.6950;-77.4400;-71.8300;-5.6100
1403.8940;-77.4000;-72.1700;-5.2300
1404.0930;-76.7100;-72.3100;-4.4000
1404.2920;-76.7100;-72.4400;-4.2700
1404.4910;-77.1600;-72.7300;-4.4300
1404.6900;-77.1900;-72.8000;-4.3900
1404.8890;-78.0000;-73.0400;-4.9600
1405.0890;-77.3200;-73.2800;-4.0400
1405.2880;-77.6800;-73.5400;-4.1400
1405.4870;-76.6700;-73.3400;-3.3300
1405.6860;-76.8300;-73.0200;-3.8100
1405.8850;-77.2100;-72.9400;-4.2700
1406.0840;-75.8700;-73.1300;-2.7400
1406.2830;-76.3500;-73.4200;-2.9300
1406.4820;-75.8400;-73.2200;-2.6200
1406.6810;-76.0000;-73.2800;-2.7200
1406.8810;-76.2300;-73.3900;-2.8400
1407.0800;-76.8100;-73.5000;-3.3100
1407.2790;-76.6100;-74.4200;-2.1900
1407.4780;-76.8600;-74.1900;-2.6700
1407.6770;-76.5100;-73.8000;-2.7100
1407.8760;-76.4700;-74.1500;-2.3200
1408.0750;-76.7000;-73.8700;-2.8300
1408.2740;-76.4600;-73.8700;-2.5900
1408.4740;-76.2100;-73.5900;-2.6200
1408.6730;-76.9200;-73.7600;-3.1600
1408.8720;-77.5400;-74.0100;-3.5300
1409.0710;-76.9300;-74.0400;-2.8900
1409.2700;-78.6900;-74.3000;-4.3900
1409.4690;-78.6000;-74.6900;-3.9100
1409.6680;-78.4400;-74.3600;-4.0800
1409.8670;-78.7100;-74.7000;-4.0100
1410.0660;-79.1000;-75.2200;-3.8800
1410.2660;-78.4100;-74.3600;-4.0500
1410.4650;-78.3400;-74.3000;-4.0400
1410.6640;-78.2300;-75.0900;-3.1400
1410.8630;-78.3100;-74.9700;-3.3400
1411.0620;-78.3100;-75.3600;-2.9500
1411.2610;-79.6600;-74.8700;-4.7900
1411.4600;-79.1000;-74.9200;-4.1800
1411.6590;-79.8000;-74.7200;-5.0800
1411.8580;-79.4200;-74.5600;-4.8600
1412.0580;-78.8300;-74.8000;-4.0300
1412.2570;-78.7100;-74.8800;-3.8300
1412.4560;-79.6600;-75.2000;-4.4600
1412.6550;-79.0400;-75.2200;-3.8200
1412.8540;-79.8000;-75.4200;-4.3800
1413.0530;-78.7100;-75.0100;-3.7000
1413.2520;-79.9800;-75.2500;-4.7300
1413.4510;-79.3800;-74.8100;-4.5700
1413.6500;-79.1400;-74.6700;-4.4700
1413.8500;-79.1400;-75.3900;-3.7500
1414.0490;-79.8800;-75.7400;-4.1400
1414.2480;-78.5600;-75.8600;-2.7000
1414.4470;-79.8400;-75.4100;-4.4300
1414.6460;-79.2600;-75.5500;-3.7100
1414.8450;-79.7000;-75.7400;-3.9600
1415.0440;-80.4300;-75.0100;-5.4200
1415.2430;-81.2000;-75.4700;-5.7300
1415.4430;-78.8700;-75.1100;-3.7600
1415.6420;-79.2300;-75.3100;-3.9200
1415.8410;-77.8300;-75.9200;-1.9100
1416.0400;-78.2900;-75.7100;-2.5800
1416.2390;-78.3500;-75.2100;-3.1400
1416.4380;-78.9300;-75.0800;-3.8500
1416.6370;-80.1500;-75.6200;-4.5300
1416.8360;-79.3900;-75.4400;-3.9500
1417.0350;-79.3900;-75.3400;-4.0500
1417.2350;-79.4600;-75.2200;-4.2400
1417.4340;-79.6700;-75.5500;-4.1200
1417.6330;-79.7700;-75.8600;-3.9100
1417.8320;-78.7500;-75.6900;-3.0600
1418.0310;-79.7700;-75.8300;-3.9400
1418.2300;-78.7200;-75.3100;-3.4100
1418.4290;-80.0300;-75.3200;-4.7100
1418.6280;-79.0200;-74.9900;-4.0300
1418.8270;-78.8400;-75.8900;-2.9500
1419.0270;-80.9100;-75.9600;-4.9500
1419.2260;-79.2600;-75.7700;-3.4900
1419.4250;-78.9000;-75.9900;-2.9100
1419.6240;-79.3300;-75.6000;-3.7300
1419.8230;-79.1100;-75.8100;-3.3000
1420.0220;-78.2900;-76.3000;-1.9900
1420.2210;-79.0200;-76.2100;-2.8100
1420.4200;-78.9000;-76.4300;-2.4700
1420.6200;-79.2000;-75.8600;-3.3400
1420.8190;-78.4800;-75.0600;-3.4200
1421.0180;-79.3000;-75.2000;-4.1000
1421.2170;-79.4900;-75.3600;-4.1300
1421.4160;-79.5300;-75.7700;-3.7600
1421.6150;-78.8800;-75.5600;-3.3200
1421.8140;-78.5100;-75.6300;-2.8800
1422.0130;-79.2400;-75.9900;-3.2500
1422.2120;-79.0000;-75.6400;-3.3600
1422.4120;-78.6800;-75.2800;-3.4000
1422.6110;-78.5100;-75.6700;-2.8400
1422.8100;-79.0000;-76.0000;-3.0000
1423.0090;-78.5100;-75.8200;-2.6900
1423.2080;-78.5700;-75.3300;-3.2400
1423.4070;-81.2600;-75.3500;-5.9100
1423.6060;-79.2700;-75.2900;-3.9800
1423.8050;-77.7500;-75.9900;-1.7600
1424.0040;-79.2100;-75.4200;-3.7900
1424.2040;-78.6200;-75.3200;-3.3000
1424.4030;-78.3000;-75.6100;-2.6900
1424.6020;-78.3600;-75.4400;-2.9200
1424.8010;-78.8200;-75.1900;-3.6300
1425.0000;-77.4300;-75.3300;-2.1000
