Wavelength;Intensity_Meas;Intensity_Ref;Difference_dB
1200.0000;-60.6200;-55.6000;-5.0200
1200.1990;-60.5500;-55.5600;-4.9900
1200.3980;-60.5000;-55.5400;-4.9600
1200.5970;-60.5000;-55.5000;-5.0000
1200.7970;-60.4400;-55.4800;-4.9600
1200.9960;-60.3700;-55.4400;-4.9300
1201.1950;-60.3100;-55.3900;-4.9200
1201.3940;-60.2800;-55.3500;-4.9300
1201.5930;-60.2700;-55.3200;-4.9500
1201.7920;-60.1800;-55.2800;-4.9000
1201.9910;-60.1200;-55.2100;-4.9100
1202.1900;-60.0900;-55.1600;-4.9300
1202.3890;-60.0500;-55.1100;-4.9400
1202.5890;-59.9900;-55.0800;-4.9100
1202.7880;-59.8700;-55.0100;-4.8600
1202.9870;-59.8500;-54.9400;-4.9100
1203.1860;-59.8300;-54.8900;-4.9400
1203.3850;-59.7700;-54.8700;-4.9000
1203.5840;-59.7000;-54.8100;-4.8900
1203.7830;-59.6300;-54.7500;-4.8800
1203.9820;-59.6600;-54.7200;-4.9400
1204.1810;-59.6400;-54.6800;-4.9600
1204.3810;-59.5700;-54.6400;-4.9300
1204.5800;-59.5400;-54.6000;-4.9400
1204.7790;-59.5700;-54.5800;-4.9900
1204.9780;-59.6100;-54.5500;-5.0600
1205.1770;-59.5900;-54.5100;-5.0800
1205.3760;-59.5600;-54.4800;-5.0800
1205.5750;-59.6300;-54.4600;-5.1700
1205.7740;-59.6700;-54.4400;-5.2300
1205.9740;-59.6900;-54.4400;-5.2500
1206.1730;-59.6800;-54.4100;-5.2700
1206.3720;-59.7000;-54.3800;-5.3200
1206.5710;-59.7700;-54.3500;-5.4200
1206.7700;-59.7700;-54.3400;-5.4300
1206.9690;-59.7100;-54.3100;-5.4000
1207.1680;-59.6900;-54.2700;-5.4200
1207.3670;-59.7200;-54.2400;-5.4800
1207.5660;-59.7100;-54.2200;-5.4900
1207.7660;-59.5800;-54.1900;-5.3900
1207.9650;-59.5200;-54.1500;-5.3700
1208.1640;-59.5600;-54.0900;-5.4700
1208.3630;-59.5400;-54.0700;-5.4700
1208.5620;-59.4500;-54.0300;-5.4200
1208.7610;-59.3700;-53.9700;-5.4000
1208.9600;-59.3400;-53.9200;-5.4200
1209.1590;-59.3000;-53.8600;-5.4400
1209.3580;-59.2000;-53.8200;-5.3800
1209.5580;-59.0900;-53.7600;-5.3300
1209.7570;-59.0500;-53.7100;-5.3400
1209.9560;-59.0200;-53.6500;-5.3700
1210.1550;-58.9400;-53.6100;-5.3300
1210.3540;-58.7900;-53.5700;-5.2200
1210.5530;-58.7200;-53.4900;-5.2300
1210.7520;-58.7100;-53.4400;-5.2700
1210.9510;-58.6200;-53.4100;-5.2100
1211.1500;-58.4800;-53.3500;-5.1300
1211.3500;-58.4100;-53.3100;-5.1000
1211.5490;-58.4300;-53.2600;-5.1700
1211.7480;-58.3700;-53.2300;-5.1400
1211.9470;-58.2500;-53.2100;-5.0400
1212.1460;-58.2100;-53.1600;-5.0500
1212.3450;-58.2400;-53.1200;-5.1200
1212.5440;-58.2500;-53.1000;-5.1500
1212.7430;-58.1700;-53.0700;-5.1000
1212.9430;-58.1400;-53.0300;-5.1100
1213.1420;-58.1900;-52.9900;-5.2000
1213.3410;-58.2200;-52.9800;-5.2400
1213.5400;-58.2000;-52.9500;-5.2500
1213.7390;-58.1700;-52.9000;-5.2700
1213.9380;-58.1900;-52.8700;-5.3200
1214.1370;-58.2400;-52.8300;-5.4100
1214.3360;-58.2000;-52.8000;-5.4000
1214.5350;-58.1600;-52.7600;-5.4000
1214.7350;-58.1800;-52.7100;-5.4700
1214.9340;-58.2200;-52.6600;-5.5600
1215.1330;-58.1700;-52.6200;-5.5500
1215.3320;-58.0900;-52.5800;-5.5100
1215.5310;-58.1000;-52.5100;-5.5900
1215.7300;-58.1000;-52.4500;-5.6500
1215.9290;-58.0400;-52.4200;-5.6200
1216.1280;-57.9500;-52.3500;-5.6000
1216.3270;-57.8900;-52.2900;-5.6000
1216.5270;-57.8800;-52.2300;-5.6500
1216.7260;-57.8000;-52.1700;-5.6300
1216.9250;-57.6600;-52.1200;-5.5400
1217.1240;-57.5700;-52.0500;-5.5200
1217.3230;-57.5200;-52.0000;-5.5200
1217.5220;-57.4300;-51.9400;-5.4900
1217.7210;-57.2500;-51.8900;-5.3600
1217.9200;-57.1200;-51.8400;-5.2800
1218.1200;-57.0400;-51.7700;-5.2700
1218.3190;-56.9300;-51.7400;-5.1900
1218.5180;-56.7800;-51.6900;-5.0900
1218.7170;-56.6200;-51.6500;-4.9700
1218.9160;-56.5300;-51.6100;-4.9200
1219.1150;-56.4600;-51.5600;-4.9000
1219.3140;-56.3000;-51.5400;-4.7600
1219.5130;-56.1900;-51.5000;-4.6900
1219.7120;-56.1300;-51.4500;-4.6800
1219.9120;-56.0800;-51.4200;-4.6600
1220.1110;-55.9900;-51.3900;-4.6000
1220.3100;-55.8700;-51.3500;-4.5200
1220.5090;-55.8700;-51.3000;-4.5700
1220.7080;-55.8500;-51.2600;-4.5900
1220.9070;-55.8100;-51.2200;-4.5900
1221.1060;-55.7400;-51.1600;-4.5800
1221.3050;-55.7500;-51.1200;-4.6300
1221.5040;-55.7600;-51.0400;-4.7200
1221.7040;-55.7300;-50.9900;-4.7400
1221.9030;-55.7000;-50.9400;-4.7600
1222.1020;-55.7000;-50.8600;-4.8400
1222.3010;-55.7400;-50.8100;-4.9300
1222.5000;-55.7200;-50.7300;-4.9900
1222.6990;-55.7000;-50.6700;-5.0300
1222.8980;-55.7400;-50.5900;-5.1500
1223.0970;-55.7900;-50.5100;-5.2800
1223.2970;-55.7900;-50.4600;-5.3300
1223.4960;-55.7900;-50.3700;-5.4200
1223.6950;-55.8400;-50.3000;-5.5400
1223.8940;-55.9100;-50.2400;-5.6700
1224.0930;-55.9100;-50.1600;-5.7500
1224.2920;-55.9100;-50.1100;-5.8000
1224.4910;-55.9500;-50.0200;-5.9300
1224.6900;-55.9800;-49.9600;-6.0200
1224.8890;-55.9700;-49.9000;-6.0700
1225.0890;-55.9300;-49.8400;-6.0900
1225.2880;-55.9100;-49.7800;-6.1300
1225.4870;-55.8900;-49.7100;-6.1800
1225.6860;-55.8100;-49.6600;-6.1500
1225.8850;-55.7100;-49.6200;-6.0900
1226.0840;-55.6000;-49.5500;-6.0500
1226.2830;-55.5100;-49.5100;-6.0000
1226.4820;-55.3500;-49.4400;-5.9100
1226.6810;-55.1700;-49.4000;-5.7700
1226.8810;-55.0400;-49.3500;-5.6900
1227.0800;-54.9000;-49.2800;-5.6200
1227.2790;-54.7200;-49.2400;-5.4800
1227.4780;-54.5300;-49.1700;-5.3600
1227.6770;-54.3700;-49.1100;-5.2600
1227.8760;-54.2400;-49.0500;-5.1900
1228.0750;-54.0700;-48.9800;-5.0900
1228.2740;-53.8900;-48.9200;-4.9700
1228.4740;-53.7600;-48.8400;-4.9200
1228.6730;-53.6400;-48.7700;-4.8700
1228.8720;-53.5000;-48.7000;-4.8000
1229.0710;-53.3500;-48.6200;-4.7300
1229.2700;-53.2500;-48.5500;-4.7000
1229.4690;-53.1700;-48.4500;-4.7200
1229.6680;-53.0500;-48.3800;-4.6700
1229.8670;-52.9400;-48.3000;-4.6400
1230.0660;-52.8900;-48.2100;-4.6800
1230.2660;-52.8200;-48.1300;-4.6900
1230.4650;-52.7500;-48.0400;-4.7100
1230.6640;-52.6800;-47.9600;-4.7200
1230.8630;-52.6900;-47.8900;-4.8000
1231.0620;-52.6900;-47.8100;-4.8800
1231.2610;-52.6800;-47.7600;-4.9200
1231.4600;-52.6900;-47.6800;-5.0100
1231.6590;-52.7400;-47.6200;-5.1200
1231.8580;-52.7700;-47.5500;-5.2200
1232.0580;-52.8000;-47.5000;-5.3000
1232.2570;-52.8300;-47.4400;-5.3900
1232.4560;-52.9200;-47.3700;-5.5500
1232.6550;-52.9500;-47.3200;-5.6300
1232.8540;-52.9600;-47.2500;-5.7100
1233.0530;-53.0100;-47.2000;-5.8100
1233.2520;-53.0400;-47.1500;-5.8900
1233.4510;-53.0500;-47.0700;-5.9800
1233.6500;-53.0100;-47.0300;-5.9800
1233.8500;-52.9800;-46.9500;-6.0300
1234.0490;-52.9600;-46.8900;-6.0700
1234.2480;-52.8800;-46.8300;-6.0500
1234.4470;-52.7900;-46.7500;-6.0400
1234.6460;-52.7000;-46.6900;-6.0100
1234.8450;-52.6200;-46.6100;-6.0100
1235.0440;-52.4800;-46.5300;-5.9500
1235.2430;-52.3400;-46.4600;-5.8800
1235.4430;-52.2300;-46.3600;-5.8700
1235.6420;-52.1000;-46.2900;-5.8100
1235.8410;-51.9300;-46.1900;-5.7400
1236.0400;-51.7800;-46.1100;-5.6700
1236.2390;-51.6500;-46.0200;-5.6300
1236.4380;-51.5200;-45.9100;-5.6100
1236.6370;-51.3600;-45.8300;-5.5300
1236.8360;-51.2200;-45.7400;-5.4800
1237.0350;-51.1100;-45.6700;-5.4400
1237.2350;-50.9900;-45.5700;-5.4200
1237.4340;-50.8600;-45.4700;-5.3900
1237.6330;-50.7600;-45.3900;-5.3700
1237.8320;-50.7000;-45.3100;-5.3900
1238.0310;-50.6000;-45.2400;-5.3600
1238.2300;-50.5200;-45.1500;-5.3700
1238.4290;-50.4900;-45.0700;-5.4200
1238.6280;-50.4500;-45.0000;-5.4500
1238.8270;-50.4000;-44.9100;-5.4900
1239.0270;-50.3700;-44.8500;-5.5200
1239.2260;-50.3500;-44.7500;-5.6000
1239.4250;-50.3500;-44.6700;-5.6800
1239.6240;-50.3100;-44.6000;-5.7100
1239.8230;-50.2800;-44.5100;-5.7700
1240.0220;-50.2500;-44.4400;-5.8100
1240.2210;-50.2000;-44.3400;-5.8600
1240.4200;-50.1200;-44.2500;-5.8700
1240.6200;-50.0300;-44.1600;-5.8700
1240.8190;-49.9400;-44.0600;-5.8800
1241.0180;-49.7900;-43.9600;-5.8300
1241.2170;-49.6300;-43.8500;-5.7800
1241.4160;-49.4800;-43.7400;-5.7400
1241.6150;-49.2900;-43.6200;-5.6700
1241.8140;-49.1000;-43.5000;-5.6000
1242.0130;-48.8800;-43.4000;-5.4800
1242.2120;-48.6800;-43.2700;-5.4100
1242.4120;-48.5000;-43.1500;-5.3500
1242.6110;-48.2600;-43.0300;-5.2300
1242.8100;-48.0800;-42.9000;-5.1800
1243.0090;-47.8800;-42.7800;-5.1000
1243.2080;-47.7000;-42.6500;-5.0500
1243.4070;-47.5200;-42.5300;-4.9900
1243.6060;-47.3600;-42.4000;-4.9600
1243.8050;-47.2300;-42.2800;-4.9500
1244.0040;-47.0800;-42.1600;-4.9200
1244.2040;-46.9700;-42.0300;-4.9400
1244.4030;-46.8900;-41.9100;-4.9800
1244.6020;-46.8100;-41.7900;-5.0200
1244.8010;-46.7600;-41.6700;-5.0900
1245.0000;-46.7200;-41.5700;-5.1500
1245.1990;-46.7200;-41.4400;-5.2800
1245.3980;-46.7400;-41.3300;-5.4100
1245.5970;-46.7600;-41.2000;-5.5600
1245.7970;-46.8400;-41.0800;-5.7600
1245.9960;-46.9100;-40.9700;-5.9400
1246.1950;-47.0100;-40.8400;-6.1700
1246.3940;-47.1500;-40.7200;-6.4300
1246.5930;-47.2900;-40.5800;-6.7100
1246.7920;-47.4600;-40.4600;-7.0000
1246.9910;-47.6000;-40.3300;-7.2700
1247.1900;-47.7700;-40.1900;-7.5800
1247.3890;-47.9200;-40.0500;-7.8700
1247.5890;-48.0300;-39.9100;-8.1200
1247.7880;-48.1200;-39.7700;-8.3500
1247.9870;-48.1200;-39.6400;-8.4800
1248.1860;-48.0700;-39.4900;-8.5800
1248.3850;-47.9400;-39.3500;-8.5900
1248.5840;-47.7200;-39.2000;-8.5200
1248.7830;-47.4500;-39.0500;-8.4000
1248.9820;-47.0800;-38.9300;-8.1500
1249.1810;-46.6700;-38.7700;-7.9000
1249.3810;-46.2300;-38.6400;-7.5900
1249.5800;-45.6700;-38.5000;-7.1700
1249.7790;-45.2700;-38.3600;-6.9100
1249.9780;-44.7800;-38.2200;-6.5600
1250.1770;-44.3200;-38.0800;-6.2400
1250.3760;-43.8400;-37.9500;-5.8900
1250.5750;-43.3700;-37.8100;-5.5600
1250.7740;-42.9400;-37.6800;-5.2600
1250.9740;-42.5300;-37.5700;-4.9600
1251.1730;-42.1400;-37.4300;-4.7100
1251.3720;-41.7600;-37.3000;-4.4600
1251.5710;-41.4300;-37.1800;-4.2500
1251.7700;-41.1200;-37.0400;-4.0800
1251.9690;-40.8300;-36.9200;-3.9100
1252.1680;-40.5900;-36.7700;-3.8200
1252.3670;-40.3600;-36.6500;-3.7100
1252.5660;-40.1700;-36.5200;-3.6500
1252.7660;-40.0100;-36.3800;-3.6300
1252.9650;-39.8900;-36.2600;-3.6300
1253.1640;-39.8200;-36.1100;-3.7100
1253.3630;-39.7500;-35.9700;-3.7800
1253.5620;-39.7400;-35.8000;-3.9400
1253.7610;-39.7600;-35.6900;-4.0700
1253.9600;-39.8200;-35.5400;-4.2800
1254.1590;-39.9200;-35.4000;-4.5200
1254.3580;-40.0400;-35.2500;-4.7900
1254.5580;-40.2100;-35.1100;-5.1000
1254.7570;-40.3900;-34.9700;-5.4200
1254.9560;-40.6100;-34.8100;-5.8000
1255.1550;-40.8700;-34.6700;-6.2000
1255.3540;-41.1100;-34.5400;-6.5700
1255.5530;-41.3800;-34.4000;-6.9800
1255.7520;-41.6200;-34.2700;-7.3500
1255.9510;-41.8300;-34.1200;-7.7100
1256.1500;-42.0100;-34.0000;-8.0100
1256.3500;-42.0800;-33.8600;-8.2200
1256.5490;-42.0800;-33.7300;-8.3500
1256.7480;-41.9500;-33.6200;-8.3300
1256.9470;-41.7000;-33.4700;-8.2300
1257.1460;-41.3500;-33.3500;-8.0000
1257.3450;-40.8800;-33.2300;-7.6500
1257.5440;-40.3800;-33.1000;-7.2800
1257.7430;-39.7900;-32.9900;-6.8000
1257.9430;-39.1800;-32.8400;-6.3400
1258.1420;-38.5800;-32.7300;-5.8500
1258.3410;-37.9700;-32.5900;-5.3800
1258.5400;-37.3900;-32.4700;-4.9200
1258.7390;-36.8000;-32.3500;-4.4500
1258.9380;-36.2500;-32.2000;-4.0500
1259.1370;-35.6400;-32.0800;-3.5600
1259.3360;-35.2600;-31.9300;-3.3300
1259.5350;-34.8200;-31.8000;-3.0200
1259.7350;-34.4000;-31.6700;-2.7300
1259.9340;-34.0300;-31.5200;-2.5100
1260.1330;-33.6800;-31.4000;-2.2800
1260.3320;-33.3700;-31.2600;-2.1100
1260.5310;-33.1000;-31.1300;-1.9700
1260.7300;-32.8500;-31.0000;-1.8500
1260.9290;-32.6500;-30.8600;-1.7900
1261.1280;-32.4600;-30.7300;-1.7300
1261.3270;-32.3100;-30.5900;-1.7200
1261.5270;-32.2100;-30.4700;-1.7400
1261.7260;-32.1200;-30.3500;-1.7700
1261.9250;-32.0800;-30.2100;-1.8700
1262.1240;-32.0500;-30.0900;-1.9600
1262.3230;-32.0700;-29.9600;-2.1100
1262.5220;-32.1300;-29.8500;-2.2800
1262.7210;-32.2100;-29.7300;-2.4800
1262.9200;-32.3400;-29.6000;-2.7400
1263.1200;-32.4900;-29.4800;-3.0100
1263.3190;-32.6800;-29.3500;-3.3300
1263.5180;-32.9300;-29.2300;-3.7000
1263.7170;-33.1900;-29.1200;-4.0700
1263.9160;-33.5100;-28.9900;-4.5200
1264.1150;-33.8500;-28.8700;-4.9800
1264.3140;-34.2300;-28.7400;-5.4900
1264.5130;-34.6500;-28.6200;-6.0300
1264.7120;-35.0800;-28.5000;-6.5800
1264.9120;-35.5200;-28.3600;-7.1600
1265.1110;-35.9400;-28.2400;-7.7000
1265.3100;-36.3200;-28.1000;-8.2200
1265.5090;-36.6500;-27.9900;-8.6600
1265.7080;-36.8500;-27.8600;-8.9900
1265.9070;-36.9500;-27.7300;-9.2200
1266.1060;-36.8800;-27.6100;-9.2700
1266.3050;-36.6700;-27.4800;-9.1900
1266.5040;-36.3400;-27.3700;-8.9700
1266.7040;-35.9100;-27.2500;-8.6600
1266.9030;-35.4300;-27.1200;-8.3100
1267.1020;-34.8900;-27.0200;-7.8700
1267.3010;-34.3500;-26.8900;-7.4600
1267.5000;-33.8300;-26.7900;-7.0400
1267.6990;-33.3100;-26.6800;-6.6300
1267.8980;-32.8300;-26.5600;-6.2700
1268.0970;-32.3700;-26.4700;-5.9000
1268.2970;-31.9500;-26.3400;-5.6100
1268.4960;-31.5600;-26.2500;-5.3100
1268.6950;-31.2000;-26.1300;-5.0700
1268.8940;-30.8900;-26.0100;-4.8800
1269.0930;-30.6000;-25.9100;-4.6900
1269.2920;-30.3700;-25.8000;-4.5700
1269.4910;-30.1800;-25.7100;-4.4700
1269.6900;-30.0200;-25.5900;-4.4300
1269.8890;-29.9200;-25.4900;-4.4300
1270.0890;-29.8400;-25.3700;-4.4700
1270.2880;-29.8200;-25.2600;-4.5600
1270.4870;-29.8500;-25.1700;-4.6800
1270.6860;-29.9100;-25.0500;-4.8600
1270.8850;-30.0500;-24.9400;-5.1100
1271.0840;-30.2100;-24.8200;-5.3900
1271.2830;-30.4400;-24.7200;-5.7200
1271.4820;-30.7200;-24.6200;-6.1000
1271.6810;-31.0500;-24.5000;-6.5500
1271.8810;-31.4600;-24.4100;-7.0500
1272.0800;-31.9200;-24.2900;-7.6300
1272.2790;-32.4600;-24.1900;-8.2700
1272.4780;-33.0400;-24.0900;-8.9500
1272.6770;-33.7000;-23.9900;-9.7100
1272.8760;-34.4200;-23.9000;-10.5200
1273.0750;-35.1900;-23.7900;-11.4000
1273.2740;-35.9800;-23.7000;-12.2800
1273.4740;-36.7100;-23.6100;-13.1000
1273.6730;-37.3400;-23.5100;-13.8300
1273.8720;-37.7100;-23.4200;-14.2900
1274.0710;-37.7500;-23.3200;-14.4300
1274.2700;-37.4200;-23.2300;-14.1900
1274.4690;-36.7700;-23.1500;-13.6200
1274.6680;-35.9400;-23.0500;-12.8900
1274.8670;-35.0100;-22.9700;-12.0400
1275.0660;-34.0800;-22.8700;-11.2100
1275.2660;-33.2000;-22.7700;-10.4300
1275.4650;-32.3600;-22.6800;-9.6800
1275.6640;-31.6000;-22.5800;-9.0200
1275.8630;-30.8900;-22.5000;-8.3900
1276.0620;-30.2700;-22.3900;-7.8800
1276.2610;-29.7200;-22.3000;-7.4200
1276.4600;-29.2200;-22.2100;-7.0100
1276.6590;-28.7900;-22.1000;-6.6900
1276.8580;-28.4100;-22.0200;-6.3900
1277.0580;-28.0900;-21.9200;-6.1700
1277.2570;-27.8400;-21.8300;-6.0100
1277.4560;-27.6300;-21.7400;-5.8900
1277.6550;-27.4900;-21.6500;-5.8400
1277.8540;-27.3700;-21.5700;-5.8000
1278.0530;-27.3200;-21.4700;-5.8500
1278.2520;-27.3200;-21.3900;-5.9300
1278.4510;-27.3500;-21.3000;-6.0500
1278.6500;-27.4600;-21.2200;-6.2400
1278.8500;-27.5900;-21.1400;-6.4500
1279.0490;-27.8000;-21.0500;-6.7500
1279.2480;-28.0500;-20.9800;-7.0700
1279.4470;-28.3500;-20.8900;-7.4600
1279.6460;-28.7300;-20.8100;-7.9200
1279.8450;-29.1400;-20.7400;-8.4000
1280.0440;-29.6200;-20.6500;-8.9700
1280.2430;-30.1300;-20.5900;-9.5400
1280.4430;-30.6800;-20.5000;-10.1800
1280.6420;-31.2300;-20.4300;-10.8000
1280.8410;-31.7100;-20.3500;-11.3600
1281.0400;-32.0800;-20.2700;-11.8100
1281.2390;-32.2200;-20.2000;-12.0200
1281.4380;-32.0900;-20.1200;-11.9700
1281.6370;-31.6800;-20.0500;-11.6300
1281.8360;-31.0200;-19.9700;-11.0500
1282.0350;-30.2100;-19.8900;-10.3200
1282.2350;-29.2900;-19.8300;-9.4600
1282.4340;-28.3700;-19.7400;-8.6300
1282.6330;-27.4700;-19.6800;-7.7900
1282.8320;-26.5900;-19.6100;-6.9800
1283.0310;-25.6600;-19.5300;-6.1300
1283.2300;-25.0200;-19.4700;-5.5500
1283.4290;-24.3300;-19.4000;-4.9300
1283.6280;-23.6600;-19.3300;-4.3300
1283.8270;-23.0700;-19.2600;-3.8100
1284.0270;-22.5100;-19.1900;-3.3200
1284.2260;-22.0100;-19.1300;-2.8800
1284.4250;-21.5600;-19.0600;-2.5000
1284.6240;-21.1400;-19.0000;-2.1400
1284.8230;-20.7600;-18.9300;-1.8300
1285.0220;-20.4300;-18.8600;-1.5700
1285.2210;-20.1300;-18.8000;-1.3300
1285.4200;-19.8900;-18.7300;-1.1600
1285.6200;-19.6600;-18.6700;-0.9900
1285.8190;-19.4900;-18.5900;-0.9000
1286.0180;-19.3400;-18.5300;-0.8100
1286.2170;-19.2400;-18.4700;-0.7700
1286.4160;-19.1800;-18.3900;-0.7900
1286.6150;-19.1600;-18.3400;-0.8200
1286.8140;-19.1800;-18.2700;-0.9100
1287.0130;-19.2300;-18.2000;-1.0300
1287.2120;-19.3200;-18.1400;-1.1800
1287.4120;-19.4800;-18.0700;-1.4100
1287.6110;-19.6600;-18.0200;-1.6400
1287.8100;-19.9000;-17.9400;-1.9600
1288.0090;-20.1900;-17.8900;-2.3000
1288.2080;-20.5400;-17.8200;-2.7200
1288.4070;-20.9500;-17.7600;-3.1900
1288.6060;-21.4300;-17.7100;-3.7200
1288.8050;-21.9900;-17.6500;-4.3400
1289.0040;-22.6300;-17.6000;-5.0300
1289.2040;-23.3600;-17.5300;-5.8300
1289.4030;-24.2200;-17.4800;-6.7400
1289.6020;-25.1900;-17.4400;-7.7500
1289.8010;-26.3300;-17.3800;-8.9500
1290.0000;-27.6100;-17.3400;-10.2700
1290.1990;-29.4000;-17.2800;-12.1200
1290.3980;-30.6700;-17.2300;-13.4400
1290.5970;-32.1000;-17.2000;-14.9000
1290.7970;-32.8300;-17.1400;-15.6900
1290.9960;-32.3500;-17.1000;-15.2500
1291.1950;-30.9800;-17.0400;-13.9400
1291.3940;-29.2900;-17.0000;-12.2900
1291.5930;-27.6600;-16.9400;-10.7200
1291.7920;-26.1800;-16.9000;-9.2800
1291.9910;-24.7000;-16.8600;-7.8400
1292.1900;-23.7700;-16.8000;-6.9700
1292.3890;-22.7900;-16.7600;-6.0300
1292.5890;-21.9300;-16.7100;-5.2200
1292.7880;-21.1600;-16.6600;-4.5000
1292.9870;-20.4900;-16.6300;-3.8600
1293.1860;-19.9000;-16.5700;-3.3300
1293.3850;-19.3700;-16.5400;-2.8300
1293.5840;-18.9100;-16.4800;-2.4300
1293.7830;-18.5100;-16.4400;-2.0700
1293.9820;-18.1800;-16.4100;-1.7700
1294.1810;-17.8800;-16.3600;-1.5200
1294.3810;-17.6400;-16.3400;-1.3000
1294.5800;-17.4400;-16.2700;-1.1700
1294.7790;-17.2900;-16.2400;-1.0500
1294.9780;-17.2000;-16.2000;-1.0000
1295.1770;-17.1300;-16.1600;-0.9700
1295.3760;-17.1000;-16.1300;-0.9700
1295.5750;-17.1100;-16.0800;-1.0300
1295.7740;-17.1700;-16.0600;-1.1100
1295.9740;-17.2800;-16.0000;-1.2800
1296.1730;-17.4200;-15.9700;-1.4500
1296.3720;-17.6200;-15.9300;-1.6900
1296.5710;-17.8500;-15.8900;-1.9600
1296.7700;-18.1400;-15.8700;-2.2700
1296.9690;-18.4900;-15.8200;-2.6700
1297.1680;-18.8800;-15.8000;-3.0800
1297.3670;-19.3400;-15.7500;-3.5900
1297.5660;-19.8300;-15.7200;-4.1100
1297.7660;-20.4100;-15.6900;-4.7200
1297.9650;-21.0700;-15.6600;-5.4100
1298.1640;-21.7900;-15.6400;-6.1500
1298.3630;-22.5900;-15.6000;-6.9900
1298.5620;-23.4300;-15.5600;-7.8700
1298.7610;-24.3400;-15.5400;-8.8000
1298.9600;-25.2400;-15.5100;-9.7300
1299.1590;-26.0600;-15.5000;-10.5600
1299.3580;-26.6800;-15.4600;-11.2200
1299.5580;-26.9200;-15.4300;-11.4900
1299.7570;-26.7500;-15.4000;-11.3500
1299.9560;-26.1900;-15.3800;-10.8100
1300.1550;-25.3700;-15.3700;-10.0000
1300.3540;-24.4500;-15.3300;-9.1200
1300.5530;-23.4700;-15.3100;-8.1600
1300.7520;-22.5700;-15.2800;-7.2900
1300.9510;-21.7100;-15.2600;-6.4500
1301.1500;-20.9200;-15.2500;-5.6700
1301.3500;-20.2200;-15.2200;-5.0000
1301.5490;-19.5800;-15.2200;-4.3600
1301.7480;-19.0100;-15.1900;-3.8200
1301.9470;-18.4800;-15.1700;-3.3100
1302.1460;-18.0300;-15.1700;-2.8600
1302.3450;-17.6400;-15.1500;-2.4900
1302.5440;-17.2900;-15.1500;-2.1400
1302.7430;-17.0000;-15.1200;-1.8800
1302.9430;-16.7400;-15.1000;-1.6400
1303.1420;-16.5400;-15.1000;-1.4400
1303.3410;-16.3800;-15.0800;-1.3000
1303.5400;-16.2700;-15.0900;-1.1800
1303.7390;-16.2000;-15.0700;-1.1300
1303.9380;-16.1600;-15.0600;-1.1000
1304.1370;-16.1900;-15.0600;-1.1300
1304.3360;-16.2300;-15.0500;-1.1800
1304.5350;-16.3300;-15.0600;-1.2700
1304.7350;-16.4800;-15.0600;-1.4200
1304.9340;-16.6500;-15.0600;-1.5900
1305.1330;-16.9000;-15.0600;-1.8400
1305.3320;-17.1700;-15.0600;-2.1100
1305.5310;-17.5100;-15.0800;-2.4300
1305.7300;-17.9100;-15.0800;-2.8300
1305.9290;-18.3500;-15.0900;-3.2600
1306.1280;-18.8900;-15.1000;-3.7900
1306.3270;-19.4700;-15.1100;-4.3600
1306.5270;-20.1600;-15.1400;-5.0200
1306.7260;-20.9400;-15.1400;-5.8000
1306.9250;-21.8200;-15.1700;-6.6500
1307.1240;-22.8700;-15.1700;-7.7000
1307.3230;-24.0300;-15.1900;-8.8400
1307.5220;-25.3900;-15.2100;-10.1800
1307.7210;-26.9200;-15.2300;-11.6900
1307.9200;-28.9500;-15.2600;-13.6900
1308.1200;-30.2200;-15.2700;-14.9500
1308.3190;-31.1700;-15.2900;-15.8800
1308.5180;-30.9800;-15.3200;-15.6600
1308.7170;-29.7100;-15.3400;-14.3700
1308.9160;-28.0800;-15.3700;-12.7100
1309.1150;-26.4800;-15.3800;-11.1000
1309.3140;-24.8000;-15.4100;-9.3900
1309.5130;-23.7900;-15.4300;-8.3600
1309.7120;-22.7000;-15.4500;-7.2500
1309.9120;-21.7600;-15.4800;-6.2800
1310.1110;-20.9300;-15.5000;-5.4300
1310.3100;-20.2000;-15.5300;-4.6700
1310.5090;-19.5900;-15.5500;-4.0400
1310.7080;-19.0200;-15.5700;-3.4500
1310.9070;-18.5500;-15.5800;-2.9700
1311.1060;-18.1300;-15.6000;-2.5300
1311.3050;-17.7800;-15.6400;-2.1400
1311.5040;-17.5000;-15.6500;-1.8500
1311.7040;-17.2600;-15.6800;-1.5800
1311.9030;-17.0800;-15.6900;-1.3900
1312.1020;-16.9300;-15.7200;-1.2100
1312.3010;-16.8400;-15.7500;-1.0900
1312.5000;-16.8000;-15.7800;-1.0200
1312.6990;-16.8000;-15.8200;-0.9800
1312.8980;-16.8500;-15.8400;-1.0100
1313.0970;-16.9300;-15.8700;-1.0600
1313.2970;-17.0700;-15.9000;-1.1700
1313.4960;-17.2600;-15.9400;-1.3200
1313.6950;-17.4800;-15.9900;-1.4900
1313.8940;-17.7600;-16.0100;-1.7500
1314.0930;-18.0900;-16.0600;-2.0300
1314.2920;-18.4900;-16.1000;-2.3900
1314.4910;-18.9200;-16.1500;-2.7700
1314.6900;-19.4300;-16.2000;-3.2300
1314.8890;-20.0000;-16.2400;-3.7600
1315.0890;-20.6600;-16.3000;-4.3600
1315.2880;-21.4100;-16.3300;-5.0800
1315.4870;-22.2500;-16.3900;-5.8600
1315.6860;-23.2200;-16.4500;-6.7700
1315.8850;-24.3100;-16.5000;-7.8100
1316.0840;-25.5700;-16.5700;-9.0000
1316.2830;-27.0200;-16.6100;-10.4100
1316.4820;-29.0500;-16.6900;-12.3600
1316.6810;-30.5600;-16.7500;-13.8100
1316.8810;-32.3300;-16.8200;-15.5100
1317.0800;-33.5200;-16.9000;-16.6200
1317.2790;-33.3000;-16.9600;-16.3400
1317.4780;-31.9300;-17.0400;-14.8900
1317.6770;-30.2000;-17.1000;-13.1000
1317.8760;-28.5300;-17.1700;-11.3600
1318.0750;-27.1000;-17.2500;-9.8500
1318.2740;-25.6400;-17.3200;-8.3200
1318.4740;-24.7900;-17.4000;-7.3900
1318.6730;-23.8800;-17.4600;-6.4200
1318.8720;-23.1100;-17.5500;-5.5600
1319.0710;-22.4300;-17.6300;-4.8000
1319.2700;-21.8500;-17.7000;-4.1500
1319.4690;-21.3600;-17.7800;-3.5800
1319.6680;-20.9400;-17.8600;-3.0800
1319.8670;-20.5900;-17.9500;-2.6400
1320.0660;-20.2900;-18.0100;-2.2800
1320.2660;-20.0500;-18.0900;-1.9600
1320.4650;-19.8700;-18.1700;-1.7000
1320.6640;-19.7400;-18.2500;-1.4900
1320.8630;-19.6600;-18.3400;-1.3200
1321.0620;-19.6100;-18.4100;-1.2000
1321.2610;-19.6100;-18.5300;-1.0800
1321.4600;-19.6500;-18.5900;-1.0600
1321.6590;-19.7400;-18.6900;-1.0500
1321.8580;-19.8800;-18.7700;-1.1100
1322.0580;-20.0400;-18.8600;-1.1800
1322.2570;-20.2700;-18.9600;-1.3100
1322.4560;-20.5200;-19.0400;-1.4800
1322.6550;-20.8200;-19.1400;-1.6800
1322.8540;-21.1800;-19.2200;-1.9600
1323.0530;-21.5800;-19.3200;-2.2600
1323.2520;-22.0500;-19.4200;-2.6300
1323.4510;-22.5400;-19.5100;-3.0300
1323.6500;-23.1100;-19.6200;-3.4900
1323.8500;-23.7400;-19.7100;-4.0300
1324.0490;-24.4300;-19.8200;-4.6100
1324.2480;-25.2200;-19.9200;-5.3000
1324.4470;-26.0700;-20.0200;-6.0500
1324.6460;-27.0200;-20.1400;-6.8800
1324.8450;-28.0600;-20.2400;-7.8200
1325.0440;-29.4700;-20.3600;-9.1100
1325.2430;-30.4800;-20.4600;-10.0200
1325.4430;-31.7700;-20.5800;-11.1900
1325.6420;-33.0800;-20.7200;-12.3600
1325.8410;-34.1700;-20.8400;-13.3300
1326.0400;-34.8300;-20.9700;-13.8600
1326.2390;-34.8400;-21.0800;-13.7600
1326.4380;-34.2900;-21.2100;-13.0800
1326.6370;-33.3900;-21.3300;-12.0600
1326.8360;-32.3900;-21.4500;-10.9400
1327.0350;-31.4300;-21.5900;-9.8400
1327.2350;-30.5200;-21.7100;-8.8100
1327.4340;-29.7400;-21.8500;-7.8900
1327.6330;-29.0400;-21.9700;-7.0700
1327.8320;-28.4400;-22.1000;-6.3400
1328.0310;-27.9400;-22.2400;-5.7000
1328.2300;-27.5100;-22.3700;-5.1400
1328.4290;-27.1600;-22.5100;-4.6500
1328.6280;-26.8600;-22.6400;-4.2200
1328.8270;-26.6300;-22.7700;-3.8600
1329.0270;-26.4700;-22.9200;-3.5500
1329.2260;-26.3300;-23.0500;-3.2800
1329.4250;-26.2900;-23.1900;-3.1000
1329.6240;-26.2600;-23.3100;-2.9500
1329.8230;-26.2900;-23.4600;-2.8300
1330.0220;-26.3500;-23.6000;-2.7500
1330.2210;-26.4600;-23.7300;-2.7300
1330.4200;-26.6100;-23.8800;-2.7300
1330.6200;-26.8000;-24.0100;-2.7900
1330.8190;-27.0500;-24.1600;-2.8900
1331.0180;-27.3200;-24.3000;-3.0200
1331.2170;-27.6400;-24.4500;-3.1900
1331.4160;-28.0000;-24.6100;-3.3900
1331.6150;-28.3900;-24.7400;-3.6500
1331.8140;-28.9300;-24.9100;-4.0200
1332.0130;-29.3200;-25.0400;-4.2800
1332.2120;-29.8400;-25.2000;-4.6400
1332.4120;-30.3800;-25.3600;-5.0200
1332.6110;-30.9800;-25.5100;-5.4700
1332.8100;-31.5700;-25.6700;-5.9000
1333.0090;-32.1800;-25.8200;-6.3600
1333.2080;-32.7800;-25.9700;-6.8100
1333.4070;-33.3700;-26.1300;-7.2400
1333.6060;-33.9100;-26.2800;-7.6300
1333.8050;-34.3600;-26.4500;-7.9100
1334.0040;-34.7100;-26.6000;-8.1100
1334.2040;-34.9300;-26.7700;-8.1600
1334.4030;-35.0200;-26.9200;-8.1000
1334.6020;-34.9900;-27.0900;-7.9000
1334.8010;-34.8500;-27.2400;-7.6100
1335.0000;-34.6600;-27.4000;-7.2600
1335.1990;-34.3900;-27.5800;-6.8100
1335.3980;-34.1100;-27.7300;-6.3800
1335.5970;-33.8200;-27.9000;-5.9200
1335.7970;-33.5400;-28.0600;-5.4800
1335.9960;-33.3100;-28.2300;-5.0800
1336.1950;-33.0700;-28.4000;-4.6700
1336.3940;-32.8900;-28.5900;-4.3000
1336.5930;-32.7200;-28.7300;-3.9900
1336.7920;-32.5900;-28.8800;-3.7100
1336.9910;-32.5200;-29.0600;-3.4600
1337.1900;-32.4800;-29.2200;-3.2600
1337.3890;-32.4900;-29.3900;-3.1000
1337.5890;-32.5200;-29.5600;-2.9600
1337.7880;-32.6100;-29.7200;-2.8900
1337.9870;-32.7300;-29.9000;-2.8300
1338.1860;-32.8900;-30.0600;-2.8300
1338.3850;-33.1100;-30.2400;-2.8700
1338.5840;-33.3500;-30.4000;-2.9500
1338.7830;-33.6500;-30.5700;-3.0800
1338.9820;-33.9900;-30.7400;-3.2500
1339.1810;-34.3800;-30.9100;-3.4700
1339.3810;-34.8300;-31.1000;-3.7300
1339.5800;-35.3300;-31.2600;-4.0700
1339.7790;-35.9000;-31.4400;-4.4600
1339.9780;-36.5200;-31.6100;-4.9100
1340.1770;-37.2200;-31.7900;-5.4300
1340.3760;-37.9900;-31.9800;-6.0100
1340.5750;-39.0500;-32.1600;-6.8900
1340.7740;-39.8300;-32.3400;-7.4900
1340.9740;-40.8800;-32.5000;-8.3800
1341.1730;-42.0700;-32.6800;-9.3900
1341.3720;-43.3600;-32.8700;-10.4900
1341.5710;-44.7800;-33.0400;-11.7400
1341.7700;-46.2400;-33.2300;-13.0100
1341.9690;-47.6200;-33.4000;-14.2200
1342.1680;-48.7600;-33.5800;-15.1800
1342.3670;-48.7900;-33.7500;-15.0400
1342.5660;-48.2000;-33.9300;-14.2700
1342.7660;-47.1400;-34.1200;-13.0200
1342.9650;-45.7600;-34.2900;-11.4700
1343.1640;-44.8100;-34.4800;-10.3300
1343.3630;-43.8100;-34.6600;-9.1500
1343.5620;-42.8900;-34.8300;-8.0600
1343.7610;-42.1200;-35.0200;-7.1000
1343.9600;-41.4500;-35.1900;-6.2600
1344.1590;-40.8700;-35.3900;-5.4800
1344.3580;-40.3900;-35.5600;-4.8300
1344.5580;-39.9800;-35.7400;-4.2400
1344.7570;-39.6500;-35.9300;-3.7200
1344.9560;-39.3600;-36.0900;-3.2700
1345.1550;-39.1300;-36.2700;-2.8600
1345.3540;-38.9700;-36.4300;-2.5400
1345.5530;-38.8500;-36.6100;-2.2400
1345.7520;-38.7900;-36.7700;-2.0200
1345.9510;-38.7600;-36.9500;-1.8100
1346.1500;-38.7800;-37.1300;-1.6500
1346.3500;-38.8500;-37.3100;-1.5400
1346.5490;-38.9700;-37.5000;-1.4700
1346.7480;-39.1200;-37.6700;-1.4500
1346.9470;-39.3000;-37.8400;-1.4600
1347.1460;-39.5200;-38.0100;-1.5100
1347.3450;-39.7700;-38.1600;-1.6100
1347.5440;-40.1100;-38.3800;-1.7300
1347.7430;-40.5100;-38.6500;-1.8600
1347.9430;-40.9200;-38.8100;-2.1100
1348.1420;-41.3700;-38.9800;-2.3900
1348.3410;-41.8600;-39.1600;-2.7000
1348.5400;-42.3600;-39.3100;-3.0500
1348.7390;-42.9300;-39.4700;-3.4600
1348.9380;-43.5500;-39.6400;-3.9100
1349.1370;-44.2500;-39.7900;-4.4600
1349.3360;-44.9800;-39.9400;-5.0400
1349.5350;-45.8100;-40.1100;-5.7000
1349.7350;-46.7100;-40.2600;-6.4500
1349.9340;-47.7200;-40.4500;-7.2700
1350.1330;-49.1200;-40.6300;-8.4900
1350.3320;-50.1500;-40.8800;-9.2700
1350.5310;-51.5500;-41.0900;-10.4600
1350.7300;-53.0400;-41.2600;-11.7800
1350.9290;-54.5500;-41.4200;-13.1300
1351.1280;-55.8500;-41.5300;-14.3200
1351.3270;-56.6700;-41.6900;-14.9800
1351.5270;-56.7800;-41.8600;-14.9200
1351.7260;-56.2300;-42.0900;-14.1400
1351.9250;-55.2200;-42.2900;-12.9300
1352.1240;-54.0800;-42.4500;-11.6300
1352.3230;-53.0600;-42.6300;-10.4300
1352.5220;-52.1800;-42.8300;-9.3500
1352.7210;-51.3100;-42.9800;-8.3300
1352.9200;-50.6000;-43.1300;-7.4700
1353.1200;-50.0900;-43.3800;-6.7100
1353.3190;-49.5200;-43.4900;-6.0300
1353.5180;-49.0900;-43.6500;-5.4400
1353.7170;-48.7500;-43.8300;-4.9200
1353.9160;-48.4300;-43.9200;-4.5100
1354.1150;-48.1900;-44.0600;-4.1300
1354.3140;-48.1100;-44.2700;-3.8400
1354.5130;-48.0400;-44.4600;-3.5800
1354.7120;-48.1400;-44.7700;-3.3700
1354.9120;-48.2700;-45.0300;-3.2400
1355.1110;-48.3300;-45.2100;-3.1200
1355.3100;-48.4100;-45.3100;-3.1000
1355.5090;-48.3900;-45.3000;-3.0900
1355.7080;-48.6700;-45.5700;-3.1000
1355.9070;-49.0200;-45.8200;-3.2000
1356.1060;-49.3200;-45.9800;-3.3400
1356.3050;-49.6100;-46.0400;-3.5700
1356.5040;-49.9700;-46.1300;-3.8400
1356.7040;-50.1500;-46.0400;-4.1100
1356.9030;-50.6200;-46.1800;-4.4400
1357.1020;-51.3500;-46.5600;-4.7900
1357.3010;-52.0800;-46.7600;-5.3200
1357.5000;-52.8500;-46.9400;-5.9100
1357.6990;-53.6900;-47.0900;-6.6000
1357.8980;-54.4700;-47.1300;-7.3400
1358.0970;-55.3300;-47.1900;-8.1400
1358.2970;-56.4300;-47.3600;-9.0700
1358.4960;-57.7100;-47.5900;-10.1200
1358.6950;-59.3500;-47.7100;-11.6400
1358.8940;-60.5600;-47.8600;-12.7000
1359.0930;-62.1100;-47.9900;-14.1200
1359.2920;-63.1500;-48.0200;-15.1300
1359.4910;-64.0400;-48.4000;-15.6400
1359.6900;-64.0000;-48.7400;-15.2600
1359.8890;-63.0500;-48.8900;-14.1600
1360.0890;-61.6600;-48.9200;-12.7400
1360.2880;-60.4100;-48.9400;-11.4700
1360.4870;-59.1900;-48.9200;-10.2700
1360.6860;-58.2100;-49.0800;-9.1300
1360.8850;-57.5700;-49.4200;-8.1500
1361.0840;-56.9400;-49.7000;-7.2400
1361.2830;-56.1200;-49.8800;-6.2400
1361.4820;-55.6400;-50.0100;-5.6300
1361.6810;-55.3300;-50.2300;-5.1000
1361.8810;-54.9200;-50.3500;-4.5700
1362.0800;-54.6500;-50.5700;-4.0800
1362.2790;-54.6800;-50.9900;-3.6900
1362.4780;-54.5900;-51.2200;-3.3700
1362.6770;-54.4100;-51.3500;-3.0600
1362.8760;-54.0400;-51.2200;-2.8200
1363.0750;-53.8100;-51.1400;-2.6700
1363.2740;-53.4600;-50.9000;-2.5600
1363.4740;-53.4600;-50.9800;-2.4800
1363.6730;-53.5200;-51.0700;-2.4500
1363.8720;-53.6600;-51.2000;-2.4600
1364.0710;-53.9300;-51.4200;-2.5100
1364.2700;-54.2200;-51.6000;-2.6200
1364.4690;-54.6600;-51.9100;-2.7500
1364.6680;-55.3600;-52.4200;-2.9400
1364.8670;-55.8800;-52.6400;-3.2400
1365.0660;-56.2100;-52.6200;-3.5900
1365.2660;-56.7700;-52.7600;-4.0100
1365.4650;-57.0700;-52.7000;-4.3700
1365.6640;-57.6200;-52.7700;-4.8500
1365.8630;-58.2600;-52.8000;-5.4600
1366.0620;-59.0500;-52.8100;-6.2400
1366.2610;-59.6700;-52.8000;-6.8700
1366.4600;-60.5500;-52.8800;-7.6700
1366.6590;-61.6000;-53.0300;-8.5700
1366.8580;-62.8300;-53.2700;-9.5600
1367.0580;-64.1400;-53.4100;-10.7300
1367.2570;-65.4700;-53.5200;-11.9500
1367.4560;-66.8900;-53.7900;-13.1000
1367.6550;-67.9500;-53.9700;-13.9800
1367.8540;-68.5900;-54.2600;-14.3300
1368.0530;-68.4900;-54.3600;-14.1300
1368.2520;-67.6000;-54.3500;-13.2500
1368.4510;-66.8900;-54.6900;-12.2000
1368.6500;-65.8100;-54.7800;-11.0300
1368.8500;-64.6600;-54.9000;-9.7600
1369.0490;-63.4900;-54.8600;-8.6300
1369.2480;-62.5600;-54.8400;-7.7200
1369.4470;-61.6600;-54.7700;-6.8900
1369.6460;-61.0400;-54.8700;-6.1700
1369.8450;-60.7700;-55.2100;-5.5600
1370.0440;-60.3500;-55.4100;-4.9400
1370.2430;-59.9300;-55.5500;-4.3800
1370.4430;-59.5000;-55.5900;-3.9100
1370.6420;-59.1400;-55.6200;-3.5200
1370.8410;-59.1400;-55.9300;-3.2100
1371.0400;-59.1200;-56.2100;-2.9100
1371.2390;-59.0400;-56.4200;-2.6200
1371.4380;-58.8400;-56.4000;-2.4400
1371.6370;-58.6800;-56.4000;-2.2800
1371.8360;-58.5300;-56.3600;-2.1700
1372.0350;-58.6600;-56.5700;-2.0900
1372.2350;-58.8400;-56.7800;-2.0600
1372.4340;-58.9700;-56.8900;-2.0800
1372.6330;-59.1000;-56.9800;-2.1200
1372.8320;-59.2100;-57.0000;-2.2100
1373.0310;-59.4000;-57.0700;-2.3300
1373.2300;-59.6900;-57.1800;-2.5100
1373.4290;-60.0600;-57.3500;-2.7100
1373.6280;-60.4100;-57.4800;-2.9300
1373.8270;-60.8000;-57.5700;-3.2300
1374.0270;-61.2700;-57.7000;-3.5700
1374.2260;-61.7300;-57.8000;-3.9300
1374.4250;-62.2700;-57.9700;-4.3000
1374.6240;-62.8800;-58.0900;-4.7900
1374.8230;-63.5800;-58.3000;-5.2800
1375.0220;-64.2700;-58.5500;-5.7200
1375.2210;-64.9600;-58.5900;-6.3700
1375.4200;-65.6300;-58.6900;-6.9400
1375.6200;-66.2500;-58.7800;-7.4700
1375.8190;-66.8700;-58.9100;-7.9600
1376.0180;-67.5400;-59.0600;-8.4800
1376.2170;-68.0600;-59.2300;-8.8300
1376.4160;-68.3800;-59.3400;-9.0400
1376.6150;-68.6200;-59.4400;-9.1800
1376.8140;-68.5400;-59.6300;-8.9100
1377.0130;-68.4500;-59.8800;-8.5700
1377.2120;-68.2000;-60.0700;-8.1300
1377.4120;-67.8200;-60.1500;-7.6700
1377.6110;-67.2600;-60.2300;-7.0300
1377.8100;-66.6700;-60.2300;-6.4400
1378.0090;-66.1600;-60.3000;-5.8600
1378.2080;-65.7900;-60.4300;-5.3600
1378.4070;-65.4100;-60.6000;-4.8100
1378.6060;-65.2900;-60.8600;-4.4300
1378.8050;-65.1300;-61.1800;-3.9500
1379.0040;-64.9200;-61.3200;-3.6000
1379.2040;-64.6600;-61.3700;-3.2900
1379.4030;-64.3700;-61.3500;-3.0200
1379.6020;-64.1300;-61.3700;-2.7600
1379.8010;-63.9800;-61.4100;-2.5700
1380.0000;-63.9700;-61.5700;-2.4000
1380.1990;-63.9900;-61.7500;-2.2400
1380.3980;-64.1200;-61.9400;-2.1800
1380.5970;-64.6600;-62.5300;-2.1300
1380.7970;-65.1300;-62.9800;-2.1500
1380.9960;-65.3100;-63.1600;-2.1500
1381.1950;-65.4600;-63.2000;-2.2600
1381.3940;-65.3300;-62.9600;-2.3700
1381.5930;-65.2600;-62.6800;-2.5800
1381.7920;-65.4600;-62.7200;-2.7400
1381.9910;-65.7400;-62.7800;-2.9600
1382.1900;-66.1600;-62.9000;-3.2600
1382.3890;-66.8400;-63.2200;-3.6200
1382.5890;-67.7100;-63.7800;-3.9300
1382.7880;-68.5800;-64.2900;-4.2900
1382.9870;-69.4600;-64.5200;-4.9400
1383.1860;-70.0300;-64.3000;-5.7300
1383.3850;-70.3700;-64.0900;-6.2800
1383.5840;-70.6200;-63.8900;-6.7300
1383.7830;-71.5300;-64.0000;-7.5300
1383.9820;-72.4200;-64.1200;-8.3000
1384.1810;-72.9500;-64.2000;-8.7500
1384.3810;-73.7200;-64.2300;-9.4900
1384.5800;-74.5300;-64.2100;-10.3200
1384.7790;-74.5400;-64.3500;-10.1900
1384.9780;-75.4900;-64.6000;-10.8900
1385.1770;-75.8500;-64.8600;-10.9900
1385.3760;-75.0400;-64.9400;-10.1000
1385.5750;-74.8400;-64.9400;-9.9000
1385.7740;-74.3000;-64.9300;-9.3700
1385.9740;-73.3100;-64.9400;-8.3700
1386.1730;-72.9900;-65.0100;-7.9800
1386.3720;-72.2700;-65.1700;-7.1000
1386.5710;-71.5100;-65.1500;-6.3600
1386.7700;-71.0100;-65.1500;-5.8600
1386.9690;-70.4900;-65.2700;-5.2200
1387.1680;-70.0400;-65.2700;-4.7700
1387.3670;-69.6200;-65.3100;-4.3100
1387.5660;-69.2700;-65.4500;-3.8200
1387.7660;-69.2800;-65.6700;-3.6100
1387.9650;-69.1200;-65.9700;-3.1500
1388.1640;-69.2700;-66.2100;-3.0600
1388.3630;-69.1000;-66.3200;-2.7800
1388.5620;-68.9100;-66.2400;-2.6700
1388.7610;-68.5800;-66.1100;-2.4700
1388.9600;-68.5000;-66.1800;-2.3200
1389.1590;-68.3700;-66.0800;-2.2900
1389.3580;-68.4000;-66.0400;-2.3600
1389.5580;-68.5000;-66.1600;-2.3400
1389.7570;-68.5800;-66.3000;-2.2800
1389.9560;-68.8300;-66.4100;-2.4200
1390.1550;-69.0300;-66.4700;-2.5600
1390.3540;-69.2600;-66.4600;-2.8000
1390.5530;-69.5300;-66.6000;-2.9300
1390.7520;-69.6000;-66.5400;-3.0600
1390.9510;-70.0300;-66.7100;-3.3200
1391.1500;-70.4200;-66.7900;-3.6300
1391.3500;-70.8700;-66.8700;-4.0000
1391.5490;-71.4700;-67.0000;-4.4700
1391.7480;-71.9900;-67.0800;-4.9100
1391.9470;-72.3700;-67.1600;-5.2100
1392.1460;-73.0300;-67.3600;-5.6700
1392.3450;-74.1100;-67.5300;-6.5800
1392.5440;-74.9700;-67.9900;-6.9800
1392.7430;-75.8900;-68.2400;-7.6500
1392.9430;-76.2600;-68.1900;-8.0700
1393.1420;-76.4900;-68.0800;-8.4100
1393.3410;-76.3200;-67.8300;-8.4900
1393.5400;-76.9100;-67.8600;-9.0500
1393.7390;-77.7400;-67.8300;-9.9100
1393.9380;-77.9900;-67.9200;-10.0700
1394.1370;-77.4700;-68.1100;-9.3600
1394.3360;-78.1600;-68.1800;-9.9800
1394.5350;-77.6000;-68.2200;-9.3800
1394.7350;-77.6500;-68.3800;-9.2700
1394.9340;-76.8800;-68.6200;-8.2600
1395.1330;-76.0400;-68.9200;-7.1200
1395.3320;-76.1000;-69.0000;-7.1000
1395.5310;-75.7400;-69.2600;-6.4800
1395.7300;-75.4600;-69.2000;-6.2600
1395.9290;-74.4800;-69.1200;-5.3600
1396.1280;-74.5200;-69.2000;-5.3200
1396.3270;-74.1900;-69.3200;-4.8700
1396.5270;-74.1700;-69.6400;-4.5300
1396.7260;-73.7100;-69.8000;-3.9100
1396.9250;-73.4800;-69.8000;-3.6800
1397.1240;-72.9700;-69.5500;-3.4200
1397.3230;-73.0800;-69.5200;-3.5600
1397.5220;-72.7000;-69.5200;-3.1800
1397.7210;-72.8800;-69.4600;-3.4200
1397.9200;-72.7700;-69.5900;-3.1800
1398.1200;-72.8800;-69.8000;-3.0800
1398.3190;-72.9500;-69.7200;-3.2300
1398.5180;-73.1400;-69.6900;-3.4500
1398.7170;-73.1100;-69.8400;-3.2700
1398.9160;-73.4100;-69.8300;-3.5800
1399.1150;-73.3400;-70.0800;-3.2600
1399.3140;-73.9200;-70.1700;-3.7500
1399.5130;-73.7200;-70.4300;-3.2900
1399.7120;-74.1300;-70.6800;-3.4500
1399.9120;-74.6200;-70.7500;-3.8700
1400.1110;-74.9000;-70.9500;-3.9500
1400.3100;-74.8500;-70.7100;-4.1400
1400.5090;-75.2400;-70.7700;-4.4700
1400.7080;-75.4600;-71.2500;-4.2100
1400.9070;-75.4500;-71.3400;-4.1100
1401.1060;-76.1500;-71.5100;-4.6400
1401.3050;-75.5000;-71.5600;-3.9400
1401.5040;-75.6800;-71.4400;-4.2400
1401.7040;-75.4700;-71.3800;-4.0900
1401.9030;-75.9100;-71.6000;-4.3100
1402.1020;-75.2600;-71.3900;-3.8700
1402.3010;-75.7200;-71.3800;-4.3400
1402.5000;-75.4700;-71.5400;-3.9300
1402.6990;-75.0500;-71.5900;-3.4600
1402.8980;-75.8100;-71.7300;-4.0800
1403.0970;-75.9400;-71.8300;-4.1100
1403.2970;-75.0200;-72.0500;-2.9700
1403.4960;-75.4200;-72.1600;-3.2600
1403.6950;-75.7100;-71.8300;-3.8800
1403.8940;-75.3500;-72.1700;-3.1800
1404.0930;-75.2400;-72.3100;-2.9300
1404.2920;-75.2600;-72.4400;-2.8200
1404.4910;-75.5300;-72.7300;-2.8000
1404.6900;-75.7100;-72.8000;-2.9100
1404.8890;-75.4200;-73.0400;-2.3800
1405.0890;-75.6000;-73.2800;-2.3200
1405.2880;-75.9000;-73.5400;-2.3600
1405.4870;-75.9400;-73.3400;-2.6000
1405.6860;-75.9300;-73.0200;-2.9100
1405.8850;-75.9900;-72.9400;-3.0500
1406.0840;-75.6500;-73.1300;-2.5200
1406.2830;-75.9700;-73.4200;-2.5500
1406.4820;-76.1400;-73.2200;-2.9200
1406.6810;-76.7700;-73.2800;-3.4900
1406.8810;-75.9700;-73.3900;-2.5800
1407.0800;-76.9000;-73.5000;-3.4000
1407.2790;-76.9900;-74.4200;-2.5700
1407.4780;-76.6800;-74.1900;-2.4900
1407.6770;-77.6700;-73.8000;-3.8700
1407.8760;-78.3100;-74.1500;-4.1600
1408.0750;-77.9200;-73.8700;-4.0500
1408.2740;-78.3900;-73.8700;-4.5200
1408.4740;-78.8900;-73.5900;-5.3000
1408.6730;-78.2100;-73.7600;-4.4500
1408.8720;-78.6000;-74.0100;-4.5900
1409.0710;-78.7100;-74.0400;-4.6700
1409.2700;-77.7100;-74.3000;-3.4100
1409.4690;-79.6900;-74.6900;-5.0000
1409.6680;-80.9500;-74.3600;-6.5900
1409.8670;-81.0500;-74.7000;-6.3500
1410.0660;-80.2200;-75.2200;-5.0000
1410.2660;-80.0600;-74.3600;-5.7000
1410.4650;-79.1900;-74.3000;-4.8900
1410.6640;-80.7200;-75.0900;-5.6300
1410.8630;-79.5200;-74.9700;-4.5500
1411.0620;-79.1000;-75.3600;-3.7400
1411.2610;-78.9800;-74.8700;-4.1100
1411.4600;-79.6900;-74.9200;-4.7700
1411.6590;-78.5200;-74.7200;-3.8000
1411.8580;-79.3800;-74.5600;-4.8200
1412.0580;-78.6600;-74.8000;-3.8600
1412.2570;-78.4400;-74.8800;-3.5600
1412.4560;-79.0100;-75.2000;-3.8100
1412.6550;-79.1600;-75.2200;-3.9400
1412.8540;-78.8900;-75.4200;-3.4700
1413.0530;-79.3200;-75.0100;-4.3100
1413.2520;-79.1900;-75.2500;-3.9400
1413.4510;-78.9500;-74.8100;-4.1400
1413.6500;-79.3900;-74.6700;-4.7200
1413.8500;-79.3300;-75.3900;-3.9400
1414.0490;-79.4600;-75.7400;-3.7200
1414.2480;-79.5300;-75.8600;-3.6700
1414.4470;-79.9500;-75.4100;-4.5400
1414.6460;-79.1400;-75.5500;-3.5900
1414.8450;-79.2000;-75.7400;-3.4600
1415.0440;-79.8800;-75.0100;-4.8700
1415.2430;-79.4300;-75.4700;-3.9600
1415.4430;-79.3300;-75.1100;-4.2200
1415.6420;-78.9600;-75.3100;-3.6500
1415.8410;-79.2300;-75.9200;-3.3100
1416.0400;-79.5300;-75.7100;-3.8200
1416.2390;-79.5300;-75.2100;-4.3200
1416.4380;-78.6700;-75.0800;-3.5900
1416.6370;-79.1700;-75.6200;-3.5500
1416.8360;-80.4700;-75.4400;-5.0300
1417.0350;-79.3900;-75.3400;-4.0500
1417.2350;-80.0700;-75.2200;-4.8500
1417.4340;-79.5300;-75.5500;-3.9800
1417.6330;-80.6900;-75.8600;-4.8300
1417.8320;-79.9200;-75.6900;-4.2300
1418.0310;-80.3100;-75.8300;-4.4800
1418.2300;-79.5300;-75.3100;-4.2200
1418.4290;-79.5300;-75.3200;-4.2100
1418.6280;-78.9000;-74.9900;-3.9100
1418.8270;-79.6000;-75.8900;-3.7100
1419.0270;-79.3600;-75.9600;-3.4000
1419.2260;-81.7900;-75.7700;-6.0200
1419.4250;-79.1700;-75.9900;-3.1800
1419.6240;-79.1100;-75.6000;-3.5100
1419.8230;-79.1100;-75.8100;-3.3000
1420.0220;-78.7500;-76.3000;-2.4500
1420.2210;-80.1100;-76.2100;-3.9000
1420.4200;-79.4600;-76.4300;-3.0300
1420.6200;-79.0200;-75.8600;-3.1600
1420.8190;-79.3900;-75.0600;-4.3300
1421.0180;-78.7800;-75.2000;-3.5800
1421.2170;-79.4600;-75.3600;-4.1000
1421.4160;-79.7000;-75.7700;-3.9300
1421.6150;-80.1200;-75.5600;-4.5600
1421.8140;-79.2100;-75.6300;-3.5800
1422.0130;-77.9100;-75.9900;-1.9200
1422.2120;-78.6800;-75.6400;-3.0400
1422.4120;-79.4700;-75.2800;-4.1900
1422.6110;-78.9100;-75.6700;-3.2400
1422.8100;-79.1800;-76.0000;-3.1800
1423.0090;-79.2100;-75.8200;-3.3900
1423.2080;-79.6800;-75.3300;-4.3500
1423.4070;-77.7800;-75.3500;-2.4300
1423.6060;-79.2400;-75.2900;-3.9500
1423.8050;-79.7100;-75.9900;-3.7200
1424.0040;-79.5400;-75.4200;-4.1200
1424.2040;-79.0900;-75.3200;-3.7700
1424.4030;-78.9700;-75.6100;-3.3600
1424.6020;-78.3000;-75.4400;-2.8600
1424.8010;-79.4700;-75.1900;-4.2800
1425.0000;-78.5700;-75.3300;-3.2400
