Wavelength (nm);Intensity (dBm)
1131.0;1131.0
1200.0;-62.15
1200.199;-62.11
1200.398;-62.04
1200.597;-62.0
1200.797;-61.96
1200.996;-61.92
1201.195;-61.88
1201.394;-61.75
1201.593;-61.7
1201.792;-61.68
1201.991;-61.63
1202.19;-61.53
1202.389;-61.46
1202.589;-61.45
1202.788;-61.38
1202.987;-61.33
1203.186;-61.27
1203.385;-61.18
1203.584;-61.16
1203.783;-61.14
1203.982;-61.07
1204.181;-61.03
1204.381;-61.03
1204.58;-61.07
1204.779;-61.02
1204.978;-60.99
1205.177;-61.03
1205.376;-61.06
1205.575;-61.13
1205.774;-61.1
1205.974;-61.1
1206.173;-61.19
1206.372;-61.22
1206.571;-61.22
1206.77;-61.22
1206.969;-61.24
1207.168;-61.26
1207.367;-61.18
1207.566;-61.15
1207.766;-61.1
1207.965;-61.07
1208.164;-61.02
1208.363;-60.91
1208.562;-60.81
1208.761;-60.77
1208.96;-60.68
1209.159;-60.56
1209.358;-60.45
1209.558;-60.4
1209.757;-60.31
1209.956;-60.21
1210.155;-60.15
1210.354;-60.08
1210.553;-60.04
1210.752;-59.99
1210.951;-59.9
1211.15;-59.88
1211.35;-59.86
1211.549;-59.85
1211.748;-59.83
1211.947;-59.83
1212.146;-59.87
1212.345;-59.87
1212.544;-59.89
1212.743;-59.89
1212.943;-59.94
1213.142;-60.01
1213.341;-60.01
1213.54;-60.02
1213.739;-60.03
1213.938;-60.05
1214.137;-60.0
1214.336;-59.95
1214.535;-59.91
1214.735;-59.89
1214.934;-59.78
1215.133;-59.69
1215.332;-59.59
1215.531;-59.53
1215.73;-59.41
1215.929;-59.27
1216.128;-59.16
1216.327;-59.05
1216.527;-58.97
1216.726;-58.83
1216.925;-58.7
1217.124;-58.64
1217.323;-58.57
1217.522;-58.49
1217.721;-58.39
1217.92;-58.37
1218.12;-58.36
1218.319;-58.3
1218.518;-58.28
1218.717;-58.32
1218.916;-58.36
1219.115;-58.41
1219.314;-58.43
1219.513;-58.51
1219.712;-58.59
1219.912;-58.63
1220.111;-58.7
1220.31;-58.72
1220.509;-58.81
1220.708;-58.81
1220.907;-58.78
1221.106;-58.77
1221.305;-58.75
1221.504;-58.67
1221.704;-58.56
1221.903;-58.45
1222.102;-58.33
1222.301;-58.18
1222.5;-58.01
1222.699;-57.84
1222.898;-57.69
1223.097;-57.53
1223.297;-57.33
1223.496;-57.16
1223.695;-57.03
1223.894;-56.88
1224.093;-56.73
1224.292;-56.6
1224.491;-56.5
1224.69;-56.42
1224.889;-56.32
1225.089;-56.28
1225.288;-56.23
1225.487;-56.23
1225.686;-56.22
1225.885;-56.23
1226.084;-56.28
1226.283;-56.32
1226.482;-56.35
1226.681;-56.42
1226.881;-56.49
1227.08;-56.55
1227.279;-56.57
1227.478;-56.58
1227.677;-56.59
1227.876;-56.57
1228.075;-56.52
1228.274;-56.45
1228.474;-56.35
1228.673;-56.25
1228.872;-56.11
1229.071;-55.95
1229.27;-55.82
1229.469;-55.61
1229.668;-55.47
1229.867;-55.32
1230.066;-55.2
1230.266;-55.06
1230.465;-54.91
1230.664;-54.83
1230.863;-54.75
1231.062;-54.7
1231.261;-54.65
1231.46;-54.66
1231.659;-54.69
1231.858;-54.71
1232.058;-54.77
1232.257;-54.85
1232.456;-54.97
1232.655;-55.06
1232.854;-55.17
1233.053;-55.31
1233.252;-55.41
1233.451;-55.5
1233.65;-55.57
1233.85;-55.61
1234.049;-55.64
1234.248;-55.57
1234.447;-55.49
1234.646;-55.37
1234.845;-55.22
1235.044;-55.02
1235.243;-54.8
1235.443;-54.58
1235.642;-54.34
1235.841;-54.08
1236.04;-53.86
1236.239;-53.63
1236.438;-53.42
1236.637;-53.21
1236.836;-53.03
1237.035;-52.88
1237.235;-52.73
1237.434;-52.62
1237.633;-52.53
1237.832;-52.47
1238.031;-52.42
1238.23;-52.4
1238.429;-52.4
1238.628;-52.41
1238.827;-52.43
1239.027;-52.46
1239.226;-52.49
1239.425;-52.54
1239.624;-52.55
1239.823;-52.56
1240.022;-52.56
1240.221;-52.52
1240.42;-52.47
1240.62;-52.39
1240.819;-52.28
1241.018;-52.14
1241.217;-51.98
1241.416;-51.85
1241.615;-51.66
1241.814;-51.49
1242.013;-51.33
1242.212;-51.18
1242.412;-51.05
1242.611;-50.9
1242.81;-50.81
1243.009;-50.72
1243.208;-50.66
1243.407;-50.62
1243.606;-50.59
1243.805;-50.58
1244.004;-50.57
1244.204;-50.57
1244.403;-50.6
1244.602;-50.57
1244.801;-50.55
1245.0;-50.49
1245.199;-50.41
1245.398;-50.28
1245.597;-50.08
1245.797;-49.87
1245.996;-49.6
1246.195;-49.29
1246.394;-48.97
1246.593;-48.61
1246.792;-48.26
1246.991;-47.88
1247.19;-47.53
1247.389;-47.2
1247.589;-46.85
1247.788;-46.56
1247.987;-46.28
1248.186;-46.03
1248.385;-45.78
1248.584;-45.63
1248.783;-45.49
1248.982;-45.36
1249.181;-45.29
1249.381;-45.23
1249.58;-45.19
1249.779;-45.19
1249.978;-45.17
1250.177;-45.19
1250.376;-45.19
1250.575;-45.17
1250.774;-45.15
1250.974;-45.08
1251.173;-44.96
1251.372;-44.77
1251.571;-44.54
1251.77;-44.26
1251.969;-43.9
1252.168;-43.54
1252.367;-43.12
1252.566;-42.71
1252.766;-42.29
1252.965;-41.89
1253.164;-41.5
1253.363;-41.12
1253.562;-40.8
1253.761;-40.5
1253.96;-40.24
1254.159;-40.05
1254.358;-39.88
1254.558;-39.78
1254.757;-39.73
1254.956;-39.74
1255.155;-39.83
1255.354;-39.97
1255.553;-40.2
1255.752;-40.51
1255.951;-40.89
1256.15;-41.39
1256.35;-41.95
1256.549;-42.62
1256.748;-43.34
1256.947;-44.1
1257.146;-44.84
1257.345;-45.39
1257.544;-45.62
1257.743;-45.37
1257.943;-44.66
1258.142;-43.68
1258.341;-42.53
1258.54;-41.39
1258.739;-40.25
1258.938;-39.2
1259.137;-38.27
1259.336;-37.39
1259.535;-36.61
1259.735;-35.78
1259.934;-35.28
1260.133;-34.74
1260.332;-34.25
1260.531;-33.86
1260.73;-33.51
1260.929;-33.24
1261.128;-33.02
1261.327;-32.88
1261.527;-32.83
1261.726;-32.82
1261.925;-32.9
1262.124;-33.05
1262.323;-33.28
1262.522;-33.61
1262.721;-34.01
1262.92;-34.54
1263.12;-35.16
1263.319;-35.92
1263.518;-36.85
1263.717;-37.92
1263.916;-39.47
1264.115;-40.59
1264.314;-41.93
1264.513;-42.8
1264.712;-42.65
1264.912;-41.48
1265.111;-39.82
1265.31;-38.13
1265.509;-36.56
1265.708;-34.97
1265.907;-33.95
1266.106;-32.9
1266.305;-31.98
1266.504;-31.18
1266.704;-30.48
1266.903;-29.87
1267.102;-29.35
1267.301;-28.92
1267.5;-28.56
1267.699;-28.29
1267.898;-28.07
1268.097;-27.93
1268.297;-27.85
1268.496;-27.83
1268.695;-27.88
1268.894;-27.97
1269.093;-28.14
1269.292;-28.35
1269.491;-28.62
1269.69;-28.95
1269.889;-29.29
1270.089;-29.67
1270.288;-30.05
1270.487;-30.42
1270.686;-30.73
1270.885;-30.92
1271.084;-30.97
1271.283;-30.85
1271.482;-30.55
1271.681;-30.12
1271.881;-29.57
1272.08;-28.97
1272.279;-28.35
1272.478;-27.74
1272.677;-27.17
1272.876;-26.63
1273.075;-26.15
1273.274;-25.64
1273.474;-25.36
1273.673;-25.04
1273.872;-24.79
1274.071;-24.6
1274.27;-24.46
1274.469;-24.4
1274.668;-24.38
1274.867;-24.45
1275.066;-24.57
1275.266;-24.76
1275.465;-25.04
1275.664;-25.39
1275.863;-25.85
1276.062;-26.4
1276.261;-27.08
1276.46;-27.92
1276.659;-29.1
1276.858;-30.1
1277.058;-31.5
1277.257;-33.14
1277.456;-34.86
1277.655;-36.25
1277.854;-36.44
1278.053;-35.19
1278.252;-33.33
1278.451;-31.44
1278.65;-29.77
1278.85;-28.31
1279.049;-27.07
1279.248;-25.85
1279.447;-25.09
1279.646;-24.32
1279.845;-23.63
1280.044;-23.05
1280.243;-22.55
1280.443;-22.13
1280.642;-21.8
1280.841;-21.52
1281.04;-21.32
1281.239;-21.18
1281.438;-21.1
1281.637;-21.09
1281.836;-21.13
1282.035;-21.25
1282.235;-21.41
1282.434;-21.64
1282.633;-21.95
1282.832;-22.3
1283.031;-22.71
1283.23;-23.16
1283.429;-23.65
1283.628;-24.17
1283.827;-24.63
1284.027;-25.05
1284.226;-25.32
1284.425;-25.42
1284.624;-25.31
1284.823;-24.99
1285.022;-24.53
1285.221;-23.92
1285.42;-23.29
1285.62;-22.64
1285.819;-22.0
1286.018;-21.42
1286.217;-20.87
1286.416;-20.38
1286.615;-19.96
1286.814;-19.58
1287.013;-19.28
1287.212;-19.02
1287.412;-18.83
1287.611;-18.71
1287.81;-18.64
1288.009;-18.64
1288.208;-18.69
1288.407;-18.82
1288.606;-19.0
1288.805;-19.25
1289.004;-19.58
1289.204;-19.95
1289.403;-20.4
1289.602;-20.91
1289.801;-21.47
1290.0;-22.07
1290.199;-22.67
1290.398;-23.26
1290.597;-23.76
1290.797;-24.08
1290.996;-24.16
1291.195;-23.98
1291.394;-23.58
1291.593;-22.98
1291.792;-22.31
1291.991;-21.61
1292.19;-20.91
1292.389;-20.28
1292.589;-19.66
1292.788;-19.12
1292.987;-18.65
1293.186;-18.25
1293.385;-17.92
1293.584;-17.63
1293.783;-17.44
1293.982;-17.3
1294.181;-17.22
1294.381;-17.22
1294.58;-17.27
1294.779;-17.41
1294.978;-17.6
1295.177;-17.87
1295.376;-18.23
1295.575;-18.66
1295.774;-19.2
1295.974;-19.82
1296.173;-20.58
1296.372;-21.48
1296.571;-22.53
1296.77;-23.79
1296.969;-25.26
1297.168;-27.02
1297.367;-29.46
1297.566;-30.92
1297.766;-31.75
1297.965;-30.83
1298.164;-28.93
1298.363;-26.94
1298.562;-24.94
1298.761;-23.74
1298.96;-22.53
1299.159;-21.49
1299.358;-20.62
1299.558;-19.87
1299.757;-19.26
1299.956;-18.76
1300.155;-18.33
1300.354;-18.01
1300.553;-17.75
1300.752;-17.58
1300.951;-17.49
1301.15;-17.47
1301.35;-17.53
1301.549;-17.65
1301.748;-17.84
1301.947;-18.12
1302.146;-18.47
1302.345;-18.92
1302.544;-19.45
1302.743;-20.08
1302.943;-20.83
1303.142;-21.7
1303.341;-22.74
1303.54;-23.92
1303.739;-25.29
1303.938;-26.82
1304.137;-28.8
1304.336;-29.83
1304.535;-30.35
1304.735;-29.73
1304.934;-28.36
1305.133;-26.82
1305.332;-25.14
1305.531;-24.12
1305.73;-23.03
1305.929;-22.1
1306.128;-21.33
1306.327;-20.66
1306.527;-20.12
1306.726;-19.66
1306.925;-19.29
1307.124;-19.01
1307.323;-18.79
1307.522;-18.66
1307.721;-18.56
1307.92;-18.54
1308.12;-18.58
1308.319;-18.66
1308.518;-18.81
1308.717;-18.97
1308.916;-19.17
1309.115;-19.41
1309.314;-19.66
1309.513;-19.93
1309.712;-20.16
1309.912;-20.39
1310.111;-20.58
1310.31;-20.7
1310.509;-20.79
1310.708;-20.78
1310.907;-20.72
1311.106;-20.6
1311.305;-20.44
1311.504;-20.26
1311.704;-20.04
1311.903;-19.84
1312.102;-19.63
1312.301;-19.46
1312.5;-19.31
1312.699;-19.19
1312.898;-19.13
1313.097;-19.09
1313.297;-19.12
1313.496;-19.2
1313.695;-19.33
1313.894;-19.53
1314.093;-19.78
1314.292;-20.11
1314.491;-20.49
1314.69;-20.96
1314.889;-21.51
1315.089;-22.14
1315.288;-22.87
1315.487;-23.68
1315.686;-24.58
1315.885;-25.53
1316.084;-26.52
1316.283;-27.46
1316.482;-28.18
1316.681;-28.59
1316.881;-28.42
1317.08;-27.9
1317.279;-27.07
1317.478;-26.02
1317.677;-25.24
1317.876;-24.39
1318.075;-23.6
1318.274;-22.91
1318.474;-22.32
1318.673;-21.81
1318.872;-21.39
1319.071;-21.02
1319.27;-20.73
1319.469;-20.52
1319.668;-20.36
1319.867;-20.27
1320.066;-20.21
1320.266;-20.23
1320.465;-20.3
1320.664;-20.42
1320.863;-20.59
1321.062;-20.79
1321.261;-21.06
1321.46;-21.35
1321.659;-21.68
1321.858;-22.05
1322.058;-22.43
1322.257;-22.84
1322.456;-23.24
1322.655;-23.63
1322.854;-23.99
1323.053;-24.29
1323.252;-24.55
1323.451;-24.71
1323.65;-24.8
1323.85;-24.81
1324.049;-24.74
1324.248;-24.64
1324.447;-24.48
1324.646;-24.32
1324.845;-24.14
1325.044;-23.97
1325.243;-23.84
1325.443;-23.72
1325.642;-23.66
1325.841;-23.61
1326.04;-23.62
1326.239;-23.66
1326.438;-23.74
1326.637;-23.88
1326.836;-24.05
1327.035;-24.27
1327.235;-24.53
1327.434;-24.84
1327.633;-25.19
1327.832;-25.57
1328.031;-26.0
1328.23;-26.43
1328.429;-26.89
1328.628;-27.35
1328.827;-27.79
1329.027;-28.22
1329.226;-28.64
1329.425;-28.88
1329.624;-29.07
1329.823;-29.19
1330.022;-29.2
1330.221;-29.14
1330.42;-29.04
1330.62;-28.87
1330.819;-28.69
1331.018;-28.5
1331.217;-28.32
1331.416;-28.17
1331.615;-28.04
1331.814;-27.97
1332.013;-27.92
1332.212;-27.92
1332.412;-27.98
1332.611;-28.09
1332.81;-28.27
1333.009;-28.48
1333.208;-28.76
1333.407;-29.1
1333.606;-29.51
1333.805;-30.0
1334.004;-30.54
1334.204;-31.19
1334.403;-31.9
1334.602;-32.71
1334.801;-33.64
1335.0;-34.67
1335.199;-35.82
1335.398;-37.06
1335.597;-38.37
1335.797;-39.92
1335.996;-40.73
1336.195;-41.26
1336.394;-41.16
1336.593;-40.5
1336.792;-39.55
1336.991;-38.57
1337.19;-37.62
1337.389;-36.79
1337.589;-35.94
1337.788;-35.46
1337.987;-34.95
1338.186;-34.55
1338.385;-34.24
1338.584;-34.0
1338.783;-33.85
1338.982;-33.76
1339.181;-33.76
1339.381;-33.81
1339.58;-33.93
1339.779;-34.13
1339.978;-34.38
1340.177;-34.71
1340.376;-35.09
1340.575;-35.54
1340.774;-36.05
1340.974;-36.61
1341.173;-37.26
1341.372;-37.95
1341.571;-38.89
1341.77;-39.55
1341.969;-40.4
1342.168;-41.25
1342.367;-42.06
1342.566;-42.78
1342.766;-43.31
1342.965;-43.61
1343.164;-43.64
1343.363;-43.46
1343.562;-43.11
1343.761;-42.68
1343.96;-42.26
1344.159;-41.82
1344.358;-41.44
1344.558;-41.12
1344.757;-40.84
1344.956;-40.64
1345.155;-40.49
1345.354;-40.42
1345.553;-40.4
1345.752;-40.46
1345.951;-40.6
1346.15;-40.77
1346.35;-41.03
1346.549;-41.35
1346.748;-41.73
1346.947;-42.17
1347.146;-42.67
1347.345;-43.24
1347.544;-43.91
1347.743;-44.66
1347.943;-45.47
1348.142;-46.31
1348.341;-47.19
1348.54;-48.02
1348.739;-49.03
1348.938;-49.56
1349.137;-50.07
1349.336;-50.31
1349.535;-50.29
1349.735;-50.04
1349.934;-49.63
1350.133;-49.17
1350.332;-48.74
1350.531;-48.25
1350.73;-47.79
1350.929;-47.35
1351.128;-46.97
1351.327;-46.69
1351.527;-46.5
1351.726;-46.45
1351.925;-46.39
1352.124;-46.4
1352.323;-46.47
1352.522;-46.64
1352.721;-46.82
1352.92;-47.07
1353.12;-47.5
1353.319;-47.83
1353.518;-48.31
1353.717;-48.88
1353.916;-49.44
1354.115;-50.14
1354.314;-51.0
1354.513;-51.93
1354.712;-53.05
1354.912;-54.29
1355.111;-55.57
1355.31;-56.89
1355.509;-58.0
1355.708;-59.33
1355.907;-59.72
1356.106;-59.59
1356.305;-58.87
1356.504;-57.89
1356.704;-56.76
1356.903;-55.68
1357.102;-55.29
1357.301;-54.6
1357.5;-53.95
1357.699;-53.46
1357.898;-52.95
1358.097;-52.55
1358.297;-52.33
1358.496;-52.25
1358.695;-52.14
1358.894;-52.11
1359.093;-52.17
1359.292;-52.17
1359.491;-52.56
1359.69;-52.95
1359.889;-53.33
1360.089;-53.67
1360.288;-54.0
1360.487;-54.36
1360.686;-54.97
1360.885;-55.83
1361.084;-56.76
1361.283;-57.72
1361.482;-59.11
1361.681;-59.86
1361.881;-60.98
1362.08;-62.17
1362.279;-63.48
1362.478;-64.2
1362.677;-64.42
1362.876;-63.89
1363.075;-63.0
1363.274;-61.92
1363.474;-61.08
1363.673;-60.26
1363.872;-59.57
1364.071;-59.04
1364.27;-58.59
1364.469;-58.35
1364.668;-58.43
1364.867;-58.22
1365.066;-57.84
1365.266;-57.77
1365.465;-57.57
1365.664;-57.55
1365.863;-57.57
1366.062;-57.62
1366.261;-57.7
1366.46;-57.94
1366.659;-58.34
1366.858;-58.86
1367.058;-59.41
1367.257;-59.97
1367.456;-60.73
1367.655;-61.48
1367.854;-62.44
1368.053;-63.44
1368.252;-64.3
1368.451;-65.5
1368.65;-66.58
1368.85;-67.79
1369.049;-68.88
1369.248;-69.43
1369.447;-69.52
1369.646;-69.56
1369.845;-69.09
1370.044;-68.61
1370.243;-67.66
1370.443;-66.85
1370.642;-66.09
1370.841;-65.76
1371.04;-65.38
1371.239;-64.96
1371.438;-64.4
1371.637;-63.99
1371.836;-63.64
1372.035;-63.59
1372.235;-63.61
1372.434;-63.51
1372.633;-63.5
1372.832;-63.49
1373.031;-63.5
1373.23;-63.73
1373.429;-63.92
1373.628;-64.17
1373.827;-64.43
1374.027;-64.67
1374.226;-64.97
1374.425;-65.27
1374.624;-65.67
1374.823;-66.08
1375.022;-66.49
1375.221;-66.8
1375.42;-67.08
1375.62;-67.34
1375.819;-67.59
1376.018;-67.89
1376.217;-68.1
1376.416;-68.33
1376.615;-68.41
1376.814;-68.57
1377.013;-68.99
1377.212;-69.27
1377.412;-69.34
1377.611;-69.53
1377.81;-69.55
1378.009;-69.7
1378.208;-69.94
1378.407;-70.23
1378.606;-70.59
1378.805;-71.26
1379.004;-71.4
1379.204;-71.95
1379.403;-71.86
1379.602;-72.21
1379.801;-72.76
1380.0;-73.32
1380.199;-73.19
1380.398;-73.96
1380.597;-74.43
1380.797;-75.01
1380.996;-75.07
1381.195;-74.91
1381.394;-74.11
1381.593;-73.46
1381.792;-73.05
1381.991;-72.69
1382.19;-72.26
1382.389;-72.24
1382.589;-72.85
1382.788;-72.8
1382.987;-72.4
1383.186;-71.79
1383.385;-71.26
1383.584;-71.29
1383.783;-71.16
1383.982;-71.31
1384.181;-71.4
1384.381;-71.38
1384.58;-71.33
1384.779;-71.23
1384.978;-71.77
1385.177;-72.15
1385.376;-72.31
1385.575;-72.81
1385.774;-73.12
1385.974;-73.39
1386.173;-73.92
1386.372;-74.27
1386.571;-74.97
1386.77;-75.39
1386.969;-76.13
1387.168;-76.85
1387.367;-77.38
1387.566;-77.53
1387.766;-79.04
1387.965;-80.03
1388.164;-79.32
1388.363;-82.23
1388.562;-78.25
1388.761;-78.13
1388.96;-77.21
1389.159;-78.01
1389.358;-78.36
1389.558;-76.9
1389.757;-76.94
1389.956;-76.48
1390.155;-75.58
1390.354;-75.8
1390.553;-75.59
1390.752;-75.28
1390.951;-75.3
1391.15;-75.18
1391.35;-75.02
1391.549;-74.73
1391.748;-74.82
1391.947;-75.04
1392.146;-75.36
1392.345;-75.38
1392.544;-76.08
1392.743;-77.03
1392.943;-77.58
1393.142;-76.84
1393.341;-77.99
1393.54;-77.56
1393.739;-77.62
1393.938;-78.93
1394.137;-78.93
1394.336;-79.46
1394.535;-79.17
1394.735;-80.08
1394.934;-78.99
1395.133;-79.05
1395.332;-80.0
1395.531;-79.67
1395.73;-82.0
1395.929;-80.2
1396.128;-79.74
1396.327;-80.0
1396.527;-80.88
1396.726;-79.2
1396.925;-79.43
1397.124;-78.81
1397.323;-78.37
1397.522;-77.99
1397.721;-78.07
1397.92;-77.47
1398.12;-77.94
1398.319;-78.78
1398.518;-77.84
1398.717;-77.59
1398.916;-78.15
1399.115;-77.75
1399.314;-77.72
1399.513;-78.0
1399.712;-77.32
1399.912;-78.54
1400.111;-78.94
1400.31;-78.38
1400.509;-77.08
1400.708;-78.76
1400.907;-77.68
1401.106;-78.68
1401.305;-77.4
1401.504;-78.43
1401.704;-78.7
1401.903;-78.27
1402.102;-79.24
1402.301;-79.34
1402.5;-79.51
1402.699;-78.62
1402.898;-79.18
1403.097;-79.47
1403.297;-78.76
1403.496;-79.61
1403.695;-81.89
1403.894;-81.71
1404.093;-80.41
1404.292;-82.25
1404.491;-79.93
1404.69;-80.29
1404.889;-81.55
1405.089;-80.89
1405.288;-80.01
1405.487;-83.1
1405.686;-82.52
1405.885;-82.73
1406.084;-81.29
1406.283;-81.95
1406.482;-82.8
1406.681;-79.52
1406.881;-81.05
1407.08;-83.19
1407.279;-81.35
1407.478;-82.39
1407.677;-80.26
1407.876;-83.6
1408.075;-80.59
1408.274;-80.59
1408.474;-79.45
1408.673;-81.0
1408.872;-81.05
1409.071;-82.02
1409.27;-82.46
1409.469;-79.73
1409.668;-80.3
1409.867;-79.98
1410.066;-79.94
1410.266;-80.95
1410.465;-81.9
1410.664;-80.22
1410.863;-81.05
1411.062;-80.68
1411.261;-80.95
1411.46;-83.35
1411.659;-80.14
1411.858;-80.68
1412.058;-79.52
1412.257;-79.38
1412.456;-80.18
1412.655;-79.32
1412.854;-80.68
1413.053;-81.3
1413.252;-80.5
1413.451;-79.69
1413.65;-81.06
1413.85;-80.35
1414.049;-80.91
1414.248;-80.96
1414.447;-79.74
1414.646;-79.95
1414.845;-79.7
1415.044;-80.91
1415.243;-79.99
1415.443;-80.51
1415.642;-79.36
1415.841;-80.69
1416.04;-80.78
1416.239;-79.88
1416.438;-82.54
1416.637;-78.78
1416.836;-80.19
1417.035;-80.96
1417.235;-79.02
1417.434;-80.39
1417.633;-80.51
1417.832;-80.11
1418.031;-79.99
1418.23;-80.78
1418.429;-81.73
1418.628;-82.89
1418.827;-80.03
1419.027;-79.7
1419.226;-80.03
1419.425;-80.69
1419.624;-81.06
1419.823;-79.77
1420.022;-81.15
1420.221;-79.53
1420.42;-80.51
1420.62;-79.74
1420.819;-79.92
1421.018;-81.11
1421.217;-79.53
1421.416;-80.96
1421.615;-80.74
1421.814;-78.97
1422.013;-79.71
1422.212;-79.5
1422.412;-78.28
1422.611;-79.47
1422.81;-79.47
1423.009;-79.34
1423.208;-79.96
1423.407;-80.79
1423.606;-79.18
1423.805;-79.82
1424.004;-79.47
1424.204;-80.28
1424.403;-80.12
1424.602;-80.4
1424.801;-81.02
1425.0;-79.93
