Wavelength (nm);Intensity (dBm)
1131.0;1131.0
1200.0;-62.17
1200.199;-62.18
1200.398;-62.09
1200.597;-62.02
1200.797;-61.95
1200.996;-61.93
1201.195;-61.92
1201.394;-61.83
1201.593;-61.79
1201.792;-61.76
1201.991;-61.76
1202.19;-61.69
1202.389;-61.64
1202.589;-61.64
1202.788;-61.65
1202.987;-61.6
1203.186;-61.59
1203.385;-61.51
1203.584;-61.52
1203.783;-61.56
1203.982;-61.5
1204.181;-61.44
1204.381;-61.44
1204.58;-61.45
1204.779;-61.4
1204.978;-61.36
1205.177;-61.32
1205.376;-61.32
1205.575;-61.3
1205.774;-61.24
1205.974;-61.16
1206.173;-61.18
1206.372;-61.14
1206.571;-61.06
1206.77;-61.03
1206.969;-60.98
1207.168;-60.93
1207.367;-60.84
1207.566;-60.76
1207.766;-60.69
1207.965;-60.61
1208.164;-60.57
1208.363;-60.49
1208.562;-60.43
1208.761;-60.42
1208.96;-60.36
1209.159;-60.29
1209.358;-60.27
1209.558;-60.28
1209.757;-60.29
1209.956;-60.26
1210.155;-60.24
1210.354;-60.25
1210.553;-60.27
1210.752;-60.31
1210.951;-60.28
1211.15;-60.29
1211.35;-60.32
1211.549;-60.33
1211.748;-60.33
1211.947;-60.32
1212.146;-60.32
1212.345;-60.32
1212.544;-60.29
1212.743;-60.25
1212.943;-60.25
1213.142;-60.22
1213.341;-60.13
1213.54;-60.05
1213.739;-60.03
1213.938;-59.96
1214.137;-59.84
1214.336;-59.72
1214.535;-59.65
1214.735;-59.58
1214.934;-59.49
1215.133;-59.39
1215.332;-59.32
1215.531;-59.29
1215.73;-59.24
1215.929;-59.16
1216.128;-59.12
1216.327;-59.1
1216.527;-59.1
1216.726;-59.07
1216.925;-59.03
1217.124;-59.04
1217.323;-59.05
1217.522;-59.04
1217.721;-59.03
1217.92;-59.02
1218.12;-59.05
1218.319;-59.04
1218.518;-59.0
1218.717;-59.04
1218.916;-59.02
1219.115;-59.0
1219.314;-58.96
1219.513;-58.93
1219.712;-58.92
1219.912;-58.87
1220.111;-58.78
1220.31;-58.69
1220.509;-58.62
1220.708;-58.52
1220.907;-58.38
1221.106;-58.26
1221.305;-58.16
1221.504;-58.04
1221.704;-57.93
1221.903;-57.81
1222.102;-57.75
1222.301;-57.68
1222.5;-57.59
1222.699;-57.55
1222.898;-57.53
1223.097;-57.51
1223.297;-57.49
1223.496;-57.46
1223.695;-57.5
1223.894;-57.51
1224.093;-57.5
1224.292;-57.49
1224.491;-57.5
1224.69;-57.5
1224.889;-57.45
1225.089;-57.42
1225.288;-57.38
1225.487;-57.31
1225.686;-57.24
1225.885;-57.14
1226.084;-57.05
1226.283;-56.95
1226.482;-56.8
1226.681;-56.68
1226.881;-56.52
1227.08;-56.37
1227.279;-56.2
1227.478;-56.03
1227.677;-55.9
1227.876;-55.69
1228.075;-55.56
1228.274;-55.43
1228.474;-55.32
1228.673;-55.23
1228.872;-55.14
1229.071;-55.07
1229.27;-55.06
1229.469;-55.03
1229.668;-55.04
1229.867;-55.06
1230.066;-55.11
1230.266;-55.17
1230.465;-55.21
1230.664;-55.31
1230.863;-55.4
1231.062;-55.48
1231.261;-55.56
1231.46;-55.63
1231.659;-55.7
1231.858;-55.7
1232.058;-55.7
1232.257;-55.68
1232.456;-55.65
1232.655;-55.55
1232.854;-55.41
1233.053;-55.28
1233.252;-55.12
1233.451;-54.91
1233.65;-54.73
1233.85;-54.51
1234.049;-54.31
1234.248;-54.09
1234.447;-53.88
1234.646;-53.73
1234.845;-53.56
1235.044;-53.42
1235.243;-53.3
1235.443;-53.22
1235.642;-53.16
1235.841;-53.11
1236.04;-53.11
1236.239;-53.11
1236.438;-53.12
1236.637;-53.17
1236.836;-53.21
1237.035;-53.29
1237.235;-53.33
1237.434;-53.37
1237.633;-53.44
1237.832;-53.48
1238.031;-53.5
1238.23;-53.5
1238.429;-53.48
1238.628;-53.46
1238.827;-53.39
1239.027;-53.32
1239.226;-53.21
1239.425;-53.1
1239.624;-52.98
1239.823;-52.83
1240.022;-52.7
1240.221;-52.53
1240.42;-52.37
1240.62;-52.23
1240.819;-52.08
1241.018;-51.94
1241.217;-51.8
1241.416;-51.69
1241.615;-51.59
1241.814;-51.49
1242.013;-51.43
1242.212;-51.35
1242.412;-51.3
1242.611;-51.22
1242.81;-51.16
1243.009;-51.08
1243.208;-50.96
1243.407;-50.83
1243.606;-50.67
1243.805;-50.48
1244.004;-50.26
1244.204;-50.0
1244.403;-49.74
1244.602;-49.47
1244.801;-49.18
1245.0;-48.91
1245.199;-48.64
1245.398;-48.38
1245.597;-48.13
1245.797;-47.91
1245.996;-47.72
1246.195;-47.53
1246.394;-47.39
1246.593;-47.26
1246.792;-47.16
1246.991;-47.08
1247.19;-47.02
1247.389;-47.0
1247.589;-46.97
1247.788;-46.97
1247.987;-46.99
1248.186;-46.99
1248.385;-47.0
1248.584;-46.98
1248.783;-46.95
1248.982;-46.89
1249.181;-46.75
1249.381;-46.59
1249.58;-46.36
1249.779;-46.07
1249.978;-45.68
1250.177;-45.37
1250.376;-45.0
1250.575;-44.57
1250.774;-44.18
1250.974;-43.78
1251.173;-43.39
1251.372;-43.03
1251.571;-42.71
1251.77;-42.41
1251.969;-42.12
1252.168;-41.88
1252.367;-41.69
1252.566;-41.52
1252.766;-41.4
1252.965;-41.3
1253.164;-41.24
1253.363;-41.23
1253.562;-41.25
1253.761;-41.33
1253.96;-41.42
1254.159;-41.55
1254.358;-41.71
1254.558;-41.88
1254.757;-42.05
1254.956;-42.18
1255.155;-42.28
1255.354;-42.29
1255.553;-42.2
1255.752;-42.0
1255.951;-41.67
1256.15;-41.25
1256.35;-40.75
1256.549;-40.21
1256.748;-39.66
1256.947;-39.1
1257.146;-38.57
1257.345;-38.05
1257.544;-37.59
1257.743;-37.17
1257.943;-36.77
1258.142;-36.44
1258.341;-36.14
1258.54;-35.86
1258.739;-35.7
1258.938;-35.55
1259.137;-35.47
1259.336;-35.42
1259.535;-35.44
1259.735;-35.51
1259.934;-35.64
1260.133;-35.87
1260.332;-36.15
1260.531;-36.53
1260.73;-36.99
1260.929;-37.54
1261.128;-38.33
1261.327;-38.95
1261.527;-39.77
1261.726;-40.57
1261.925;-41.26
1262.124;-41.62
1262.323;-41.5
1262.522;-40.89
1262.721;-39.91
1262.92;-38.78
1263.12;-37.61
1263.319;-36.49
1263.518;-35.29
1263.717;-34.53
1263.916;-33.7
1264.115;-32.95
1264.314;-32.29
1264.513;-31.71
1264.712;-31.19
1264.912;-30.75
1265.111;-30.37
1265.31;-30.07
1265.509;-29.83
1265.708;-29.65
1265.907;-29.54
1266.106;-29.48
1266.305;-29.51
1266.504;-29.6
1266.704;-29.77
1266.903;-30.02
1267.102;-30.35
1267.301;-30.79
1267.5;-31.33
1267.699;-31.99
1267.898;-32.78
1268.097;-33.72
1268.297;-34.83
1268.496;-36.12
1268.695;-37.57
1268.894;-39.38
1269.093;-40.3
1269.292;-40.6
1269.491;-39.79
1269.69;-38.33
1269.889;-36.69
1270.089;-34.95
1270.288;-33.82
1270.487;-32.66
1270.686;-31.63
1270.885;-30.73
1271.084;-29.98
1271.283;-29.32
1271.482;-28.77
1271.681;-28.32
1271.881;-27.95
1272.08;-27.69
1272.279;-27.48
1272.478;-27.37
1272.677;-27.33
1272.876;-27.37
1273.075;-27.5
1273.274;-27.68
1273.474;-27.96
1273.673;-28.3
1273.872;-28.7
1274.071;-29.18
1274.27;-29.67
1274.469;-30.19
1274.668;-30.65
1274.867;-31.03
1275.066;-31.25
1275.266;-31.23
1275.465;-30.97
1275.664;-30.48
1275.863;-29.84
1276.062;-29.1
1276.261;-28.32
1276.46;-27.56
1276.659;-26.8
1276.858;-26.0
1277.058;-25.47
1277.257;-24.91
1277.456;-24.4
1277.655;-23.95
1277.854;-23.58
1278.053;-23.25
1278.252;-23.0
1278.451;-22.8
1278.65;-22.66
1278.85;-22.59
1279.049;-22.57
1279.248;-22.63
1279.447;-22.73
1279.646;-22.9
1279.845;-23.15
1280.044;-23.45
1280.243;-23.82
1280.443;-24.24
1280.642;-24.72
1280.841;-25.27
1281.04;-25.83
1281.239;-26.42
1281.438;-26.94
1281.637;-27.38
1281.836;-27.64
1282.035;-27.65
1282.235;-27.42
1282.434;-26.93
1282.633;-26.29
1282.832;-25.54
1283.031;-24.76
1283.23;-24.02
1283.429;-23.29
1283.628;-22.63
1283.827;-22.03
1284.027;-21.49
1284.226;-21.04
1284.425;-20.63
1284.624;-20.31
1284.823;-20.04
1285.022;-19.84
1285.221;-19.71
1285.42;-19.63
1285.62;-19.64
1285.819;-19.69
1286.018;-19.82
1286.217;-20.04
1286.416;-20.31
1286.615;-20.69
1286.814;-21.13
1287.013;-21.68
1287.212;-22.33
1287.412;-23.09
1287.611;-23.98
1287.81;-24.96
1288.009;-26.06
1288.208;-27.18
1288.407;-28.17
1288.606;-28.89
1288.805;-28.76
1289.004;-28.08
1289.204;-26.97
1289.403;-25.55
1289.602;-24.53
1289.801;-23.45
1290.0;-22.45
1290.199;-21.59
1290.398;-20.84
1290.597;-20.19
1290.797;-19.64
1290.996;-19.15
1291.195;-18.76
1291.394;-18.47
1291.593;-18.23
1291.792;-18.09
1291.991;-18.0
1292.19;-18.0
1292.389;-18.06
1292.589;-18.19
1292.788;-18.42
1292.987;-18.71
1293.186;-19.11
1293.385;-19.6
1293.584;-20.18
1293.783;-20.9
1293.982;-21.74
1294.181;-22.74
1294.381;-23.92
1294.58;-25.31
1294.779;-26.93
1294.978;-29.08
1295.177;-30.28
1295.376;-30.82
1295.575;-29.97
1295.774;-28.29
1295.974;-26.47
1296.173;-24.59
1296.372;-23.43
1296.571;-22.22
1296.77;-21.18
1296.969;-20.32
1297.168;-19.56
1297.367;-18.93
1297.566;-18.37
1297.766;-17.92
1297.965;-17.56
1298.164;-17.25
1298.363;-17.04
1298.562;-16.86
1298.761;-16.76
1298.96;-16.73
1299.159;-16.74
1299.358;-16.83
1299.558;-16.94
1299.757;-17.12
1299.956;-17.37
1300.155;-17.65
1300.354;-18.0
1300.553;-18.36
1300.752;-18.77
1300.951;-19.21
1301.15;-19.67
1301.35;-20.12
1301.549;-20.53
1301.748;-20.88
1301.947;-21.13
1302.146;-21.27
1302.345;-21.29
1302.544;-21.18
1302.743;-20.97
1302.943;-20.67
1303.142;-20.33
1303.341;-19.98
1303.54;-19.62
1303.739;-19.29
1303.938;-18.97
1304.137;-18.72
1304.336;-18.51
1304.535;-18.35
1304.735;-18.25
1304.934;-18.19
1305.133;-18.23
1305.332;-18.31
1305.531;-18.47
1305.73;-18.7
1305.929;-19.0
1306.128;-19.4
1306.327;-19.86
1306.527;-20.44
1306.726;-21.12
1306.925;-21.91
1307.124;-22.86
1307.323;-23.94
1307.522;-25.18
1307.721;-26.59
1307.92;-28.05
1308.12;-29.67
1308.319;-30.13
1308.518;-29.87
1308.717;-28.74
1308.916;-27.3
1309.115;-25.61
1309.314;-24.56
1309.513;-23.43
1309.712;-22.44
1309.912;-21.6
1310.111;-20.87
1310.31;-20.27
1310.509;-19.75
1310.708;-19.31
1310.907;-18.97
1311.106;-18.69
1311.305;-18.48
1311.504;-18.34
1311.704;-18.24
1311.903;-18.21
1312.102;-18.22
1312.301;-18.3
1312.5;-18.41
1312.699;-18.56
1312.898;-18.73
1313.097;-18.94
1313.297;-19.17
1313.496;-19.4
1313.695;-19.64
1313.894;-19.86
1314.093;-20.05
1314.292;-20.22
1314.491;-20.32
1314.69;-20.38
1314.889;-20.37
1315.089;-20.3
1315.288;-20.2
1315.487;-20.06
1315.686;-19.91
1315.885;-19.72
1316.084;-19.54
1316.283;-19.37
1316.482;-19.22
1316.681;-19.1
1316.881;-18.99
1317.08;-18.95
1317.279;-18.91
1317.478;-18.93
1317.677;-18.99
1317.876;-19.09
1318.075;-19.24
1318.274;-19.43
1318.474;-19.67
1318.673;-19.98
1318.872;-20.32
1319.071;-20.73
1319.27;-21.17
1319.469;-21.67
1319.668;-22.23
1319.867;-22.81
1320.066;-23.44
1320.266;-24.07
1320.465;-24.7
1320.664;-25.28
1320.863;-25.77
1321.062;-26.13
1321.261;-26.31
1321.46;-26.34
1321.659;-26.17
1321.858;-25.89
1322.058;-25.53
1322.257;-25.13
1322.456;-24.74
1322.655;-24.35
1322.854;-24.02
1323.053;-23.72
1323.252;-23.48
1323.451;-23.31
1323.65;-23.17
1323.85;-23.12
1324.049;-23.11
1324.248;-23.18
1324.447;-23.31
1324.646;-23.5
1324.845;-23.77
1325.044;-24.09
1325.243;-24.51
1325.443;-25.0
1325.642;-25.58
1325.841;-26.25
1326.04;-27.02
1326.239;-27.92
1326.438;-29.15
1326.637;-30.14
1326.836;-31.5
1327.035;-33.11
1327.235;-35.0
1327.434;-37.12
1327.633;-39.78
1327.832;-40.68
1328.031;-40.27
1328.23;-38.63
1328.429;-36.81
1328.628;-34.94
1328.827;-33.89
1329.027;-32.83
1329.226;-31.96
1329.425;-31.28
1329.624;-30.74
1329.823;-30.34
1330.022;-30.03
1330.221;-29.85
1330.42;-29.76
1330.62;-29.76
1330.819;-29.86
1331.018;-30.04
1331.217;-30.31
1331.416;-30.68
1331.615;-31.13
1331.814;-31.69
1332.013;-32.34
1332.212;-33.13
1332.412;-34.01
1332.611;-35.02
1332.81;-36.15
1333.009;-37.34
1333.208;-38.77
1333.407;-39.52
1333.606;-40.05
1333.805;-39.92
1334.004;-39.24
1334.204;-38.25
1334.403;-37.19
1334.602;-36.0
1334.801;-35.27
1335.0;-34.48
1335.199;-33.81
1335.398;-33.24
1335.597;-32.75
1335.797;-32.38
1335.996;-32.09
1336.195;-31.87
1336.394;-31.73
1336.593;-31.65
1336.792;-31.65
1336.991;-31.7
1337.19;-31.83
1337.389;-32.03
1337.589;-32.29
1337.788;-32.63
1337.987;-33.02
1338.186;-33.5
1338.385;-34.06
1338.584;-34.7
1338.783;-35.44
1338.982;-36.27
1339.181;-37.24
1339.381;-38.34
1339.58;-39.89
1339.779;-41.08
1339.978;-42.77
1340.177;-44.72
1340.376;-46.87
1340.575;-49.31
1340.774;-49.84
1340.974;-49.1
1341.173;-47.47
1341.372;-45.53
1341.571;-44.34
1341.77;-43.15
1341.969;-42.17
1342.168;-41.37
1342.367;-40.75
1342.566;-40.26
1342.766;-39.91
1342.965;-39.65
1343.164;-39.5
1343.363;-39.45
1343.562;-39.47
1343.761;-39.6
1343.96;-39.79
1344.159;-40.08
1344.358;-40.45
1344.558;-40.9
1344.757;-41.46
1344.956;-42.09
1345.155;-42.84
1345.354;-43.7
1345.553;-44.7
1345.752;-45.86
1345.951;-47.21
1346.15;-49.16
1346.35;-50.63
1346.549;-52.64
1346.748;-54.56
1346.947;-55.68
1347.146;-55.25
1347.345;-53.74
1347.544;-52.14
1347.743;-50.66
1347.943;-49.38
1348.142;-48.28
1348.341;-47.41
1348.54;-46.68
1348.739;-46.0
1348.938;-45.64
1349.137;-45.28
1349.336;-45.01
1349.535;-44.82
1349.735;-44.72
1349.934;-44.71
1350.133;-44.79
1350.332;-44.99
1350.531;-45.22
1350.73;-45.49
1350.929;-45.81
1351.128;-46.17
1351.327;-46.64
1351.527;-47.2
1351.726;-47.89
1351.925;-48.78
1352.124;-49.47
1352.323;-50.33
1352.522;-51.32
1352.721;-52.31
1352.92;-53.32
1353.12;-54.34
1353.319;-54.98
1353.518;-55.37
1353.717;-55.36
1353.916;-54.92
1354.115;-54.32
1354.314;-53.68
1354.513;-53.03
1354.712;-52.52
1354.912;-52.04
1355.111;-51.51
1355.31;-51.0
1355.509;-50.49
1355.708;-50.34
1355.907;-50.27
1356.106;-50.1
1356.305;-49.95
1356.504;-49.9
1356.704;-49.74
1356.903;-49.87
1357.102;-50.26
1357.301;-50.61
1357.5;-50.98
1357.699;-51.41
1357.898;-51.82
1358.097;-52.28
1358.297;-52.97
1358.496;-53.79
1358.695;-54.66
1358.894;-55.7
1359.093;-56.9
1359.292;-58.09
1359.491;-60.12
1359.69;-61.54
1359.889;-63.5
1360.089;-65.15
1360.288;-65.8
1360.487;-64.96
1360.686;-63.63
1360.885;-62.35
1361.084;-61.04
1361.283;-59.71
1361.482;-58.64
1361.681;-57.98
1361.881;-57.28
1362.08;-56.76
1362.279;-56.59
1362.478;-56.26
1362.677;-56.05
1362.876;-55.62
1363.075;-55.34
1363.274;-54.99
1363.474;-54.99
1363.673;-55.09
1363.872;-55.32
1364.071;-55.67
1364.27;-56.1
1364.469;-56.67
1364.668;-57.53
1364.867;-58.29
1365.066;-59.07
1365.266;-59.84
1365.465;-60.44
1365.664;-61.45
1365.863;-62.68
1366.062;-63.95
1366.261;-65.24
1366.46;-66.73
1366.659;-68.04
1366.858;-69.09
1367.058;-69.01
1367.257;-68.1
1367.456;-67.14
1367.655;-65.97
1367.854;-64.95
1368.053;-63.88
1368.252;-62.87
1368.451;-62.52
1368.65;-61.92
1368.85;-61.36
1369.049;-60.83
1369.248;-60.42
1369.447;-60.05
1369.646;-59.91
1369.845;-60.08
1370.044;-60.16
1370.243;-60.25
1370.443;-60.34
1370.642;-60.45
1370.841;-60.88
1371.04;-61.41
1371.239;-61.92
1371.438;-62.33
1371.637;-62.76
1371.836;-63.22
1372.035;-63.97
1372.235;-64.88
1372.434;-65.84
1372.633;-66.88
1372.832;-67.77
1373.031;-68.87
1373.23;-70.01
1373.429;-70.84
1373.628;-71.95
1373.827;-72.2
1374.027;-72.08
1374.226;-71.35
1374.425;-70.72
1374.624;-69.78
1374.823;-69.08
1375.022;-68.5
1375.221;-67.82
1375.42;-67.25
1375.62;-66.69
1375.819;-66.24
1376.018;-66.01
1376.217;-65.79
1376.416;-65.55
1376.615;-65.41
1376.814;-65.35
1377.013;-65.44
1377.212;-65.54
1377.412;-65.54
1377.611;-65.62
1377.81;-65.63
1378.009;-65.74
1378.208;-66.02
1378.407;-66.35
1378.606;-66.72
1378.805;-67.12
1379.004;-67.58
1379.204;-67.9
1379.403;-68.12
1379.602;-68.44
1379.801;-68.64
1380.0;-68.99
1380.199;-69.45
1380.398;-70.3
1380.597;-70.81
1380.797;-71.75
1380.996;-72.17
1381.195;-72.33
1381.394;-72.42
1381.593;-72.49
1381.792;-72.75
1381.991;-73.03
1382.19;-73.53
1382.389;-73.99
1382.589;-74.93
1382.788;-75.58
1382.987;-76.27
1383.186;-76.8
1383.385;-76.82
1383.584;-77.25
1383.783;-77.47
1383.982;-78.51
1384.181;-79.25
1384.381;-78.85
1384.58;-78.86
1384.779;-78.25
1384.978;-80.23
1385.177;-79.13
1385.376;-79.49
1385.575;-77.32
1385.774;-76.74
1385.974;-75.97
1386.173;-76.1
1386.372;-75.36
1386.571;-75.07
1386.77;-74.48
1386.969;-74.0
1387.168;-73.52
1387.367;-73.24
1387.566;-73.12
1387.766;-73.13
1387.965;-72.8
1388.164;-73.1
1388.363;-73.16
1388.562;-72.61
1388.761;-72.41
1388.96;-72.25
1389.159;-72.43
1389.358;-72.29
1389.558;-72.23
1389.757;-72.57
1389.956;-73.07
1390.155;-73.16
1390.354;-73.09
1390.553;-73.08
1390.752;-73.6
1390.951;-73.69
1391.15;-74.14
1391.35;-74.03
1391.549;-75.04
1391.748;-74.81
1391.947;-75.52
1392.146;-75.23
1392.345;-75.71
1392.544;-76.26
1392.743;-76.66
1392.943;-77.18
1393.142;-77.15
1393.341;-75.96
1393.54;-75.6
1393.739;-75.74
1393.938;-75.31
1394.137;-75.77
1394.336;-75.2
1394.535;-75.12
1394.735;-75.1
1394.934;-75.4
1395.133;-75.96
1395.332;-76.01
1395.531;-75.46
1395.73;-76.08
1395.929;-75.41
1396.128;-75.68
1396.327;-75.36
1396.527;-75.73
1396.726;-76.22
1396.925;-76.49
1397.124;-76.49
1397.323;-76.49
1397.522;-76.88
1397.721;-76.57
1397.92;-76.8
1398.12;-76.68
1398.319;-76.44
1398.518;-76.74
1398.717;-77.68
1398.916;-78.59
1399.115;-78.65
1399.314;-77.88
1399.513;-78.85
1399.712;-78.82
1399.912;-78.54
1400.111;-78.15
1400.31;-78.0
1400.509;-79.09
1400.708;-79.44
1400.907;-79.9
1401.106;-78.65
1401.305;-78.33
1401.504;-78.85
1401.704;-78.85
1401.903;-79.44
1402.102;-79.86
1402.301;-80.13
1402.5;-78.91
1402.699;-78.76
1402.898;-78.65
1403.097;-79.31
1403.297;-78.17
1403.496;-78.97
1403.695;-78.43
1403.894;-79.09
1404.093;-79.37
1404.292;-79.28
1404.491;-78.48
1404.69;-78.94
1404.889;-79.34
1405.089;-81.29
1405.288;-79.51
1405.487;-79.31
1405.686;-79.9
1405.885;-79.18
1406.084;-81.77
1406.283;-80.58
1406.482;-80.33
1406.681;-79.1
1406.881;-80.06
1407.08;-79.52
1407.279;-81.24
1407.478;-81.14
1407.677;-81.5
1407.876;-78.69
1408.075;-81.3
1408.274;-79.98
1408.474;-80.5
1408.673;-79.29
1408.872;-80.1
1409.071;-81.19
1409.27;-79.83
1409.469;-82.2
1409.668;-80.95
1409.867;-80.42
1410.066;-82.2
1410.266;-80.26
1410.465;-79.16
1410.664;-80.26
1410.863;-80.86
1411.062;-80.68
1411.261;-79.52
1411.46;-80.42
1411.659;-81.56
1411.858;-79.62
1412.058;-81.5
1412.257;-80.55
1412.456;-80.77
1412.655;-79.83
1412.854;-80.5
1413.053;-79.66
1413.252;-80.42
1413.451;-80.77
1413.65;-80.39
1413.85;-80.27
1414.049;-80.27
1414.248;-80.35
1414.447;-80.39
1414.646;-81.01
1414.845;-80.51
1415.044;-82.03
1415.243;-80.69
1415.443;-82.03
1415.642;-83.61
1415.841;-81.73
1416.04;-82.03
1416.239;-83.2
1416.438;-81.91
1416.637;-81.79
1416.836;-81.01
1417.035;-82.15
1417.235;-81.36
1417.434;-79.81
1417.633;-79.53
1417.832;-79.46
1418.031;-80.03
1418.23;-78.99
1418.429;-80.69
1418.628;-81.57
1418.827;-80.23
1419.027;-80.07
1419.226;-81.91
1419.425;-80.31
1419.624;-79.92
1419.823;-81.25
1420.022;-80.35
1420.221;-79.49
1420.42;-81.41
1420.62;-79.92
1420.819;-80.73
1421.018;-79.08
1421.217;-80.35
1421.416;-80.6
1421.615;-80.48
1421.814;-80.12
1422.013;-80.52
1422.212;-79.54
1422.412;-79.54
1422.611;-78.94
1422.81;-82.9
1423.009;-79.93
1423.208;-79.34
1423.407;-79.82
1423.606;-80.97
1423.805;-79.0
1424.004;-80.7
1424.204;-80.88
1424.403;-79.18
1424.602;-80.44
1424.801;-79.89
1425.0;-79.44
