Wavelength (nm);Intensity (dBm)
1131.0;1131.0
1200.0;-62.17
1200.199;-62.16
1200.398;-62.12
1200.597;-62.04
1200.797;-61.99
1200.996;-61.94
1201.195;-61.86
1201.394;-61.76
1201.593;-61.67
1201.792;-61.66
1201.991;-61.61
1202.19;-61.51
1202.389;-61.47
1202.589;-61.39
1202.788;-61.35
1202.987;-61.32
1203.186;-61.25
1203.385;-61.17
1203.584;-61.17
1203.783;-61.17
1203.982;-61.1
1204.181;-61.04
1204.381;-61.06
1204.58;-61.08
1204.779;-61.05
1204.978;-61.02
1205.177;-61.07
1205.376;-61.13
1205.575;-61.13
1205.774;-61.13
1205.974;-61.14
1206.173;-61.2
1206.372;-61.23
1206.571;-61.19
1206.77;-61.18
1206.969;-61.22
1207.168;-61.2
1207.367;-61.13
1207.566;-61.08
1207.766;-61.01
1207.965;-60.98
1208.164;-60.89
1208.363;-60.77
1208.562;-60.69
1208.761;-60.63
1208.96;-60.54
1209.159;-60.42
1209.358;-60.34
1209.558;-60.28
1209.757;-60.19
1209.956;-60.13
1210.155;-60.05
1210.354;-60.0
1210.553;-59.97
1210.752;-59.95
1210.951;-59.9
1211.15;-59.85
1211.35;-59.89
1211.549;-59.91
1211.748;-59.87
1211.947;-59.89
1212.146;-59.94
1212.345;-59.98
1212.544;-59.99
1212.743;-60.01
1212.943;-60.07
1213.142;-60.11
1213.341;-60.11
1213.54;-60.09
1213.739;-60.11
1213.938;-60.13
1214.137;-60.06
1214.336;-59.98
1214.535;-59.93
1214.735;-59.87
1214.934;-59.8
1215.133;-59.67
1215.332;-59.57
1215.531;-59.49
1215.73;-59.35
1215.929;-59.24
1216.128;-59.1
1216.327;-59.02
1216.527;-58.94
1216.726;-58.8
1216.925;-58.72
1217.124;-58.63
1217.323;-58.6
1217.522;-58.52
1217.721;-58.43
1217.92;-58.4
1218.12;-58.39
1218.319;-58.38
1218.518;-58.37
1218.717;-58.41
1218.916;-58.46
1219.115;-58.51
1219.314;-58.54
1219.513;-58.62
1219.712;-58.72
1219.912;-58.78
1220.111;-58.81
1220.31;-58.86
1220.509;-58.91
1220.708;-58.91
1220.907;-58.89
1221.106;-58.84
1221.305;-58.8
1221.504;-58.71
1221.704;-58.6
1221.903;-58.49
1222.102;-58.37
1222.301;-58.25
1222.5;-58.07
1222.699;-57.92
1222.898;-57.79
1223.097;-57.64
1223.297;-57.47
1223.496;-57.3
1223.695;-57.18
1223.894;-57.06
1224.093;-56.91
1224.292;-56.79
1224.491;-56.68
1224.69;-56.58
1224.889;-56.49
1225.089;-56.41
1225.288;-56.36
1225.487;-56.32
1225.686;-56.27
1225.885;-56.25
1226.084;-56.24
1226.283;-56.26
1226.482;-56.22
1226.681;-56.21
1226.881;-56.23
1227.08;-56.2
1227.279;-56.16
1227.478;-56.11
1227.677;-56.06
1227.876;-56.02
1228.075;-55.91
1228.274;-55.83
1228.474;-55.7
1228.673;-55.65
1228.872;-55.53
1229.071;-55.41
1229.27;-55.36
1229.469;-55.27
1229.668;-55.19
1229.867;-55.12
1230.066;-55.09
1230.266;-55.05
1230.465;-55.01
1230.664;-55.02
1230.863;-55.04
1231.062;-55.06
1231.261;-55.11
1231.46;-55.17
1231.659;-55.26
1231.858;-55.33
1232.058;-55.42
1232.257;-55.52
1232.456;-55.62
1232.655;-55.7
1232.854;-55.75
1233.053;-55.83
1233.252;-55.85
1233.451;-55.81
1233.65;-55.78
1233.85;-55.68
1234.049;-55.56
1234.248;-55.4
1234.447;-55.18
1234.646;-55.0
1234.845;-54.77
1235.044;-54.53
1235.243;-54.31
1235.443;-54.09
1235.642;-53.89
1235.841;-53.67
1236.04;-53.49
1236.239;-53.33
1236.438;-53.18
1236.637;-53.06
1236.836;-52.94
1237.035;-52.86
1237.235;-52.79
1237.434;-52.73
1237.633;-52.71
1237.832;-52.69
1238.031;-52.68
1238.23;-52.68
1238.429;-52.69
1238.628;-52.72
1238.827;-52.72
1239.027;-52.75
1239.226;-52.76
1239.425;-52.75
1239.624;-52.75
1239.823;-52.7
1240.022;-52.66
1240.221;-52.58
1240.42;-52.47
1240.62;-52.38
1240.819;-52.24
1241.018;-52.09
1241.217;-51.93
1241.416;-51.78
1241.615;-51.64
1241.814;-51.48
1242.013;-51.36
1242.212;-51.25
1242.412;-51.15
1242.611;-51.07
1242.81;-50.99
1243.009;-50.94
1243.208;-50.89
1243.407;-50.83
1243.606;-50.78
1243.805;-50.72
1244.004;-50.63
1244.204;-50.53
1244.403;-50.41
1244.602;-50.28
1244.801;-50.09
1245.0;-49.89
1245.199;-49.67
1245.398;-49.43
1245.597;-49.17
1245.797;-48.9
1245.996;-48.63
1246.195;-48.35
1246.394;-48.08
1246.593;-47.82
1246.792;-47.57
1246.991;-47.33
1247.19;-47.11
1247.389;-46.93
1247.589;-46.76
1247.788;-46.61
1247.987;-46.5
1248.186;-46.42
1248.385;-46.36
1248.584;-46.34
1248.783;-46.35
1248.982;-46.39
1249.181;-46.43
1249.381;-46.5
1249.58;-46.56
1249.779;-46.59
1249.978;-46.6
1250.177;-46.55
1250.376;-46.45
1250.575;-46.27
1250.774;-46.01
1250.974;-45.64
1251.173;-45.29
1251.372;-44.86
1251.571;-44.38
1251.77;-43.87
1251.969;-43.35
1252.168;-42.84
1252.367;-42.36
1252.566;-41.88
1252.766;-41.43
1252.965;-41.02
1253.164;-40.64
1253.363;-40.31
1253.562;-40.01
1253.761;-39.77
1253.96;-39.57
1254.159;-39.41
1254.358;-39.32
1254.558;-39.28
1254.757;-39.29
1254.956;-39.35
1255.155;-39.48
1255.354;-39.67
1255.553;-39.91
1255.752;-40.22
1255.951;-40.56
1256.15;-40.96
1256.35;-41.38
1256.549;-41.82
1256.748;-42.22
1256.947;-42.55
1257.146;-42.77
1257.345;-42.83
1257.544;-42.69
1257.743;-42.36
1257.943;-41.84
1258.142;-41.21
1258.341;-40.51
1258.54;-39.77
1258.739;-39.03
1258.938;-38.3
1259.137;-37.64
1259.336;-37.0
1259.535;-36.43
1259.735;-35.83
1259.934;-35.45
1260.133;-35.07
1260.332;-34.72
1260.531;-34.45
1260.73;-34.24
1260.929;-34.09
1261.128;-34.01
1261.327;-33.98
1261.527;-34.03
1261.726;-34.13
1261.925;-34.3
1262.124;-34.54
1262.323;-34.82
1262.522;-35.18
1262.721;-35.57
1262.92;-36.0
1263.12;-36.47
1263.319;-36.89
1263.518;-37.29
1263.717;-37.56
1263.916;-37.65
1264.115;-37.54
1264.314;-37.19
1264.513;-36.68
1264.712;-36.0
1264.912;-35.24
1265.111;-34.48
1265.31;-33.7
1265.509;-32.98
1265.708;-32.3
1265.907;-31.67
1266.106;-31.12
1266.305;-30.62
1266.504;-30.21
1266.704;-29.84
1266.903;-29.55
1267.102;-29.33
1267.301;-29.16
1267.5;-29.09
1267.699;-29.06
1267.898;-29.1
1268.097;-29.24
1268.297;-29.43
1268.496;-29.72
1268.695;-30.07
1268.894;-30.51
1269.093;-31.06
1269.292;-31.71
1269.491;-32.5
1269.69;-33.4
1269.889;-34.46
1270.089;-35.66
1270.288;-36.92
1270.487;-38.13
1270.686;-38.96
1270.885;-38.7
1271.084;-37.65
1271.283;-36.19
1271.482;-34.42
1271.681;-33.22
1271.881;-31.96
1272.08;-30.84
1272.279;-29.88
1272.478;-29.02
1272.677;-28.29
1272.876;-27.66
1273.075;-27.12
1273.274;-26.67
1273.474;-26.27
1273.673;-25.92
1273.872;-25.71
1274.071;-25.53
1274.27;-25.39
1274.469;-25.3
1274.668;-25.28
1274.867;-25.29
1275.066;-25.37
1275.266;-25.49
1275.465;-25.65
1275.664;-25.87
1275.863;-26.12
1276.062;-26.41
1276.261;-26.72
1276.46;-27.04
1276.659;-27.36
1276.858;-27.64
1277.058;-27.89
1277.257;-28.03
1277.456;-28.06
1277.655;-27.99
1277.854;-27.78
1278.053;-27.48
1278.252;-27.08
1278.451;-26.65
1278.65;-26.19
1278.85;-25.71
1279.049;-25.26
1279.248;-24.81
1279.447;-24.4
1279.646;-24.01
1279.845;-23.66
1280.044;-23.37
1280.243;-23.08
1280.443;-22.85
1280.642;-22.64
1280.841;-22.46
1281.04;-22.33
1281.239;-22.21
1281.438;-22.14
1281.637;-22.07
1281.836;-22.04
1282.035;-22.03
1282.235;-22.01
1282.434;-22.02
1282.633;-22.02
1282.832;-22.02
1283.031;-22.0
1283.23;-21.96
1283.429;-21.91
1283.628;-21.82
1283.827;-21.71
1284.027;-21.57
1284.226;-21.4
1284.425;-21.23
1284.624;-21.03
1284.823;-20.83
1285.022;-20.63
1285.221;-20.43
1285.42;-20.26
1285.62;-20.07
1285.819;-19.92
1286.018;-19.79
1286.217;-19.68
1286.416;-19.61
1286.615;-19.57
1286.814;-19.56
1287.013;-19.57
1287.212;-19.61
1287.412;-19.71
1287.611;-19.81
1287.81;-19.97
1288.009;-20.13
1288.208;-20.32
1288.407;-20.54
1288.606;-20.74
1288.805;-20.96
1289.004;-21.13
1289.204;-21.28
1289.403;-21.39
1289.602;-21.42
1289.801;-21.4
1290.0;-21.28
1290.199;-21.1
1290.398;-20.85
1290.597;-20.56
1290.797;-20.24
1290.996;-19.87
1291.195;-19.52
1291.394;-19.17
1291.593;-18.82
1291.792;-18.53
1291.991;-18.24
1292.19;-18.02
1292.389;-17.81
1292.589;-17.64
1292.788;-17.53
1292.987;-17.46
1293.186;-17.46
1293.385;-17.48
1293.584;-17.55
1293.783;-17.69
1293.982;-17.88
1294.181;-18.14
1294.381;-18.44
1294.58;-18.82
1294.779;-19.26
1294.978;-19.77
1295.177;-20.37
1295.376;-21.02
1295.575;-21.76
1295.774;-22.55
1295.974;-23.38
1296.173;-24.21
1296.372;-24.94
1296.571;-25.47
1296.77;-25.65
1296.969;-25.46
1297.168;-24.92
1297.367;-24.16
1297.566;-23.31
1297.766;-22.43
1297.965;-21.61
1298.164;-20.83
1298.363;-20.12
1298.562;-19.49
1298.761;-18.93
1298.96;-18.45
1299.159;-18.02
1299.358;-17.67
1299.558;-17.36
1299.757;-17.11
1299.956;-16.94
1300.155;-16.79
1300.354;-16.71
1300.553;-16.66
1300.752;-16.66
1300.951;-16.73
1301.15;-16.82
1301.35;-16.97
1301.549;-17.16
1301.748;-17.38
1301.947;-17.65
1302.146;-17.95
1302.345;-18.31
1302.544;-18.69
1302.743;-19.11
1302.943;-19.56
1303.142;-20.04
1303.341;-20.54
1303.54;-21.06
1303.739;-21.59
1303.938;-22.09
1304.137;-22.59
1304.336;-23.06
1304.535;-23.49
1304.735;-23.87
1304.934;-24.17
1305.133;-24.44
1305.332;-24.65
1305.531;-24.82
1305.73;-24.97
1305.929;-25.07
1306.128;-25.17
1306.327;-25.22
1306.527;-25.27
1306.726;-25.3
1306.925;-25.28
1307.124;-25.23
1307.323;-25.1
1307.522;-24.92
1307.721;-24.67
1307.92;-24.34
1308.12;-23.97
1308.319;-23.52
1308.518;-23.04
1308.717;-22.51
1308.916;-21.98
1309.115;-21.47
1309.314;-20.95
1309.513;-20.47
1309.712;-20.0
1309.912;-19.56
1310.111;-19.17
1310.31;-18.81
1310.509;-18.51
1310.708;-18.22
1310.907;-17.99
1311.106;-17.81
1311.305;-17.66
1311.504;-17.59
1311.704;-17.53
1311.903;-17.54
1312.102;-17.58
1312.301;-17.68
1312.5;-17.84
1312.699;-18.03
1312.898;-18.3
1313.097;-18.6
1313.297;-18.97
1313.496;-19.4
1313.695;-19.88
1313.894;-20.43
1314.093;-21.03
1314.292;-21.69
1314.491;-22.38
1314.69;-23.09
1314.889;-23.77
1315.089;-24.38
1315.288;-24.86
1315.487;-25.13
1315.686;-25.16
1315.885;-24.92
1316.084;-24.52
1316.283;-23.98
1316.482;-23.4
1316.681;-22.81
1316.881;-22.23
1317.08;-21.72
1317.279;-21.24
1317.478;-20.83
1317.677;-20.48
1317.876;-20.18
1318.075;-19.96
1318.274;-19.77
1318.474;-19.66
1318.673;-19.61
1318.872;-19.6
1319.071;-19.67
1319.27;-19.77
1319.469;-19.94
1319.668;-20.16
1319.867;-20.43
1320.066;-20.76
1320.266;-21.14
1320.465;-21.59
1320.664;-22.07
1320.863;-22.61
1321.062;-23.18
1321.261;-23.78
1321.46;-24.41
1321.659;-25.0
1321.858;-25.56
1322.058;-26.01
1322.257;-26.34
1322.456;-26.51
1322.655;-26.5
1322.854;-26.35
1323.053;-26.07
1323.252;-25.73
1323.451;-25.34
1323.65;-24.95
1323.85;-24.59
1324.049;-24.25
1324.248;-23.98
1324.447;-23.73
1324.646;-23.56
1324.845;-23.42
1325.044;-23.36
1325.243;-23.36
1325.443;-23.4
1325.642;-23.53
1325.841;-23.69
1326.04;-23.93
1326.239;-24.23
1326.438;-24.59
1326.637;-25.03
1326.836;-25.53
1327.035;-26.12
1327.235;-26.79
1327.434;-27.55
1327.633;-28.43
1327.832;-29.6
1328.031;-30.51
1328.23;-31.75
1328.429;-33.15
1328.628;-34.65
1328.827;-36.19
1329.027;-37.51
1329.226;-38.23
1329.425;-38.11
1329.624;-37.28
1329.823;-36.18
1330.022;-35.04
1330.221;-34.01
1330.42;-33.12
1330.62;-32.36
1330.819;-31.75
1331.018;-31.23
1331.217;-30.84
1331.416;-30.53
1331.615;-30.31
1331.814;-30.19
1332.013;-30.12
1332.212;-30.14
1332.412;-30.21
1332.611;-30.35
1332.81;-30.54
1333.009;-30.78
1333.208;-31.07
1333.407;-31.38
1333.606;-31.74
1333.805;-32.09
1334.004;-32.46
1334.204;-32.83
1334.403;-33.15
1334.602;-33.44
1334.801;-33.66
1335.0;-33.81
1335.199;-33.88
1335.398;-33.87
1335.597;-33.82
1335.797;-33.71
1335.996;-33.58
1336.195;-33.41
1336.394;-33.24
1336.593;-33.1
1336.792;-32.95
1336.991;-32.87
1337.19;-32.79
1337.389;-32.77
1337.589;-32.78
1337.788;-32.84
1337.987;-32.96
1338.186;-33.1
1338.385;-33.31
1338.584;-33.56
1338.783;-33.86
1338.982;-34.23
1339.181;-34.64
1339.381;-35.12
1339.58;-35.64
1339.779;-36.22
1339.978;-36.85
1340.177;-37.53
1340.376;-38.25
1340.575;-39.13
1340.774;-39.71
1340.974;-40.36
1341.173;-40.95
1341.372;-41.37
1341.571;-41.63
1341.77;-41.69
1341.969;-41.57
1342.168;-41.34
1342.367;-41.0
1342.566;-40.64
1342.766;-40.27
1342.965;-39.93
1343.164;-39.65
1343.363;-39.39
1343.562;-39.2
1343.761;-39.06
1343.96;-38.99
1344.159;-38.98
1344.358;-39.03
1344.558;-39.15
1344.757;-39.31
1344.956;-39.53
1345.155;-39.83
1345.354;-40.18
1345.553;-40.62
1345.752;-41.11
1345.951;-41.71
1346.15;-42.37
1346.35;-43.14
1346.549;-44.03
1346.748;-45.01
1346.947;-46.15
1347.146;-47.43
1347.345;-49.26
1347.544;-50.66
1347.743;-52.61
1347.943;-54.72
1348.142;-56.51
1348.341;-57.12
1348.54;-56.14
1348.739;-54.56
1348.938;-52.94
1349.137;-51.54
1349.336;-50.38
1349.535;-49.42
1349.735;-48.65
1349.934;-48.04
1350.133;-47.59
1350.332;-47.3
1350.531;-47.05
1350.73;-46.89
1350.929;-46.76
1351.128;-46.71
1351.327;-46.78
1351.527;-46.95
1351.726;-47.25
1351.925;-47.58
1352.124;-48.0
1352.323;-48.49
1352.522;-49.11
1352.721;-49.79
1352.92;-50.58
1353.12;-51.61
1353.319;-52.6
1353.518;-53.85
1353.717;-55.32
1353.916;-56.84
1354.115;-58.97
1354.314;-60.32
1354.513;-61.39
1354.712;-61.44
1354.912;-60.43
1355.111;-58.87
1355.31;-57.3
1355.509;-55.61
1355.708;-54.98
1355.907;-54.22
1356.106;-53.37
1356.305;-52.62
1356.504;-52.02
1356.704;-51.42
1356.903;-51.11
1357.102;-51.1
1357.301;-51.0
1357.5;-50.92
1357.699;-50.92
1357.898;-50.89
1358.097;-50.92
1358.297;-51.15
1358.496;-51.48
1358.695;-51.81
1358.894;-52.23
1359.093;-52.74
1359.292;-53.19
1359.491;-54.01
1359.69;-54.93
1359.889;-55.91
1360.089;-56.93
1360.288;-57.99
1360.487;-59.37
1360.686;-60.64
1360.885;-62.49
1361.084;-64.38
1361.283;-65.94
1361.482;-66.46
1361.681;-65.92
1361.881;-64.45
1362.08;-62.99
1362.279;-61.97
1362.478;-60.95
1362.677;-59.82
1362.876;-58.69
1363.075;-57.82
1363.274;-57.0
1363.474;-56.54
1363.673;-56.13
1363.872;-55.96
1364.071;-55.89
1364.27;-55.89
1364.469;-56.06
1364.668;-56.53
1364.867;-56.78
1365.066;-56.86
1365.266;-57.22
1365.465;-57.38
1365.664;-57.79
1365.863;-58.26
1366.062;-58.85
1366.261;-59.37
1366.46;-60.14
1366.659;-61.1
1366.858;-62.27
1367.058;-63.55
1367.257;-64.9
1367.456;-66.47
1367.655;-67.91
1367.854;-69.4
1368.053;-70.03
1368.252;-69.52
1368.451;-69.2
1368.65;-67.93
1368.85;-66.6
1369.049;-65.34
1369.248;-64.29
1369.447;-63.39
1369.646;-62.74
1369.845;-62.47
1370.044;-62.06
1370.243;-61.72
1370.443;-61.38
1370.642;-61.1
1370.841;-61.24
1371.04;-61.36
1371.239;-61.46
1371.438;-61.49
1371.637;-61.51
1371.836;-61.61
1372.035;-62.0
1372.235;-62.51
1372.434;-62.93
1372.633;-63.47
1372.832;-64.02
1373.031;-64.65
1373.23;-65.49
1373.429;-66.41
1373.628;-67.46
1373.827;-68.51
1374.027;-69.79
1374.226;-71.14
1374.425;-72.1
1374.624;-73.42
1374.823;-73.53
1375.022;-73.76
1375.221;-72.97
1375.42;-72.2
1375.62;-71.06
1375.819;-70.25
1376.018;-69.41
1376.217;-68.54
1376.416;-68.03
1376.615;-67.47
1376.814;-67.07
1377.013;-66.91
1377.212;-66.78
1377.412;-66.54
1377.611;-66.35
1377.81;-66.17
1378.009;-66.18
1378.208;-66.17
1378.407;-66.35
1378.606;-66.6
1378.805;-67.06
1379.004;-67.36
1379.204;-67.61
1379.403;-68.03
1379.602;-68.17
1379.801;-68.69
1380.0;-69.18
1380.199;-69.82
1380.398;-70.7
1380.597;-71.82
1380.797;-72.75
1380.996;-73.76
1381.195;-75.61
1381.394;-75.26
1381.593;-75.53
1381.792;-76.33
1381.991;-76.73
1382.19;-77.72
1382.389;-78.97
1382.589;-78.54
1382.788;-78.4
1382.987;-78.51
1383.186;-78.91
1383.385;-77.43
1383.584;-77.31
1383.783;-76.89
1383.982;-76.78
1384.181;-76.33
1384.381;-75.42
1384.58;-75.44
1384.779;-74.48
1384.978;-74.72
1385.177;-75.04
1385.376;-74.56
1385.575;-74.8
1385.774;-74.28
1385.974;-74.27
1386.173;-74.15
1386.372;-74.41
1386.571;-74.39
1386.77;-74.04
1386.969;-74.1
1387.168;-74.16
1387.367;-73.92
1387.566;-73.47
1387.766;-73.6
1387.965;-73.62
1388.164;-73.82
1388.363;-73.92
1388.562;-73.79
1388.761;-73.68
1388.96;-73.43
1389.159;-73.37
1389.358;-73.68
1389.558;-73.42
1389.757;-73.54
1389.956;-73.73
1390.155;-74.08
1390.354;-73.9
1390.553;-74.7
1390.752;-74.67
1390.951;-75.0
1391.15;-74.67
1391.35;-75.76
1391.549;-76.01
1391.748;-76.08
1391.947;-76.1
1392.146;-77.03
1392.345;-78.99
1392.544;-78.07
1392.743;-79.17
1392.943;-78.99
1393.142;-78.75
1393.341;-78.53
1393.54;-78.61
1393.739;-78.11
1393.938;-78.72
1394.137;-78.96
1394.336;-78.53
1394.535;-78.45
1394.735;-78.09
1394.934;-77.71
1395.133;-77.74
1395.332;-77.07
1395.531;-78.11
1395.73;-77.39
1395.929;-76.49
1396.128;-76.32
1396.327;-76.47
1396.527;-76.49
1396.726;-76.49
1396.925;-76.42
1397.124;-76.7
1397.323;-76.27
1397.522;-75.96
1397.721;-76.27
1397.92;-76.16
1398.12;-76.49
1398.319;-76.29
1398.518;-76.11
1398.717;-76.46
1398.916;-76.78
1399.115;-76.67
1399.314;-77.12
1399.513;-76.33
1399.712;-76.96
1399.912;-78.0
1400.111;-77.86
1400.31;-77.68
1400.509;-77.86
1400.708;-79.0
1400.907;-78.48
1401.106;-78.2
1401.305;-78.43
1401.504;-77.7
1401.704;-78.22
1401.903;-78.33
1402.102;-79.09
1402.301;-77.48
1402.5;-77.68
1402.699;-77.57
1402.898;-78.68
1403.097;-78.1
1403.297;-78.82
1403.496;-77.84
1403.695;-78.91
1403.894;-78.48
1404.093;-78.43
1404.292;-78.05
1404.491;-78.4
1404.69;-81.13
1404.889;-81.04
1405.089;-81.77
1405.288;-79.68
1405.487;-80.05
1405.686;-79.61
1405.885;-78.62
1406.084;-79.18
1406.283;-79.31
1406.482;-80.09
1406.681;-79.38
1406.881;-80.02
1407.08;-81.0
1407.279;-81.1
1407.478;-82.39
1407.677;-81.84
1407.876;-80.77
1408.075;-82.2
1408.274;-80.3
1408.474;-80.38
1408.673;-80.34
1408.872;-81.45
1409.071;-80.18
1409.27;-81.96
1409.469;-80.77
1409.668;-82.14
1409.867;-82.14
1410.066;-80.77
1410.266;-81.78
1410.465;-81.56
1410.664;-81.45
1410.863;-81.72
1411.062;-80.14
1411.261;-80.63
1411.46;-80.34
1411.659;-81.56
1411.858;-81.24
1412.058;-81.96
1412.257;-79.8
1412.456;-80.86
1412.655;-81.1
1412.854;-81.9
1413.053;-79.87
1413.252;-80.42
1413.451;-80.9
1413.65;-79.74
1413.85;-81.91
1414.049;-80.47
1414.248;-80.6
1414.447;-80.91
1414.646;-80.43
1414.845;-80.56
1415.044;-81.06
1415.243;-81.15
1415.443;-80.6
1415.642;-80.31
1415.841;-80.6
1416.04;-80.19
1416.239;-79.53
1416.438;-80.69
1416.637;-80.31
1416.836;-79.92
1417.035;-81.31
1417.235;-80.91
1417.434;-81.15
1417.633;-80.31
1417.832;-81.62
1418.031;-80.43
1418.23;-81.79
1418.429;-79.67
1418.628;-81.36
1418.827;-79.81
1419.027;-80.78
1419.226;-79.36
1419.425;-80.31
1419.624;-79.74
1419.823;-79.81
1420.022;-79.33
1420.221;-80.51
1420.42;-79.63
1420.62;-80.11
1420.819;-81.51
1421.018;-79.95
1421.217;-80.78
1421.416;-79.46
1421.615;-79.37
1421.814;-79.54
1422.013;-79.27
1422.212;-79.12
1422.412;-80.24
1422.611;-80.4
1422.81;-79.75
1423.009;-78.91
1423.208;-80.44
1423.407;-80.57
1423.606;-79.24
1423.805;-79.89
1424.004;-79.47
1424.204;-80.04
1424.403;-81.12
1424.602;-79.21
1424.801;-78.88
1425.0;-79.71
