Wavelength;Intensity_Meas;Intensity_Ref;Difference_dB
1200.0000;-61.5700;-57.0400;-4.5300
1200.1990;-61.5200;-57.0100;-4.5100
1200.3980;-61.4800;-56.9700;-4.5100
1200.5970;-61.5100;-56.9600;-4.5500
1200.7970;-61.4500;-56.9200;-4.5300
1200.9960;-61.3900;-56.9000;-4.4900
1201.1950;-61.3400;-56.8600;-4.4800
1201.3940;-61.3300;-56.8000;-4.5300
1201.5930;-61.2800;-56.7800;-4.5000
1201.7920;-61.1600;-56.7400;-4.4200
1201.9910;-61.0900;-56.6800;-4.4100
1202.1900;-61.0800;-56.6500;-4.4300
1202.3890;-61.0000;-56.5600;-4.4400
1202.5890;-60.9600;-56.5200;-4.4400
1202.7880;-60.8900;-56.4800;-4.4100
1202.9870;-60.8400;-56.4300;-4.4100
1203.1860;-60.7800;-56.3600;-4.4200
1203.3850;-60.7000;-56.3000;-4.4000
1203.5840;-60.6700;-56.3000;-4.3700
1203.7830;-60.6100;-56.2500;-4.3600
1203.9820;-60.5900;-56.2000;-4.3900
1204.1810;-60.4900;-56.1500;-4.3400
1204.3810;-60.4200;-56.1100;-4.3100
1204.5800;-60.4000;-56.1100;-4.2900
1204.7790;-60.3600;-56.0600;-4.3000
1204.9780;-60.3000;-56.0100;-4.2900
1205.1770;-60.2400;-56.0000;-4.2400
1205.3760;-60.1700;-55.9800;-4.1900
1205.5750;-60.1600;-55.9600;-4.2000
1205.7740;-60.1200;-55.9300;-4.1900
1205.9740;-60.0700;-55.9100;-4.1600
1206.1730;-60.0000;-55.9200;-4.0800
1206.3720;-59.9900;-55.8800;-4.1100
1206.5710;-60.0000;-55.8700;-4.1300
1206.7700;-59.9600;-55.8300;-4.1300
1206.9690;-59.9100;-55.8100;-4.1000
1207.1680;-59.9300;-55.8300;-4.1000
1207.3670;-59.9200;-55.7800;-4.1400
1207.5660;-59.9100;-55.7300;-4.1800
1207.7660;-59.8700;-55.7100;-4.1600
1207.9650;-59.8600;-55.6900;-4.1700
1208.1640;-59.8800;-55.6500;-4.2300
1208.3630;-59.8500;-55.5800;-4.2700
1208.5620;-59.8200;-55.5500;-4.2700
1208.7610;-59.7700;-55.5300;-4.2400
1208.9600;-59.7600;-55.4700;-4.2900
1209.1590;-59.7400;-55.4200;-4.3200
1209.3580;-59.6700;-55.3500;-4.3200
1209.5580;-59.6000;-55.3200;-4.2800
1209.7570;-59.5700;-55.2900;-4.2800
1209.9560;-59.5100;-55.2200;-4.2900
1210.1550;-59.4700;-55.1700;-4.3000
1210.3540;-59.3700;-55.1200;-4.2500
1210.5530;-59.3000;-55.0900;-4.2100
1210.7520;-59.2700;-55.0300;-4.2400
1210.9510;-59.2000;-54.9700;-4.2300
1211.1500;-59.1200;-54.9500;-4.1700
1211.3500;-59.0400;-54.9100;-4.1300
1211.5490;-59.0200;-54.8600;-4.1600
1211.7480;-58.9600;-54.8200;-4.1400
1211.9470;-58.8800;-54.7900;-4.0900
1212.1460;-58.8500;-54.7700;-4.0800
1212.3450;-58.8000;-54.7300;-4.0700
1212.5440;-58.7900;-54.6800;-4.1100
1212.7430;-58.7400;-54.6700;-4.0700
1212.9430;-58.6800;-54.6400;-4.0400
1213.1420;-58.6900;-54.6200;-4.0700
1213.3410;-58.6800;-54.5800;-4.1000
1213.5400;-58.6400;-54.5600;-4.0800
1213.7390;-58.6200;-54.5500;-4.0700
1213.9380;-58.6100;-54.5200;-4.0900
1214.1370;-58.6300;-54.4700;-4.1600
1214.3360;-58.5900;-54.4200;-4.1700
1214.5350;-58.5500;-54.4100;-4.1400
1214.7350;-58.5500;-54.3900;-4.1600
1214.9340;-58.5400;-54.3300;-4.2100
1215.1330;-58.5100;-54.2800;-4.2300
1215.3320;-58.4400;-54.2400;-4.2000
1215.5310;-58.4100;-54.2100;-4.2000
1215.7300;-58.3800;-54.1500;-4.2300
1215.9290;-58.3400;-54.0900;-4.2500
1216.1280;-58.2600;-54.0500;-4.2100
1216.3270;-58.1900;-53.9900;-4.2000
1216.5270;-58.1800;-53.9400;-4.2400
1216.7260;-58.1100;-53.8800;-4.2300
1216.9250;-58.0100;-53.8200;-4.1900
1217.1240;-57.9500;-53.7900;-4.1600
1217.3230;-57.8800;-53.7100;-4.1700
1217.5220;-57.8400;-53.6500;-4.1900
1217.7210;-57.7200;-53.6100;-4.1100
1217.9200;-57.6200;-53.5600;-4.0600
1218.1200;-57.5700;-53.5200;-4.0500
1218.3190;-57.5100;-53.4500;-4.0600
1218.5180;-57.4300;-53.4300;-4.0000
1218.7170;-57.3400;-53.4000;-3.9400
1218.9160;-57.2800;-53.3500;-3.9300
1219.1150;-57.2400;-53.3100;-3.9300
1219.3140;-57.1600;-53.2700;-3.8900
1219.5130;-57.1000;-53.2500;-3.8500
1219.7120;-57.0400;-53.2200;-3.8200
1219.9120;-57.0200;-53.1700;-3.8500
1220.1110;-56.9900;-53.1600;-3.8300
1220.3100;-56.9300;-53.1200;-3.8100
1220.5090;-56.9100;-53.0900;-3.8200
1220.7080;-56.9100;-53.0400;-3.8700
1220.9070;-56.8900;-53.0000;-3.8900
1221.1060;-56.8700;-52.9700;-3.9000
1221.3050;-56.8600;-52.9200;-3.9400
1221.5040;-56.8900;-52.8600;-4.0300
1221.7040;-56.8900;-52.8100;-4.0800
1221.9030;-56.8700;-52.7700;-4.1000
1222.1020;-56.8800;-52.7100;-4.1700
1222.3010;-56.9100;-52.6400;-4.2700
1222.5000;-56.9100;-52.5700;-4.3400
1222.6990;-56.8900;-52.5100;-4.3800
1222.8980;-56.8900;-52.4500;-4.4400
1223.0970;-56.9100;-52.3900;-4.5200
1223.2970;-56.9000;-52.3000;-4.6000
1223.4960;-56.8700;-52.2300;-4.6400
1223.6950;-56.8700;-52.1700;-4.7000
1223.8940;-56.8700;-52.1000;-4.7700
1224.0930;-56.8600;-52.0400;-4.8200
1224.2920;-56.8300;-51.9700;-4.8600
1224.4910;-56.8000;-51.8900;-4.9100
1224.6900;-56.7900;-51.8400;-4.9500
1224.8890;-56.7600;-51.7600;-5.0000
1225.0890;-56.7400;-51.7200;-5.0200
1225.2880;-56.7000;-51.6500;-5.0500
1225.4870;-56.6800;-51.5800;-5.1000
1225.6860;-56.6600;-51.5300;-5.1300
1225.8850;-56.6200;-51.4900;-5.1300
1226.0840;-56.5700;-51.4400;-5.1300
1226.2830;-56.5400;-51.3800;-5.1600
1226.4820;-56.5000;-51.3200;-5.1800
1226.6810;-56.4300;-51.2900;-5.1400
1226.8810;-56.3600;-51.2400;-5.1200
1227.0800;-56.3200;-51.1900;-5.1300
1227.2790;-56.2400;-51.1300;-5.1100
1227.4780;-56.1400;-51.0800;-5.0600
1227.6770;-56.0400;-51.0300;-5.0100
1227.8760;-55.9500;-50.9700;-4.9800
1228.0750;-55.8600;-50.9200;-4.9400
1228.2740;-55.6900;-50.8600;-4.8300
1228.4740;-55.5800;-50.7900;-4.7900
1228.6730;-55.4600;-50.7300;-4.7300
1228.8720;-55.3200;-50.6700;-4.6500
1229.0710;-55.1600;-50.6100;-4.5500
1229.2700;-55.0000;-50.5200;-4.4800
1229.4690;-54.8800;-50.4400;-4.4400
1229.6680;-54.7300;-50.3800;-4.3500
1229.8670;-54.5700;-50.3000;-4.2700
1230.0660;-54.4500;-50.2300;-4.2200
1230.2660;-54.3300;-50.1400;-4.1900
1230.4650;-54.2300;-50.0500;-4.1800
1230.6640;-54.1100;-49.9900;-4.1200
1230.8630;-54.0500;-49.9200;-4.1300
1231.0620;-54.0100;-49.8500;-4.1600
1231.2610;-53.9700;-49.7800;-4.1900
1231.4600;-53.9600;-49.7200;-4.2400
1231.6590;-53.9600;-49.6600;-4.3000
1231.8580;-53.9900;-49.5900;-4.4000
1232.0580;-54.0200;-49.5400;-4.4800
1232.2570;-54.0400;-49.4700;-4.5700
1232.4560;-54.1300;-49.4200;-4.7100
1232.6550;-54.1900;-49.3600;-4.8300
1232.8540;-54.2600;-49.2900;-4.9700
1233.0530;-54.3300;-49.2600;-5.0700
1233.2520;-54.4000;-49.1900;-5.2100
1233.4510;-54.4700;-49.1300;-5.3400
1233.6500;-54.5100;-49.0800;-5.4300
1233.8500;-54.5300;-49.0100;-5.5200
1234.0490;-54.5600;-48.9700;-5.5900
1234.2480;-54.5600;-48.8900;-5.6700
1234.4470;-54.5100;-48.8300;-5.6800
1234.6460;-54.4400;-48.7700;-5.6700
1234.8450;-54.3800;-48.7000;-5.6800
1235.0440;-54.2600;-48.6300;-5.6300
1235.2430;-54.1100;-48.5500;-5.5600
1235.4430;-53.9500;-48.4800;-5.4700
1235.6420;-53.7900;-48.3900;-5.4000
1235.8410;-53.6000;-48.3000;-5.3000
1236.0400;-53.4000;-48.2300;-5.1700
1236.2390;-53.2000;-48.1300;-5.0700
1236.4380;-53.0300;-48.0600;-4.9700
1236.6370;-52.8400;-47.9700;-4.8700
1236.8360;-52.6500;-47.8700;-4.7800
1237.0350;-52.4900;-47.7900;-4.7000
1237.2350;-52.3600;-47.7000;-4.6600
1237.4340;-52.2200;-47.6200;-4.6000
1237.6330;-52.0900;-47.5300;-4.5600
1237.8320;-52.0200;-47.4600;-4.5600
1238.0310;-51.9300;-47.3700;-4.5600
1238.2300;-51.8600;-47.2900;-4.5700
1238.4290;-51.8000;-47.2200;-4.5800
1238.6280;-51.7700;-47.1400;-4.6300
1238.8270;-51.7400;-47.0600;-4.6800
1239.0270;-51.6900;-46.9800;-4.7100
1239.2260;-51.6600;-46.9000;-4.7600
1239.4250;-51.6400;-46.8300;-4.8100
1239.6240;-51.6000;-46.7400;-4.8600
1239.8230;-51.5400;-46.6600;-4.8800
1240.0220;-51.4800;-46.5700;-4.9100
1240.2210;-51.4200;-46.4800;-4.9400
1240.4200;-51.3200;-46.4000;-4.9200
1240.6200;-51.2100;-46.3000;-4.9100
1240.8190;-51.1000;-46.2000;-4.9000
1241.0180;-50.9600;-46.0800;-4.8800
1241.2170;-50.8100;-45.9700;-4.8400
1241.4160;-50.6500;-45.8400;-4.8100
1241.6150;-50.5000;-45.7400;-4.7600
1241.8140;-50.3500;-45.6300;-4.7200
1242.0130;-50.1800;-45.5000;-4.6800
1242.2120;-50.0300;-45.3900;-4.6400
1242.4120;-49.8900;-45.2600;-4.6300
1242.6110;-49.7400;-45.1300;-4.6100
1242.8100;-49.6200;-45.0100;-4.6100
1243.0090;-49.4900;-44.8600;-4.6300
1243.2080;-49.4000;-44.7500;-4.6500
1243.4070;-49.3100;-44.6100;-4.7000
1243.6060;-49.2100;-44.4700;-4.7400
1243.8050;-49.1700;-44.3600;-4.8100
1244.0040;-49.1000;-44.2200;-4.8800
1244.2040;-49.0600;-44.1000;-4.9600
1244.4030;-49.0300;-43.9700;-5.0600
1244.6020;-49.0100;-43.8300;-5.1800
1244.8010;-49.0100;-43.7200;-5.2900
1245.0000;-49.0000;-43.5900;-5.4100
1245.1990;-49.0100;-43.4700;-5.5400
1245.3980;-49.0300;-43.3300;-5.7000
1245.5970;-49.0200;-43.2000;-5.8200
1245.7970;-49.0400;-43.0700;-5.9700
1245.9960;-49.0300;-42.9300;-6.1000
1246.1950;-49.0300;-42.8000;-6.2300
1246.3940;-49.0100;-42.6500;-6.3600
1246.5930;-48.9600;-42.5000;-6.4600
1246.7920;-48.9300;-42.3700;-6.5600
1246.9910;-48.8400;-42.2000;-6.6400
1247.1900;-48.7400;-42.0600;-6.6800
1247.3890;-48.6300;-41.9100;-6.7200
1247.5890;-48.4800;-41.7400;-6.7400
1247.7880;-48.3200;-41.6000;-6.7200
1247.9870;-48.1300;-41.4300;-6.7000
1248.1860;-47.9400;-41.2800;-6.6600
1248.3850;-47.7400;-41.1100;-6.6300
1248.5840;-47.5100;-40.9400;-6.5700
1248.7830;-47.3100;-40.8000;-6.5100
1248.9820;-47.0900;-40.6400;-6.4500
1249.1810;-46.8800;-40.4900;-6.3900
1249.3810;-46.6700;-40.3300;-6.3400
1249.5800;-46.4600;-40.1700;-6.2900
1249.7790;-46.2900;-40.0300;-6.2600
1249.9780;-46.0800;-39.8600;-6.2200
1250.1770;-45.9100;-39.7200;-6.1900
1250.3760;-45.7100;-39.5700;-6.1400
1250.5750;-45.5700;-39.4100;-6.1600
1250.7740;-45.3800;-39.2700;-6.1100
1250.9740;-45.2200;-39.1200;-6.1000
1251.1730;-45.0400;-38.9800;-6.0600
1251.3720;-44.8400;-38.8100;-6.0300
1251.5710;-44.6600;-38.6600;-6.0000
1251.7700;-44.4400;-38.5100;-5.9300
1251.9690;-44.2000;-38.3400;-5.8600
1252.1680;-43.9600;-38.2000;-5.7600
1252.3670;-43.6800;-38.0200;-5.6600
1252.5660;-43.4300;-37.8700;-5.5600
1252.7660;-43.1200;-37.7000;-5.4200
1252.9650;-42.8300;-37.5400;-5.2900
1253.1640;-42.5300;-37.3800;-5.1500
1253.3630;-42.2100;-37.1900;-5.0200
1253.5620;-41.9100;-37.0300;-4.8800
1253.7610;-41.6000;-36.8600;-4.7400
1253.9600;-41.3100;-36.7000;-4.6100
1254.1590;-41.0200;-36.5500;-4.4700
1254.3580;-40.7400;-36.3700;-4.3700
1254.5580;-40.5000;-36.2200;-4.2800
1254.7570;-40.2500;-36.0500;-4.2000
1254.9560;-40.0200;-35.8700;-4.1500
1255.1550;-39.8200;-35.7500;-4.0700
1255.3540;-39.6200;-35.5900;-4.0300
1255.5530;-39.4600;-35.4700;-3.9900
1255.7520;-39.2900;-35.3100;-3.9800
1255.9510;-39.1400;-35.1600;-3.9800
1256.1500;-39.0000;-35.0200;-3.9800
1256.3500;-38.8600;-34.8700;-3.9900
1256.5490;-38.7500;-34.7500;-4.0000
1256.7480;-38.6000;-34.6000;-4.0000
1256.9470;-38.4700;-34.4600;-4.0100
1257.1460;-38.3300;-34.3100;-4.0200
1257.3450;-38.1700;-34.1600;-4.0100
1257.5440;-38.0400;-34.0300;-4.0100
1257.7430;-37.8600;-33.8700;-3.9900
1257.9430;-37.6900;-33.7300;-3.9600
1258.1420;-37.5100;-33.5700;-3.9400
1258.3410;-37.3200;-33.4200;-3.9000
1258.5400;-37.1400;-33.2800;-3.8600
1258.7390;-36.9300;-33.1100;-3.8200
1258.9380;-36.7400;-32.9600;-3.7800
1259.1370;-36.5400;-32.8000;-3.7400
1259.3360;-36.3500;-32.6400;-3.7100
1259.5350;-36.2000;-32.4900;-3.7100
1259.7350;-36.0300;-32.3200;-3.7100
1259.9340;-35.8600;-32.1700;-3.6900
1260.1330;-35.7600;-32.0200;-3.7400
1260.3320;-35.6600;-31.8600;-3.8000
1260.5310;-35.5700;-31.7200;-3.8500
1260.7300;-35.4900;-31.5600;-3.9300
1260.9290;-35.4300;-31.4100;-4.0200
1261.1280;-35.3700;-31.2500;-4.1200
1261.3270;-35.3400;-31.1100;-4.2300
1261.5270;-35.2800;-30.9800;-4.3000
1261.7260;-35.2100;-30.8300;-4.3800
1261.9250;-35.1200;-30.6900;-4.4300
1262.1240;-35.0000;-30.5400;-4.4600
1262.3230;-34.8600;-30.4000;-4.4600
1262.5220;-34.6600;-30.2700;-4.3900
1262.7210;-34.4100;-30.1300;-4.2800
1262.9200;-34.1200;-30.0000;-4.1200
1263.1200;-33.7800;-29.8500;-3.9300
1263.3190;-33.4300;-29.7100;-3.7200
1263.5180;-33.0300;-29.5800;-3.4500
1263.7170;-32.6200;-29.4400;-3.1800
1263.9160;-32.2100;-29.3000;-2.9100
1264.1150;-31.7900;-29.1500;-2.6400
1264.3140;-31.3900;-29.0100;-2.3800
1264.5130;-30.9900;-28.8800;-2.1100
1264.7120;-30.6200;-28.7300;-1.8900
1264.9120;-30.2700;-28.6100;-1.6600
1265.1110;-29.9400;-28.4600;-1.4800
1265.3100;-29.6700;-28.3200;-1.3500
1265.5090;-29.4200;-28.1900;-1.2300
1265.7080;-29.2100;-28.0500;-1.1600
1265.9070;-29.0300;-27.9300;-1.1000
1266.1060;-28.8900;-27.7800;-1.1100
1266.3050;-28.8000;-27.6600;-1.1400
1266.5040;-28.7400;-27.5400;-1.2000
1266.7040;-28.7200;-27.4100;-1.3100
1266.9030;-28.7300;-27.2900;-1.4400
1267.1020;-28.7700;-27.1600;-1.6100
1267.3010;-28.8600;-27.0400;-1.8200
1267.5000;-28.9800;-26.9300;-2.0500
1267.6990;-29.1200;-26.8000;-2.3200
1267.8980;-29.2700;-26.6900;-2.5800
1268.0970;-29.4600;-26.5700;-2.8900
1268.2970;-29.6500;-26.4600;-3.1900
1268.4960;-29.8400;-26.3500;-3.4900
1268.6950;-30.0300;-26.2300;-3.8000
1268.8940;-30.2000;-26.1200;-4.0800
1269.0930;-30.3600;-25.9700;-4.3900
1269.2920;-30.5100;-25.8800;-4.6300
1269.4910;-30.6400;-25.7600;-4.8800
1269.6900;-30.7500;-25.6600;-5.0900
1269.8890;-30.8300;-25.5300;-5.3000
1270.0890;-30.9100;-25.4100;-5.5000
1270.2880;-30.9900;-25.3100;-5.6800
1270.4870;-31.0900;-25.1900;-5.9000
1270.6860;-31.2000;-25.0800;-6.1200
1270.8850;-31.3300;-24.9600;-6.3700
1271.0840;-31.5200;-24.8500;-6.6700
1271.2830;-31.7600;-24.7400;-7.0200
1271.4820;-32.0600;-24.6200;-7.4400
1271.6810;-32.4600;-24.5200;-7.9400
1271.8810;-32.9400;-24.4100;-8.5300
1272.0800;-33.5300;-24.3000;-9.2300
1272.2790;-34.2500;-24.2000;-10.0500
1272.4780;-35.0700;-24.0800;-10.9900
1272.6770;-36.0100;-23.9900;-12.0200
1272.8760;-36.9400;-23.8700;-13.0700
1273.0750;-37.7500;-23.7700;-13.9800
1273.2740;-38.1200;-23.6700;-14.4500
1273.4740;-37.8100;-23.5600;-14.2500
1273.6730;-36.8600;-23.4600;-13.4000
1273.8720;-35.5200;-23.3500;-12.1700
1274.0710;-34.0800;-23.2400;-10.8400
1274.2700;-32.6700;-23.1400;-9.5300
1274.4690;-31.3700;-23.0300;-8.3400
1274.6680;-30.2000;-22.9400;-7.2600
1274.8670;-29.1300;-22.8300;-6.3000
1275.0660;-28.2000;-22.7300;-5.4700
1275.2660;-27.3400;-22.6300;-4.7100
1275.4650;-26.5900;-22.5300;-4.0600
1275.6640;-25.8200;-22.4400;-3.3800
1275.8630;-25.3500;-22.3400;-3.0100
1276.0620;-24.8400;-22.2500;-2.5900
1276.2610;-24.3900;-22.1600;-2.2300
1276.4600;-24.0100;-22.0700;-1.9400
1276.6590;-23.6700;-21.9900;-1.6800
1276.8580;-23.4000;-21.8900;-1.5100
1277.0580;-23.1800;-21.8200;-1.3600
1277.2570;-23.0200;-21.7300;-1.2900
1277.4560;-22.9000;-21.6500;-1.2500
1277.6550;-22.8100;-21.5900;-1.2200
1277.8540;-22.7800;-21.5000;-1.2800
1278.0530;-22.7600;-21.4300;-1.3300
1278.2520;-22.7800;-21.3400;-1.4400
1278.4510;-22.8300;-21.2700;-1.5600
1278.6500;-22.8800;-21.2000;-1.6800
1278.8500;-22.9500;-21.1100;-1.8400
1279.0490;-23.0000;-21.0400;-1.9600
1279.2480;-23.0500;-20.9500;-2.1000
1279.4470;-23.0900;-20.8800;-2.2100
1279.6460;-23.0800;-20.8000;-2.2800
1279.8450;-23.0500;-20.7100;-2.3400
1280.0440;-22.9700;-20.6500;-2.3200
1280.2430;-22.8600;-20.5500;-2.3100
1280.4430;-22.7200;-20.4700;-2.2500
1280.6420;-22.5400;-20.3900;-2.1500
1280.8410;-22.3500;-20.3000;-2.0500
1281.0400;-22.1300;-20.2400;-1.8900
1281.2390;-21.9200;-20.1500;-1.7700
1281.4380;-21.7200;-20.0700;-1.6500
1281.6370;-21.5200;-19.9900;-1.5300
1281.8360;-21.3600;-19.9100;-1.4500
1282.0350;-21.2100;-19.8400;-1.3700
1282.2350;-21.1100;-19.7500;-1.3600
1282.4340;-21.0500;-19.6900;-1.3600
1282.6330;-21.0400;-19.6200;-1.4200
1282.8320;-21.0800;-19.5400;-1.5400
1283.0310;-21.1600;-19.4900;-1.6700
1283.2300;-21.3200;-19.4100;-1.9100
1283.4290;-21.5300;-19.3500;-2.1800
1283.6280;-21.8100;-19.2700;-2.5400
1283.8270;-22.1800;-19.2000;-2.9800
1284.0270;-22.6100;-19.1500;-3.4600
1284.2260;-23.1600;-19.0800;-4.0800
1284.4250;-23.8000;-19.0300;-4.7700
1284.6240;-24.5600;-18.9500;-5.6100
1284.8230;-25.4600;-18.8900;-6.5700
1285.0220;-26.5000;-18.8400;-7.6600
1285.2210;-27.7200;-18.7700;-8.9500
1285.4200;-29.3500;-18.7200;-10.6300
1285.6200;-30.5100;-18.6400;-11.8700
1285.8190;-31.6900;-18.5900;-13.1000
1286.0180;-32.2400;-18.5300;-13.7100
1286.2170;-31.7900;-18.4700;-13.3200
1286.4160;-30.5500;-18.4200;-12.1300
1286.6150;-29.0500;-18.3600;-10.6900
1286.8140;-27.5500;-18.3100;-9.2400
1287.0130;-26.1900;-18.2600;-7.9300
1287.2120;-24.8000;-18.2000;-6.6000
1287.4120;-23.9400;-18.1700;-5.7700
1287.6110;-23.0500;-18.1100;-4.9400
1287.8100;-22.2600;-18.0700;-4.1900
1288.0090;-21.5800;-18.0200;-3.5600
1288.2080;-20.9700;-17.9700;-3.0000
1288.4070;-20.4600;-17.9400;-2.5200
1288.6060;-20.0200;-17.8900;-2.1300
1288.8050;-19.6400;-17.8600;-1.7800
1289.0040;-19.3300;-17.8100;-1.5200
1289.2040;-19.0600;-17.7700;-1.2900
1289.4030;-18.8500;-17.7400;-1.1100
1289.6020;-18.6900;-17.7000;-0.9900
1289.8010;-18.5700;-17.6700;-0.9000
1290.0000;-18.5100;-17.6200;-0.8900
1290.1990;-18.4600;-17.5800;-0.8800
1290.3980;-18.4600;-17.5500;-0.9100
1290.5970;-18.5100;-17.5200;-0.9900
1290.7970;-18.5900;-17.4900;-1.1000
1290.9960;-18.7000;-17.4300;-1.2700
1291.1950;-18.8400;-17.3900;-1.4500
1291.3940;-19.0400;-17.3500;-1.6900
1291.5930;-19.2500;-17.3000;-1.9500
1291.7920;-19.5200;-17.2700;-2.2500
1291.9910;-19.8400;-17.2100;-2.6300
1292.1900;-20.1900;-17.1800;-3.0100
1292.3890;-20.6100;-17.1300;-3.4800
1292.5890;-21.0500;-17.0800;-3.9700
1292.7880;-21.5800;-17.0500;-4.5300
1292.9870;-22.1700;-17.0000;-5.1700
1293.1860;-22.8300;-16.9700;-5.8600
1293.3850;-23.6000;-16.9200;-6.6800
1293.5840;-24.4300;-16.8700;-7.5600
1293.7830;-25.3900;-16.8400;-8.5500
1293.9820;-26.4700;-16.8000;-9.6700
1294.1810;-27.6900;-16.7900;-10.9000
1294.3810;-29.3800;-16.7400;-12.6400
1294.5800;-30.5900;-16.7000;-13.8900
1294.7790;-32.0900;-16.6700;-15.4200
1294.9780;-33.3200;-16.6400;-16.6800
1295.1770;-33.8300;-16.6200;-17.2100
1295.3760;-33.3800;-16.5900;-16.7900
1295.5750;-32.2700;-16.5600;-15.7100
1295.7740;-30.9900;-16.5200;-14.4700
1295.9740;-29.7100;-16.4900;-13.2200
1296.1730;-28.6100;-16.4700;-12.1400
1296.3720;-27.6500;-16.4400;-11.2100
1296.5710;-26.8500;-16.4100;-10.4400
1296.7700;-26.2100;-16.3800;-9.8300
1296.9690;-25.6200;-16.3600;-9.2600
1297.1680;-25.3200;-16.3400;-8.9800
1297.3670;-25.0400;-16.3100;-8.7300
1297.5660;-24.8700;-16.2900;-8.5800
1297.7660;-24.7900;-16.2600;-8.5300
1297.9650;-24.8300;-16.2400;-8.5900
1298.1640;-24.9500;-16.2100;-8.7400
1298.3630;-25.1600;-16.1900;-8.9700
1298.5620;-25.4600;-16.1800;-9.2800
1298.7610;-25.8200;-16.1500;-9.6700
1298.9600;-26.2400;-16.1400;-10.1000
1299.1590;-26.6700;-16.1200;-10.5500
1299.3580;-27.0400;-16.1100;-10.9300
1299.5580;-27.3000;-16.0900;-11.2100
1299.7570;-27.3500;-16.0800;-11.2700
1299.9560;-27.1500;-16.0800;-11.0700
1300.1550;-26.6600;-16.0700;-10.5900
1300.3540;-25.9700;-16.0700;-9.9000
1300.5530;-25.1500;-16.0400;-9.1100
1300.7520;-24.2600;-16.0400;-8.2200
1300.9510;-23.3800;-16.0400;-7.3400
1301.1500;-22.5300;-16.0400;-6.4900
1301.3500;-21.7400;-16.0500;-5.6900
1301.5490;-21.0200;-16.0400;-4.9800
1301.7480;-20.3500;-16.0400;-4.3100
1301.9470;-19.7700;-16.0400;-3.7300
1302.1460;-19.2500;-16.0400;-3.2100
1302.3450;-18.7900;-16.0500;-2.7400
1302.5440;-18.4000;-16.0500;-2.3500
1302.7430;-18.0600;-16.0600;-2.0000
1302.9430;-17.7900;-16.0500;-1.7400
1303.1420;-17.5600;-16.0600;-1.5000
1303.3410;-17.4000;-16.0800;-1.3200
1303.5400;-17.2800;-16.0800;-1.2000
1303.7390;-17.2000;-16.0900;-1.1100
1303.9380;-17.1800;-16.0900;-1.0900
1304.1370;-17.2000;-16.1000;-1.1000
1304.3360;-17.2700;-16.1200;-1.1500
1304.5350;-17.3600;-16.1300;-1.2300
1304.7350;-17.4800;-16.1500;-1.3300
1304.9340;-17.6400;-16.1500;-1.4900
1305.1330;-17.8100;-16.1700;-1.6400
1305.3320;-18.0100;-16.1900;-1.8200
1305.5310;-18.2000;-16.2100;-1.9900
1305.7300;-18.3900;-16.2300;-2.1600
1305.9290;-18.5700;-16.2400;-2.3300
1306.1280;-18.7300;-16.2600;-2.4700
1306.3270;-18.8700;-16.2800;-2.5900
1306.5270;-18.9600;-16.3000;-2.6600
1306.7260;-19.0300;-16.3400;-2.6900
1306.9250;-19.0500;-16.3500;-2.7000
1307.1240;-19.0400;-16.3800;-2.6600
1307.3230;-19.0200;-16.3900;-2.6300
1307.5220;-18.9700;-16.4200;-2.5500
1307.7210;-18.9200;-16.4600;-2.4600
1307.9200;-18.8600;-16.4700;-2.3900
1308.1200;-18.8300;-16.5100;-2.3200
1308.3190;-18.8100;-16.5200;-2.2900
1308.5180;-18.8200;-16.5500;-2.2700
1308.7170;-18.8700;-16.5700;-2.3000
1308.9160;-18.9400;-16.5900;-2.3500
1309.1150;-19.0700;-16.6200;-2.4500
1309.3140;-19.2500;-16.6300;-2.6200
1309.5130;-19.4800;-16.6700;-2.8100
1309.7120;-19.7700;-16.7000;-3.0700
1309.9120;-20.1000;-16.7100;-3.3900
1310.1110;-20.5100;-16.7500;-3.7600
1310.3100;-20.9800;-16.7700;-4.2100
1310.5090;-21.5200;-16.8100;-4.7100
1310.7080;-22.1400;-16.8400;-5.3000
1310.9070;-22.8000;-16.8600;-5.9400
1311.1060;-23.5400;-16.9200;-6.6200
1311.3050;-24.2900;-16.9400;-7.3500
1311.5040;-25.0600;-16.9800;-8.0800
1311.7040;-25.7500;-17.0200;-8.7300
1311.9030;-26.2800;-17.0600;-9.2200
1312.1020;-26.5800;-17.1200;-9.4600
1312.3010;-26.5800;-17.1600;-9.4200
1312.5000;-26.3200;-17.2300;-9.0900
1312.6990;-25.8100;-17.2700;-8.5400
1312.8980;-25.1800;-17.3200;-7.8600
1313.0970;-24.5200;-17.3800;-7.1400
1313.2970;-23.8300;-17.4300;-6.4000
1313.4960;-23.2200;-17.5100;-5.7100
1313.6950;-22.6300;-17.5500;-5.0800
1313.8940;-22.0900;-17.6000;-4.4900
1314.0930;-21.6400;-17.6800;-3.9600
1314.2920;-21.2300;-17.7200;-3.5100
1314.4910;-20.9000;-17.8000;-3.1000
1314.6900;-20.5900;-17.8500;-2.7400
1314.8890;-20.3400;-17.9100;-2.4300
1315.0890;-20.1400;-17.9500;-2.1900
1315.2880;-19.9700;-18.0100;-1.9600
1315.4870;-19.8600;-18.0900;-1.7700
1315.6860;-19.7600;-18.1300;-1.6300
1315.8850;-19.7100;-18.2000;-1.5100
1316.0840;-19.6700;-18.2500;-1.4200
1316.2830;-19.6600;-18.3100;-1.3500
1316.4820;-19.6900;-18.3800;-1.3100
1316.6810;-19.7100;-18.4600;-1.2500
1316.8810;-19.7700;-18.5100;-1.2600
1317.0800;-19.8300;-18.5800;-1.2500
1317.2790;-19.9100;-18.6600;-1.2500
1317.4780;-20.0000;-18.7200;-1.2800
1317.6770;-20.1000;-18.7900;-1.3100
1317.8760;-20.2200;-18.8600;-1.3600
1318.0750;-20.3300;-18.9200;-1.4100
1318.2740;-20.4700;-19.0000;-1.4700
1318.4740;-20.6200;-19.0600;-1.5600
1318.6730;-20.7900;-19.1600;-1.6300
1318.8720;-20.9700;-19.2200;-1.7500
1319.0710;-21.1700;-19.3100;-1.8600
1319.2700;-21.4000;-19.3800;-2.0200
1319.4690;-21.6300;-19.4600;-2.1700
1319.6680;-21.9100;-19.5500;-2.3600
1319.8670;-22.2000;-19.6200;-2.5800
1320.0660;-22.5200;-19.7100;-2.8100
1320.2660;-22.8700;-19.7900;-3.0800
1320.4650;-23.2400;-19.8700;-3.3700
1320.6640;-23.6600;-19.9700;-3.6900
1320.8630;-24.0900;-20.0500;-4.0400
1321.0620;-24.5600;-20.1500;-4.4100
1321.2610;-25.0700;-20.2300;-4.8400
1321.4600;-25.5900;-20.3200;-5.2700
1321.6590;-26.1600;-20.4200;-5.7400
1321.8580;-26.7400;-20.5000;-6.2400
1322.0580;-27.3600;-20.6100;-6.7500
1322.2570;-27.9900;-20.7000;-7.2900
1322.4560;-28.7800;-20.8000;-7.9800
1322.6550;-29.3200;-20.9000;-8.4200
1322.8540;-29.9700;-21.0000;-8.9700
1323.0530;-30.6400;-21.1200;-9.5200
1323.2520;-31.2800;-21.2100;-10.0700
1323.4510;-31.9000;-21.3300;-10.5700
1323.6500;-32.4500;-21.4300;-11.0200
1323.8500;-32.9600;-21.5400;-11.4200
1324.0490;-33.3800;-21.6700;-11.7100
1324.2480;-33.7000;-21.7700;-11.9300
1324.4470;-33.9200;-21.9000;-12.0200
1324.6460;-34.0000;-22.0000;-12.0000
1324.8450;-33.9700;-22.1200;-11.8500
1325.0440;-33.8100;-22.2500;-11.5600
1325.2430;-33.5500;-22.3600;-11.1900
1325.4430;-33.2200;-22.5000;-10.7200
1325.6420;-32.8200;-22.6200;-10.2000
1325.8410;-32.3800;-22.7500;-9.6300
1326.0400;-31.9000;-22.8800;-9.0200
1326.2390;-31.4200;-23.0100;-8.4100
1326.4380;-30.9600;-23.1500;-7.8100
1326.6370;-30.4900;-23.2800;-7.2100
1326.8360;-30.0700;-23.4200;-6.6500
1327.0350;-29.6500;-23.5500;-6.1000
1327.2350;-29.2800;-23.6900;-5.5900
1327.4340;-28.9400;-23.8400;-5.1000
1327.6330;-28.6300;-23.9700;-4.6600
1327.8320;-28.3700;-24.1200;-4.2500
1328.0310;-28.1300;-24.2500;-3.8800
1328.2300;-27.9300;-24.3900;-3.5400
1328.4290;-27.7700;-24.5400;-3.2300
1328.6280;-27.6400;-24.6800;-2.9600
1328.8270;-27.5600;-24.8300;-2.7300
1329.0270;-27.4800;-24.9700;-2.5100
1329.2260;-27.4500;-25.1200;-2.3300
1329.4250;-27.4300;-25.2600;-2.1700
1329.6240;-27.4300;-25.4000;-2.0300
1329.8230;-27.4700;-25.5600;-1.9100
1330.0220;-27.5100;-25.7000;-1.8100
1330.2210;-27.5800;-25.8500;-1.7300
1330.4200;-27.6400;-26.0000;-1.6400
1330.6200;-27.7200;-26.1400;-1.5800
1330.8190;-27.8100;-26.3000;-1.5100
1331.0180;-27.9000;-26.4500;-1.4500
1331.2170;-28.0100;-26.6200;-1.3900
1331.4160;-28.0900;-26.7600;-1.3300
1331.6150;-28.2000;-26.9300;-1.2700
1331.8140;-28.3000;-27.0800;-1.2200
1332.0130;-28.4000;-27.2300;-1.1700
1332.2120;-28.5200;-27.4000;-1.1200
1332.4120;-28.6400;-27.5600;-1.0800
1332.6110;-28.7900;-27.7300;-1.0600
1332.8100;-28.9400;-27.8800;-1.0600
1333.0090;-29.1100;-28.0400;-1.0700
1333.2080;-29.3100;-28.1900;-1.1200
1333.4070;-29.5300;-28.3500;-1.1800
1333.6060;-29.8100;-28.5500;-1.2600
1333.8050;-30.0900;-28.6800;-1.4100
1334.0040;-30.4500;-28.8500;-1.6000
1334.2040;-30.8300;-29.0000;-1.8300
1334.4030;-31.2700;-29.1700;-2.1000
1334.6020;-31.7800;-29.3200;-2.4600
1334.8010;-32.3300;-29.4900;-2.8400
1335.0000;-32.9800;-29.6600;-3.3200
1335.1990;-33.6900;-29.8200;-3.8700
1335.3980;-34.4900;-29.9900;-4.5000
1335.5970;-35.3800;-30.1500;-5.2300
1335.7970;-36.3700;-30.3300;-6.0400
1335.9960;-37.4600;-30.5000;-6.9600
1336.1950;-38.9000;-30.6700;-8.2300
1336.3940;-39.9300;-30.8500;-9.0800
1336.5930;-41.1500;-31.0100;-10.1400
1336.7920;-42.2200;-31.1900;-11.0300
1336.9910;-42.9000;-31.3600;-11.5400
1337.1900;-43.0200;-31.5400;-11.4800
1337.3890;-42.6100;-31.7300;-10.8800
1337.5890;-41.8600;-31.9100;-9.9500
1337.7880;-41.0300;-32.1000;-8.9300
1337.9870;-40.1800;-32.2700;-7.9100
1338.1860;-39.4300;-32.4600;-6.9700
1338.3850;-38.7700;-32.6300;-6.1400
1338.5840;-38.2400;-32.8100;-5.4300
1338.7830;-37.8200;-32.9900;-4.8300
1338.9820;-37.5000;-33.1700;-4.3300
1339.1810;-37.3000;-33.3600;-3.9400
1339.3810;-37.1700;-33.5300;-3.6400
1339.5800;-37.1500;-33.7100;-3.4400
1339.7790;-37.2200;-33.8800;-3.3400
1339.9780;-37.3800;-34.0600;-3.3200
1340.1770;-37.6400;-34.2500;-3.3900
1340.3760;-37.9900;-34.4200;-3.5700
1340.5750;-38.4400;-34.6100;-3.8300
1340.7740;-38.9900;-34.7800;-4.2100
1340.9740;-39.6300;-34.9600;-4.6700
1341.1730;-40.4200;-35.1400;-5.2800
1341.3720;-41.3300;-35.3100;-6.0200
1341.5710;-42.4100;-35.5000;-6.9100
1341.7700;-43.6600;-35.6700;-7.9900
1341.9690;-45.1400;-35.8600;-9.2800
1342.1680;-46.8700;-36.0400;-10.8300
1342.3670;-49.3200;-36.2200;-13.1000
1342.5660;-50.9500;-36.4200;-14.5300
1342.7660;-52.4700;-36.6000;-15.8700
1342.9650;-52.5400;-36.8000;-15.7400
1343.1640;-51.1800;-36.9900;-14.1900
1343.3630;-49.4300;-37.1700;-12.2600
1343.5620;-47.7900;-37.3800;-10.4100
1343.7610;-46.4100;-37.5600;-8.8500
1343.9600;-45.1000;-37.7800;-7.3200
1344.1590;-44.3700;-37.9700;-6.4000
1344.3580;-43.6400;-38.1600;-5.4800
1344.5580;-43.0400;-38.3700;-4.6700
1344.7570;-42.5800;-38.6000;-3.9800
1344.9560;-42.2100;-38.7500;-3.4600
1345.1550;-41.9400;-38.9300;-3.0100
1345.3540;-41.7600;-39.1200;-2.6400
1345.5530;-41.6700;-39.3000;-2.3700
1345.7520;-41.6600;-39.4900;-2.1700
1345.9510;-41.7100;-39.6800;-2.0300
1346.1500;-41.8300;-39.8600;-1.9700
1346.3500;-42.0000;-40.0600;-1.9400
1346.5490;-42.2500;-40.2500;-2.0000
1346.7480;-42.5400;-40.4400;-2.1000
1346.9470;-42.8700;-40.6100;-2.2600
1347.1460;-43.2700;-40.7900;-2.4800
1347.3450;-43.6800;-40.9600;-2.7200
1347.5440;-44.2000;-41.1800;-3.0200
1347.7430;-44.7800;-41.4200;-3.3600
1347.9430;-45.3700;-41.6200;-3.7500
1348.1420;-46.0000;-41.8100;-4.1900
1348.3410;-46.6500;-42.0000;-4.6500
1348.5400;-47.3000;-42.1500;-5.1500
1348.7390;-47.9900;-42.3300;-5.6600
1348.9380;-48.8800;-42.4900;-6.3900
1349.1370;-49.4800;-42.6700;-6.8100
1349.3360;-50.2200;-42.8200;-7.4000
1349.5350;-51.0200;-42.9900;-8.0300
1349.7350;-51.7900;-43.1600;-8.6300
1349.9340;-52.5800;-43.3400;-9.2400
1350.1330;-53.3600;-43.5500;-9.8100
1350.3320;-54.1300;-43.7900;-10.3400
1350.5310;-54.8000;-44.0100;-10.7900
1350.7300;-55.3100;-44.1900;-11.1200
1350.9290;-55.6500;-44.3400;-11.3100
1351.1280;-55.7200;-44.4900;-11.2300
1351.3270;-55.6500;-44.6400;-11.0100
1351.5270;-55.4000;-44.8400;-10.5600
1351.7260;-55.0700;-45.0700;-10.0000
1351.9250;-54.5800;-45.2700;-9.3100
1352.1240;-54.0100;-45.4500;-8.5600
1352.3230;-53.4700;-45.6400;-7.8300
1352.5220;-52.9400;-45.8600;-7.0800
1352.7210;-52.3600;-46.0100;-6.3500
1352.9200;-51.8600;-46.1900;-5.6700
1353.1200;-51.4900;-46.4500;-5.0400
1353.3190;-51.0300;-46.5800;-4.4500
1353.5180;-50.6500;-46.7700;-3.8800
1353.7170;-50.3600;-46.9500;-3.4100
1353.9160;-50.0300;-47.0800;-2.9500
1354.1150;-49.8200;-47.2400;-2.5800
1354.3140;-49.7300;-47.4600;-2.2700
1354.5130;-49.6400;-47.6700;-1.9700
1354.7120;-49.7500;-48.0000;-1.7500
1354.9120;-49.8400;-48.3000;-1.5400
1355.1110;-49.8900;-48.5100;-1.3800
1355.3100;-49.9400;-48.6200;-1.3200
1355.5090;-49.8900;-48.6200;-1.2700
1355.7080;-50.1600;-48.8900;-1.2700
1355.9070;-50.4600;-49.1800;-1.2800
1356.1060;-50.7100;-49.3500;-1.3600
1356.3050;-50.9100;-49.4600;-1.4500
1356.5040;-51.1700;-49.5400;-1.6300
1356.7040;-51.2400;-49.4800;-1.7600
1356.9030;-51.5500;-49.6300;-1.9200
1357.1020;-52.0800;-50.0100;-2.0700
1357.3010;-52.4700;-50.2500;-2.2200
1357.5000;-52.8100;-50.4300;-2.3800
1357.6990;-53.1200;-50.6100;-2.5100
1357.8980;-53.2500;-50.6700;-2.5800
1358.0970;-53.3600;-50.7400;-2.6200
1358.2970;-53.5200;-50.9200;-2.6000
1358.4960;-53.7000;-51.1500;-2.5500
1358.6950;-53.7200;-51.3100;-2.4100
1358.8940;-53.7300;-51.4500;-2.2800
1359.0930;-53.7400;-51.6000;-2.1400
1359.2920;-53.6100;-51.6600;-1.9500
1359.4910;-53.8500;-52.0200;-1.8300
1359.6900;-53.9900;-52.3300;-1.6600
1359.8890;-54.0500;-52.5200;-1.5300
1360.0890;-54.0100;-52.5800;-1.4300
1360.2880;-53.9900;-52.6000;-1.3900
1360.4870;-53.9800;-52.5800;-1.4000
1360.6860;-54.1800;-52.7500;-1.4300
1360.8850;-54.6300;-53.0900;-1.5400
1361.0840;-55.0700;-53.3900;-1.6800
1361.2830;-55.4900;-53.5400;-1.9500
1361.4820;-55.9900;-53.7200;-2.2700
1361.6810;-56.5500;-53.9300;-2.6200
1361.8810;-57.1700;-54.0500;-3.1200
1362.0800;-57.9700;-54.2800;-3.6900
1362.2790;-59.4500;-54.7100;-4.7400
1362.4780;-60.1300;-54.9500;-5.1800
1362.6770;-61.3200;-55.0900;-6.2300
1362.8760;-62.4300;-54.9800;-7.4500
1363.0750;-63.8000;-54.9500;-8.8500
1363.2740;-64.8200;-54.7200;-10.1000
1363.4740;-66.3400;-54.8300;-11.5100
1363.6730;-67.5000;-54.9200;-12.5800
1363.8720;-68.1400;-55.1000;-13.0400
1364.0710;-67.8000;-55.3300;-12.4700
1364.2700;-66.7400;-55.5400;-11.2000
1364.4690;-65.7100;-55.8700;-9.8400
1364.6680;-64.9300;-56.4000;-8.5300
1364.8670;-63.8000;-56.6600;-7.1400
1365.0660;-62.6600;-56.6700;-5.9900
1365.2660;-61.9300;-56.8300;-5.1000
1365.4650;-61.2400;-56.8000;-4.4400
1365.6640;-60.6700;-56.9000;-3.7700
1365.8630;-60.1600;-56.9700;-3.1900
1366.0620;-59.7600;-56.9800;-2.7800
1366.2610;-59.4300;-57.0100;-2.4200
1366.4600;-59.2900;-57.1000;-2.1900
1366.6590;-59.2500;-57.2800;-1.9700
1366.8580;-59.3800;-57.5400;-1.8400
1367.0580;-59.4700;-57.6900;-1.7800
1367.2570;-59.5900;-57.8300;-1.7600
1367.4560;-59.9400;-58.0800;-1.8600
1367.6550;-60.2200;-58.3000;-1.9200
1367.8540;-60.6300;-58.6400;-1.9900
1368.0530;-60.9600;-58.7400;-2.2200
1368.2520;-61.1700;-58.7300;-2.4400
1368.4510;-61.7300;-59.0800;-2.6500
1368.6500;-62.0700;-59.2000;-2.8700
1368.8500;-62.4600;-59.3200;-3.1400
1369.0490;-62.7500;-59.3300;-3.4200
1369.2480;-62.9900;-59.3100;-3.6800
1369.4470;-63.1100;-59.2700;-3.8400
1369.6460;-63.4400;-59.3900;-4.0500
1369.8450;-63.9600;-59.7400;-4.2200
1370.0440;-64.2700;-59.9700;-4.3000
1370.2430;-64.5100;-60.1300;-4.3800
1370.4430;-64.7000;-60.2200;-4.4800
1370.6420;-64.8300;-60.2700;-4.5600
1370.8410;-65.2200;-60.6000;-4.6200
1371.0400;-65.5800;-60.8800;-4.7000
1371.2390;-65.9300;-61.1000;-4.8300
1371.4380;-66.1000;-61.1700;-4.9300
1371.6370;-66.2600;-61.1800;-5.0800
1371.8360;-66.3500;-61.1900;-5.1600
1372.0350;-66.7900;-61.4100;-5.3800
1372.2350;-67.2400;-61.6500;-5.5900
1372.4340;-67.8100;-61.7800;-6.0300
1372.6330;-68.3500;-61.8700;-6.4800
1372.8320;-68.7100;-61.9900;-6.7200
1373.0310;-69.2200;-62.0600;-7.1600
1373.2300;-70.0200;-62.2600;-7.7600
1373.4290;-70.6900;-62.4300;-8.2600
1373.6280;-71.8100;-62.5900;-9.2200
1373.8270;-72.4900;-62.7200;-9.7700
1374.0270;-73.1100;-62.8600;-10.2500
1374.2260;-73.7900;-63.0100;-10.7800
1374.4250;-74.1400;-63.1800;-10.9600
1374.6240;-74.4800;-63.3700;-11.1100
1374.8230;-74.9000;-63.6100;-11.2900
1375.0220;-74.6100;-63.8200;-10.7900
1375.2210;-73.9700;-63.9600;-10.0100
1375.4200;-73.6500;-64.0900;-9.5600
1375.6200;-72.9400;-64.2400;-8.7000
1375.8190;-72.6400;-64.3500;-8.2900
1376.0180;-72.0400;-64.6300;-7.4100
1376.2170;-71.7300;-64.8400;-6.8900
1376.4160;-71.4500;-64.9500;-6.5000
1376.6150;-71.1000;-65.0900;-6.0100
1376.8140;-70.9600;-65.3600;-5.6000
1377.0130;-71.0200;-65.6500;-5.3700
1377.2120;-71.0200;-65.8200;-5.2000
1377.4120;-70.8000;-65.9800;-4.8200
1377.6110;-70.7200;-66.1200;-4.6000
1377.8100;-70.7300;-66.0800;-4.6500
1378.0090;-70.4200;-66.2400;-4.1800
1378.2080;-70.6000;-66.4500;-4.1500
1378.4070;-70.7600;-66.6500;-4.1100
1378.6060;-70.9300;-66.9600;-3.9700
1378.8050;-71.2300;-67.3100;-3.9200
1379.0040;-71.0500;-67.5800;-3.4700
1379.2040;-71.3400;-67.5800;-3.7600
1379.4030;-71.1200;-67.6700;-3.4500
1379.6020;-71.0200;-67.6000;-3.4200
1379.8010;-71.0000;-67.7800;-3.2200
1380.0000;-71.0300;-67.9000;-3.1300
1380.1990;-71.1100;-68.2200;-2.8900
1380.3980;-71.2600;-68.4500;-2.8100
1380.5970;-71.8300;-68.9800;-2.8500
1380.7970;-72.1400;-69.4000;-2.7400
1380.9960;-72.1800;-69.8200;-2.3600
1381.1950;-72.0500;-69.7300;-2.3200
1381.3940;-71.7500;-69.5500;-2.2000
1381.5930;-71.6600;-69.2500;-2.4100
1381.7920;-71.6100;-69.4100;-2.2000
1381.9910;-71.5400;-69.5600;-1.9800
1382.1900;-71.5800;-69.5600;-2.0200
1382.3890;-72.0400;-69.8100;-2.2300
1382.5890;-72.5400;-70.3700;-2.1700
1382.7880;-73.2500;-71.0100;-2.2400
1382.9870;-73.3800;-71.2100;-2.1700
1383.1860;-73.1900;-71.0200;-2.1700
1383.3850;-73.2100;-70.7200;-2.4900
1383.5840;-73.2600;-70.7300;-2.5300
1383.7830;-72.9500;-70.7900;-2.1600
1383.9820;-73.2600;-71.0800;-2.1800
1384.1810;-73.2300;-71.1900;-2.0400
1384.3810;-73.5800;-70.9600;-2.6200
1384.5800;-73.3600;-71.0900;-2.2700
1384.7790;-73.2400;-71.1500;-2.0900
1384.9780;-73.8600;-71.6000;-2.2600
1385.1770;-73.6000;-71.7200;-1.8800
1385.3760;-74.1100;-71.7600;-2.3500
1385.5750;-73.8200;-71.8100;-2.0100
1385.7740;-74.1800;-71.9300;-2.2500
1385.9740;-74.1200;-71.8800;-2.2400
1386.1730;-73.8800;-71.8100;-2.0700
1386.3720;-74.1100;-72.1600;-1.9500
1386.5710;-74.1100;-72.0500;-2.0600
1386.7700;-74.2200;-72.2900;-1.9300
1386.9690;-74.4800;-72.1600;-2.3200
1387.1680;-74.2700;-72.1900;-2.0800
1387.3670;-74.2900;-72.2700;-2.0200
1387.5660;-74.5200;-72.3600;-2.1600
1387.7660;-75.1200;-72.8700;-2.2500
1387.9650;-75.3200;-73.0200;-2.3000
1388.1640;-75.5600;-73.3700;-2.1900
1388.3630;-75.9700;-73.7700;-2.2000
1388.5620;-76.2800;-73.4300;-2.8500
1388.7610;-75.5100;-73.2400;-2.2700
1388.9600;-76.3300;-73.1600;-3.1700
1389.1590;-76.5800;-73.1100;-3.4700
1389.3580;-76.4800;-73.0000;-3.4800
1389.5580;-77.4200;-72.9300;-4.4900
1389.7570;-76.8500;-73.0200;-3.8300
1389.9560;-77.6800;-73.4700;-4.2100
1390.1550;-77.3800;-73.4300;-3.9500
1390.3540;-78.1500;-73.3000;-4.8500
1390.5530;-78.2500;-73.8100;-4.4400
1390.7520;-78.9800;-73.7500;-5.2300
1390.9510;-78.3100;-73.6000;-4.7100
1391.1500;-78.6800;-73.7500;-4.9300
1391.3500;-77.8200;-74.1300;-3.6900
1391.5490;-78.2400;-73.9000;-4.3400
1391.7480;-78.6900;-73.8400;-4.8500
1391.9470;-78.4700;-74.0200;-4.4500
1392.1460;-78.2600;-74.4400;-3.8200
1392.3450;-77.6900;-74.8600;-2.8300
1392.5440;-78.4700;-75.2400;-3.2300
1392.7430;-79.7800;-75.2500;-4.5300
1392.9430;-79.6400;-74.9900;-4.6500
1393.1420;-81.0300;-75.1000;-5.9300
1393.3410;-78.8700;-74.8600;-4.0100
1393.5400;-79.2700;-75.2700;-4.0000
1393.7390;-79.2300;-74.7100;-4.5200
1393.9380;-79.7100;-74.2900;-5.4200
1394.1370;-80.5700;-74.6900;-5.8800
1394.3360;-79.7100;-74.8400;-4.8700
1394.5350;-78.8100;-74.6800;-4.1300
1394.7350;-79.8900;-75.5700;-4.3200
1394.9340;-82.0600;-75.2700;-6.7900
1395.1330;-80.5700;-75.3100;-5.2600
1395.3320;-79.8100;-75.9000;-3.9100
1395.5310;-82.0600;-75.8400;-6.2200
1395.7300;-78.5300;-76.3200;-2.2100
1395.9290;-79.2300;-76.1900;-3.0400
1396.1280;-80.4800;-75.7100;-4.7700
1396.3270;-80.1200;-76.6800;-3.4400
1396.5270;-80.7000;-75.7100;-4.9900
1396.7260;-80.7500;-76.0400;-4.7100
1396.9250;-81.3800;-76.1100;-5.2700
1397.1240;-79.5000;-76.1900;-3.3100
1397.3230;-80.2000;-75.8100;-4.3900
1397.5220;-81.0300;-75.7800;-5.2500
1397.7210;-81.4300;-76.5900;-4.8400
1397.9200;-79.6400;-76.1900;-3.4500
1398.1200;-80.4000;-76.0400;-4.3600
1398.3190;-79.9200;-76.2200;-3.7000
1398.5180;-79.5100;-75.8700;-3.6400
1398.7170;-80.6700;-76.4600;-4.2100
1398.9160;-80.5400;-76.2200;-4.3200
1399.1150;-80.2900;-76.3600;-3.9300
1399.3140;-82.8700;-75.9700;-6.9000
1399.5130;-80.9900;-76.2000;-4.7900
1399.7120;-81.9500;-76.7800;-5.1700
1399.9120;-82.0100;-76.3800;-5.6300
1400.1110;-80.7100;-76.8900;-3.8200
1400.3100;-80.6700;-76.6200;-4.0500
1400.5090;-81.5500;-76.8900;-4.6600
1400.7080;-81.6000;-77.5300;-4.0700
1400.9070;-80.1300;-77.5300;-2.6000
1401.1060;-83.1000;-77.0800;-6.0200
1401.3050;-81.5500;-76.8900;-4.6600
1401.5040;-82.5200;-76.5000;-6.0200
1401.7040;-81.3400;-77.7900;-3.5500
1401.9030;-83.4200;-76.9600;-6.4600
1402.1020;-82.9500;-77.0200;-5.9300
1402.3010;-82.0100;-77.1400;-4.8700
1402.5000;-80.7600;-77.3400;-3.4200
1402.6990;-81.2900;-77.3200;-3.9700
1402.8980;-81.0900;-76.4000;-4.6900
1403.0970;-82.0700;-77.2300;-4.8400
1403.2970;-85.2600;-76.9200;-8.3400
1403.4960;-82.0700;-77.4600;-4.6100
1403.6950;-83.1000;-77.8400;-5.2600
1403.8940;-82.1300;-77.0400;-5.0900
1404.0930;-81.1300;-76.7100;-4.4200
1404.2920;-81.1300;-77.1600;-3.9700
1404.4910;-80.8000;-77.7200;-3.0800
1404.6900;-82.5200;-77.1700;-5.3500
1404.8890;-81.6600;-77.7000;-3.9600
1405.0890;-83.7700;-77.5700;-6.2000
1405.2880;-82.9500;-77.9100;-5.0400
1405.4870;-83.4200;-79.6800;-3.7400
1405.6860;-81.6600;-78.0000;-3.6600
1405.8850;-81.7100;-77.8800;-3.8300
1406.0840;-82.3800;-77.3800;-5.0000
1406.2830;-83.1000;-77.3600;-5.7400
1406.4820;-80.1700;-78.0300;-2.1400
1406.6810;-79.2500;-77.8700;-1.3800
1406.8810;-82.3300;-76.8200;-5.5100
1407.0800;-83.2700;-77.2000;-6.0700
1407.2790;-82.1400;-78.7100;-3.4300
1407.4780;-82.2600;-79.1900;-3.0700
1407.6770;-82.5300;-79.0100;-3.5200
1407.8760;-81.0500;-78.0900;-2.9600
1408.0750;-81.9000;-78.7700;-3.1300
1408.2740;-85.5400;-77.6200;-7.9200
1408.4740;-81.0000;-77.0500;-3.9500
1408.6730;-81.3000;-77.4100;-3.8900
1408.8720;-79.8700;-77.4500;-2.4200
1409.0710;-80.5900;-77.8500;-2.7400
1409.2700;-81.3500;-77.2400;-4.1100
1409.4690;-80.9500;-77.0700;-3.8800
1409.6680;-82.6700;-77.5800;-5.0900
1409.8670;-81.5600;-78.0100;-3.5500
1410.0660;-81.5600;-77.7600;-3.8000
1410.2660;-83.2700;-78.1800;-5.0900
1410.4650;-82.8100;-77.8200;-4.9900
1410.6640;-82.5300;-77.7600;-4.7700
1410.8630;-82.5300;-77.6700;-4.8600
1411.0620;-80.3000;-78.4400;-1.8600
1411.2610;-79.9100;-77.5100;-2.4000
1411.4600;-82.0200;-77.4100;-4.6100
1411.6590;-82.1400;-77.9900;-4.1500
1411.8580;-79.9400;-78.8300;-1.1100
1412.0580;-80.6800;-77.2200;-3.4600
1412.2570;-82.2000;-77.3700;-4.8300
1412.4560;-80.6800;-77.4100;-3.2700
1412.6550;-81.6700;-77.2700;-4.4000
1412.8540;-80.7200;-76.7000;-4.0200
1413.0530;-82.4600;-77.5400;-4.9200
1413.2520;-81.3000;-77.7100;-3.5900
1413.4510;-81.4500;-77.3700;-4.0800
1413.6500;-83.9700;-77.6800;-6.2900
1413.8500;-82.8900;-77.0600;-5.8300
1414.0490;-79.8800;-77.1400;-2.7400
1414.2480;-81.1500;-77.6800;-3.4700
1414.4470;-81.5700;-77.5000;-4.0700
1414.6460;-81.5100;-77.2800;-4.2300
1414.8450;-80.1100;-77.4200;-2.6900
1415.0440;-82.5400;-77.0000;-5.5400
1415.2430;-79.8800;-77.5500;-2.3300
1415.4430;-81.7300;-77.2100;-4.5200
1415.6420;-81.6800;-77.1000;-4.5800
1415.8410;-81.0600;-77.8100;-3.2500
1416.0400;-80.5600;-77.2800;-3.2800
1416.2390;-80.9600;-77.6100;-3.3500
1416.4380;-81.2500;-76.2900;-4.9600
1416.6370;-80.0700;-76.6700;-3.4000
1416.8360;-80.2700;-77.0200;-3.2500
1417.0350;-80.6000;-76.9800;-3.6200
1417.2350;-80.7800;-77.0200;-3.7600
1417.4340;-81.3600;-76.6500;-4.7100
1417.6330;-80.6900;-76.6700;-4.0200
1417.8320;-80.6900;-76.5900;-4.1000
1418.0310;-80.6000;-75.8900;-4.7100
1418.2300;-80.6400;-76.9300;-3.7100
1418.4290;-80.2700;-77.0200;-3.2500
1418.6280;-80.6400;-77.3000;-3.3400
1418.8270;-80.7800;-77.5700;-3.2100
1419.0270;-80.7800;-77.6500;-3.1300
1419.2260;-81.5700;-77.7400;-3.8300
1419.4250;-80.1900;-77.8300;-2.3600
1419.6240;-80.5600;-77.0200;-3.5400
1419.8230;-80.0700;-77.5700;-2.5000
1420.0220;-82.5400;-76.1700;-6.3700
1420.2210;-81.4100;-76.7100;-4.7000
1420.4200;-80.9100;-76.8900;-4.0200
1420.6200;-79.6700;-76.7100;-2.9600
1420.8190;-80.9600;-76.2900;-4.6700
1421.0180;-82.5400;-76.8500;-5.6900
1421.2170;-81.1500;-76.3200;-4.8300
1421.4160;-81.5700;-77.1200;-4.4500
1421.6150;-80.7400;-76.6000;-4.1400
1421.8140;-81.1200;-76.6300;-4.4900
1422.0130;-82.1600;-75.8400;-6.3200
1422.2120;-80.2000;-76.4900;-3.7100
1422.4120;-79.2100;-76.6100;-2.6000
1422.6110;-80.9200;-77.0700;-3.8500
1422.8100;-79.5400;-77.3300;-2.2100
1423.0090;-83.8000;-76.7400;-7.0600
1423.2080;-79.7100;-76.4400;-3.2700
1423.4070;-80.4400;-76.5300;-3.9100
1423.6060;-81.0200;-76.2300;-4.7900
1423.8050;-79.9600;-76.8600;-3.1000
1424.0040;-81.9200;-77.0100;-4.9100
1424.2040;-79.7100;-77.5100;-2.2000
1424.4030;-80.2400;-76.5300;-3.7100
1424.6020;-79.6800;-76.2500;-3.4300
1424.8010;-79.3700;-76.5300;-2.8400
1425.0000;-80.1200;-76.5300;-3.5900
