Wavelength;Intensity_Meas;Intensity_Ref;Difference_dB
1200.0000;-61.1300;-57.0400;-4.0900
1200.1990;-61.1300;-57.0100;-4.1200
1200.3980;-61.0700;-56.9700;-4.1000
1200.5970;-61.0600;-56.9600;-4.1000
1200.7970;-61.0400;-56.9200;-4.1200
1200.9960;-60.9700;-56.9000;-4.0700
1201.1950;-60.9200;-56.8600;-4.0600
1201.3940;-60.8700;-56.8000;-4.0700
1201.5930;-60.8200;-56.7800;-4.0400
1201.7920;-60.7500;-56.7400;-4.0100
1201.9910;-60.7000;-56.6800;-4.0200
1202.1900;-60.6600;-56.6500;-4.0100
1202.3890;-60.5800;-56.5600;-4.0200
1202.5890;-60.5100;-56.5200;-3.9900
1202.7880;-60.4500;-56.4800;-3.9700
1202.9870;-60.4200;-56.4300;-3.9900
1203.1860;-60.3700;-56.3600;-4.0100
1203.3850;-60.2900;-56.3000;-3.9900
1203.5840;-60.2700;-56.3000;-3.9700
1203.7830;-60.2300;-56.2500;-3.9800
1203.9820;-60.2400;-56.2000;-4.0400
1204.1810;-60.1800;-56.1500;-4.0300
1204.3810;-60.1500;-56.1100;-4.0400
1204.5800;-60.1500;-56.1100;-4.0400
1204.7790;-60.1300;-56.0600;-4.0700
1204.9780;-60.1300;-56.0100;-4.1200
1205.1770;-60.1100;-56.0000;-4.1100
1205.3760;-60.0900;-55.9800;-4.1100
1205.5750;-60.0900;-55.9600;-4.1300
1205.7740;-60.1200;-55.9300;-4.1900
1205.9740;-60.0900;-55.9100;-4.1800
1206.1730;-60.0800;-55.9200;-4.1600
1206.3720;-60.0900;-55.8800;-4.2100
1206.5710;-60.1500;-55.8700;-4.2800
1206.7700;-60.1200;-55.8300;-4.2900
1206.9690;-60.1100;-55.8100;-4.3000
1207.1680;-60.1400;-55.8300;-4.3100
1207.3670;-60.1300;-55.7800;-4.3500
1207.5660;-60.1500;-55.7300;-4.4200
1207.7660;-60.1200;-55.7100;-4.4100
1207.9650;-60.1300;-55.6900;-4.4400
1208.1640;-60.1500;-55.6500;-4.5000
1208.3630;-60.1300;-55.5800;-4.5500
1208.5620;-60.1100;-55.5500;-4.5600
1208.7610;-60.0500;-55.5300;-4.5200
1208.9600;-60.0200;-55.4700;-4.5500
1209.1590;-60.0000;-55.4200;-4.5800
1209.3580;-59.9500;-55.3500;-4.6000
1209.5580;-59.8900;-55.3200;-4.5700
1209.7570;-59.8400;-55.2900;-4.5500
1209.9560;-59.7800;-55.2200;-4.5600
1210.1550;-59.7400;-55.1700;-4.5700
1210.3540;-59.6300;-55.1200;-4.5100
1210.5530;-59.5900;-55.0900;-4.5000
1210.7520;-59.5500;-55.0300;-4.5200
1210.9510;-59.4700;-54.9700;-4.5000
1211.1500;-59.4000;-54.9500;-4.4500
1211.3500;-59.3300;-54.9100;-4.4200
1211.5490;-59.3100;-54.8600;-4.4500
1211.7480;-59.2400;-54.8200;-4.4200
1211.9470;-59.1300;-54.7900;-4.3400
1212.1460;-59.0900;-54.7700;-4.3200
1212.3450;-59.0400;-54.7300;-4.3100
1212.5440;-59.0000;-54.6800;-4.3200
1212.7430;-58.9200;-54.6700;-4.2500
1212.9430;-58.8400;-54.6400;-4.2000
1213.1420;-58.8200;-54.6200;-4.2000
1213.3410;-58.7700;-54.5800;-4.1900
1213.5400;-58.7300;-54.5600;-4.1700
1213.7390;-58.6400;-54.5500;-4.0900
1213.9380;-58.6100;-54.5200;-4.0900
1214.1370;-58.6000;-54.4700;-4.1300
1214.3360;-58.5200;-54.4200;-4.1000
1214.5350;-58.4700;-54.4100;-4.0600
1214.7350;-58.4200;-54.3900;-4.0300
1214.9340;-58.3900;-54.3300;-4.0600
1215.1330;-58.3300;-54.2800;-4.0500
1215.3320;-58.2200;-54.2400;-3.9800
1215.5310;-58.1900;-54.2100;-3.9800
1215.7300;-58.1500;-54.1500;-4.0000
1215.9290;-58.1000;-54.0900;-4.0100
1216.1280;-58.0100;-54.0500;-3.9600
1216.3270;-57.9500;-53.9900;-3.9600
1216.5270;-57.9400;-53.9400;-4.0000
1216.7260;-57.8800;-53.8800;-4.0000
1216.9250;-57.8000;-53.8200;-3.9800
1217.1240;-57.7400;-53.7900;-3.9500
1217.3230;-57.7100;-53.7100;-4.0000
1217.5220;-57.6800;-53.6500;-4.0300
1217.7210;-57.6100;-53.6100;-4.0000
1217.9200;-57.5400;-53.5600;-3.9800
1218.1200;-57.5400;-53.5200;-4.0200
1218.3190;-57.5100;-53.4500;-4.0600
1218.5180;-57.4700;-53.4300;-4.0400
1218.7170;-57.4200;-53.4000;-4.0200
1218.9160;-57.4000;-53.3500;-4.0500
1219.1150;-57.4100;-53.3100;-4.1000
1219.3140;-57.3600;-53.2700;-4.0900
1219.5130;-57.3600;-53.2500;-4.1100
1219.7120;-57.3400;-53.2200;-4.1200
1219.9120;-57.3800;-53.1700;-4.2100
1220.1110;-57.3600;-53.1600;-4.2000
1220.3100;-57.3500;-53.1200;-4.2300
1220.5090;-57.3800;-53.0900;-4.2900
1220.7080;-57.4100;-53.0400;-4.3700
1220.9070;-57.4100;-53.0000;-4.4100
1221.1060;-57.4000;-52.9700;-4.4300
1221.3050;-57.4300;-52.9200;-4.5100
1221.5040;-57.4800;-52.8600;-4.6200
1221.7040;-57.4700;-52.8100;-4.6600
1221.9030;-57.4700;-52.7700;-4.7000
1222.1020;-57.4700;-52.7100;-4.7600
1222.3010;-57.4900;-52.6400;-4.8500
1222.5000;-57.5100;-52.5700;-4.9400
1222.6990;-57.4500;-52.5100;-4.9400
1222.8980;-57.4400;-52.4500;-4.9900
1223.0970;-57.4400;-52.3900;-5.0500
1223.2970;-57.4000;-52.3000;-5.1000
1223.4960;-57.3300;-52.2300;-5.1000
1223.6950;-57.2600;-52.1700;-5.0900
1223.8940;-57.2300;-52.1000;-5.1300
1224.0930;-57.1700;-52.0400;-5.1300
1224.2920;-57.0800;-51.9700;-5.1100
1224.4910;-57.0100;-51.8900;-5.1200
1224.6900;-56.9600;-51.8400;-5.1200
1224.8890;-56.9000;-51.7600;-5.1400
1225.0890;-56.8200;-51.7200;-5.1000
1225.2880;-56.7600;-51.6500;-5.1100
1225.4870;-56.7100;-51.5800;-5.1300
1225.6860;-56.6700;-51.5300;-5.1400
1225.8850;-56.6100;-51.4900;-5.1200
1226.0840;-56.5700;-51.4400;-5.1300
1226.2830;-56.5400;-51.3800;-5.1600
1226.4820;-56.4900;-51.3200;-5.1700
1226.6810;-56.4400;-51.2900;-5.1500
1226.8810;-56.4000;-51.2400;-5.1600
1227.0800;-56.3500;-51.1900;-5.1600
1227.2790;-56.2900;-51.1300;-5.1600
1227.4780;-56.2200;-51.0800;-5.1400
1227.6770;-56.1300;-51.0300;-5.1000
1227.8760;-56.0600;-50.9700;-5.0900
1228.0750;-55.9600;-50.9200;-5.0400
1228.2740;-55.8200;-50.8600;-4.9600
1228.4740;-55.6400;-50.7900;-4.8500
1228.6730;-55.5300;-50.7300;-4.8000
1228.8720;-55.3800;-50.6700;-4.7100
1229.0710;-55.1800;-50.6100;-4.5700
1229.2700;-54.9900;-50.5200;-4.4700
1229.4690;-54.8200;-50.4400;-4.3800
1229.6680;-54.6200;-50.3800;-4.2400
1229.8670;-54.4100;-50.3000;-4.1100
1230.0660;-54.2100;-50.2300;-3.9800
1230.2660;-54.0400;-50.1400;-3.9000
1230.4650;-53.8700;-50.0500;-3.8200
1230.6640;-53.6800;-49.9900;-3.6900
1230.8630;-53.5500;-49.9200;-3.6300
1231.0620;-53.4300;-49.8500;-3.5800
1231.2610;-53.3300;-49.7800;-3.5500
1231.4600;-53.2400;-49.7200;-3.5200
1231.6590;-53.1700;-49.6600;-3.5100
1231.8580;-53.1300;-49.5900;-3.5400
1232.0580;-53.0900;-49.5400;-3.5500
1232.2570;-53.0600;-49.4700;-3.5900
1232.4560;-53.0700;-49.4200;-3.6500
1232.6550;-53.0900;-49.3600;-3.7300
1232.8540;-53.1100;-49.2900;-3.8200
1233.0530;-53.1400;-49.2600;-3.8800
1233.2520;-53.1800;-49.1900;-3.9900
1233.4510;-53.2500;-49.1300;-4.1200
1233.6500;-53.2800;-49.0800;-4.2000
1233.8500;-53.3400;-49.0100;-4.3300
1234.0490;-53.4000;-48.9700;-4.4300
1234.2480;-53.4500;-48.8900;-4.5600
1234.4470;-53.4800;-48.8300;-4.6500
1234.6460;-53.5000;-48.7700;-4.7300
1234.8450;-53.5400;-48.7000;-4.8400
1235.0440;-53.5400;-48.6300;-4.9100
1235.2430;-53.5000;-48.5500;-4.9500
1235.4430;-53.4500;-48.4800;-4.9700
1235.6420;-53.3900;-48.3900;-5.0000
1235.8410;-53.3200;-48.3000;-5.0200
1236.0400;-53.1900;-48.2300;-4.9600
1236.2390;-53.0700;-48.1300;-4.9400
1236.4380;-52.9300;-48.0600;-4.8700
1236.6370;-52.7900;-47.9700;-4.8200
1236.8360;-52.6300;-47.8700;-4.7600
1237.0350;-52.4600;-47.7900;-4.6700
1237.2350;-52.3300;-47.7000;-4.6300
1237.4340;-52.1600;-47.6200;-4.5400
1237.6330;-52.0100;-47.5300;-4.4800
1237.8320;-51.9100;-47.4600;-4.4500
1238.0310;-51.7800;-47.3700;-4.4100
1238.2300;-51.6800;-47.2900;-4.3900
1238.4290;-51.5600;-47.2200;-4.3400
1238.6280;-51.5000;-47.1400;-4.3600
1238.8270;-51.4400;-47.0600;-4.3800
1239.0270;-51.3600;-46.9800;-4.3800
1239.2260;-51.3100;-46.9000;-4.4100
1239.4250;-51.2700;-46.8300;-4.4400
1239.6240;-51.2300;-46.7400;-4.4900
1239.8230;-51.1700;-46.6600;-4.5100
1240.0220;-51.1300;-46.5700;-4.5600
1240.2210;-51.1000;-46.4800;-4.6200
1240.4200;-51.0300;-46.4000;-4.6300
1240.6200;-50.9600;-46.3000;-4.6600
1240.8190;-50.9100;-46.2000;-4.7100
1241.0180;-50.8100;-46.0800;-4.7300
1241.2170;-50.7100;-45.9700;-4.7400
1241.4160;-50.5900;-45.8400;-4.7500
1241.6150;-50.4700;-45.7400;-4.7300
1241.8140;-50.3400;-45.6300;-4.7100
1242.0130;-50.1700;-45.5000;-4.6700
1242.2120;-50.0200;-45.3900;-4.6300
1242.4120;-49.8500;-45.2600;-4.5900
1242.6110;-49.6600;-45.1300;-4.5300
1242.8100;-49.4700;-45.0100;-4.4600
1243.0090;-49.2700;-44.8600;-4.4100
1243.2080;-49.1000;-44.7500;-4.3500
1243.4070;-48.9000;-44.6100;-4.2900
1243.6060;-48.7000;-44.4700;-4.2300
1243.8050;-48.5500;-44.3600;-4.1900
1244.0040;-48.3800;-44.2200;-4.1600
1244.2040;-48.2200;-44.1000;-4.1200
1244.4030;-48.0700;-43.9700;-4.1000
1244.6020;-47.9300;-43.8300;-4.1000
1244.8010;-47.8200;-43.7200;-4.1000
1245.0000;-47.6900;-43.5900;-4.1000
1245.1990;-47.6000;-43.4700;-4.1300
1245.3980;-47.5000;-43.3300;-4.1700
1245.5970;-47.3900;-43.2000;-4.1900
1245.7970;-47.3000;-43.0700;-4.2300
1245.9960;-47.1900;-42.9300;-4.2600
1246.1950;-47.1000;-42.8000;-4.3000
1246.3940;-46.9700;-42.6500;-4.3200
1246.5930;-46.8400;-42.5000;-4.3400
1246.7920;-46.7100;-42.3700;-4.3400
1246.9910;-46.5300;-42.2000;-4.3300
1247.1900;-46.3600;-42.0600;-4.3000
1247.3890;-46.1600;-41.9100;-4.2500
1247.5890;-45.9500;-41.7400;-4.2100
1247.7880;-45.6800;-41.6000;-4.0800
1247.9870;-45.4700;-41.4300;-4.0400
1248.1860;-45.2400;-41.2800;-3.9600
1248.3850;-44.9800;-41.1100;-3.8700
1248.5840;-44.7300;-40.9400;-3.7900
1248.7830;-44.4700;-40.8000;-3.6700
1248.9820;-44.2100;-40.6400;-3.5700
1249.1810;-43.9600;-40.4900;-3.4700
1249.3810;-43.7100;-40.3300;-3.3800
1249.5800;-43.4800;-40.1700;-3.3100
1249.7790;-43.2400;-40.0300;-3.2100
1249.9780;-43.0100;-39.8600;-3.1500
1250.1770;-42.8100;-39.7200;-3.0900
1250.3760;-42.6000;-39.5700;-3.0300
1250.5750;-42.4000;-39.4100;-2.9900
1250.7740;-42.1900;-39.2700;-2.9200
1250.9740;-42.0200;-39.1200;-2.9000
1251.1730;-41.8300;-38.9800;-2.8500
1251.3720;-41.6300;-38.8100;-2.8200
1251.5710;-41.4600;-38.6600;-2.8000
1251.7700;-41.2500;-38.5100;-2.7400
1251.9690;-41.0600;-38.3400;-2.7200
1252.1680;-40.8600;-38.2000;-2.6600
1252.3670;-40.6700;-38.0200;-2.6500
1252.5660;-40.4900;-37.8700;-2.6200
1252.7660;-40.2900;-37.7000;-2.5900
1252.9650;-40.1200;-37.5400;-2.5800
1253.1640;-39.9500;-37.3800;-2.5700
1253.3630;-39.7800;-37.1900;-2.5900
1253.5620;-39.6600;-37.0300;-2.6300
1253.7610;-39.5200;-36.8600;-2.6600
1253.9600;-39.4400;-36.7000;-2.7400
1254.1590;-39.3600;-36.5500;-2.8100
1254.3580;-39.3100;-36.3700;-2.9400
1254.5580;-39.3300;-36.2200;-3.1100
1254.7570;-39.3400;-36.0500;-3.2900
1254.9560;-39.4300;-35.8700;-3.5600
1255.1550;-39.5600;-35.7500;-3.8100
1255.3540;-39.7300;-35.5900;-4.1400
1255.5530;-39.9800;-35.4700;-4.5100
1255.7520;-40.2600;-35.3100;-4.9500
1255.9510;-40.6100;-35.1600;-5.4500
1256.1500;-41.0300;-35.0200;-6.0100
1256.3500;-41.5000;-34.8700;-6.6300
1256.5490;-42.0600;-34.7500;-7.3100
1256.7480;-42.6400;-34.6000;-8.0400
1256.9470;-43.2700;-34.4600;-8.8100
1257.1460;-43.8600;-34.3100;-9.5500
1257.3450;-44.4000;-34.1600;-10.2400
1257.5440;-44.7900;-34.0300;-10.7600
1257.7430;-44.9100;-33.8700;-11.0400
1257.9430;-44.7300;-33.7300;-11.0000
1258.1420;-44.2500;-33.5700;-10.6800
1258.3410;-43.5300;-33.4200;-10.1100
1258.5400;-42.7100;-33.2800;-9.4300
1258.7390;-41.8000;-33.1100;-8.6900
1258.9380;-40.9100;-32.9600;-7.9500
1259.1370;-40.0500;-32.8000;-7.2500
1259.3360;-39.2500;-32.6400;-6.6100
1259.5350;-38.5200;-32.4900;-6.0300
1259.7350;-37.8400;-32.3200;-5.5200
1259.9340;-37.2400;-32.1700;-5.0700
1260.1330;-36.6900;-32.0200;-4.6700
1260.3320;-36.1900;-31.8600;-4.3300
1260.5310;-35.7000;-31.7200;-3.9800
1260.7300;-35.3900;-31.5600;-3.8300
1260.9290;-35.0600;-31.4100;-3.6500
1261.1280;-34.7700;-31.2500;-3.5200
1261.3270;-34.5500;-31.1100;-3.4400
1261.5270;-34.3500;-30.9800;-3.3700
1261.7260;-34.1900;-30.8300;-3.3600
1261.9250;-34.0500;-30.6900;-3.3600
1262.1240;-33.9600;-30.5400;-3.4200
1262.3230;-33.9000;-30.4000;-3.5000
1262.5220;-33.8400;-30.2700;-3.5700
1262.7210;-33.8200;-30.1300;-3.6900
1262.9200;-33.7900;-30.0000;-3.7900
1263.1200;-33.7700;-29.8500;-3.9200
1263.3190;-33.7600;-29.7100;-4.0500
1263.5180;-33.7400;-29.5800;-4.1600
1263.7170;-33.7100;-29.4400;-4.2700
1263.9160;-33.6500;-29.3000;-4.3500
1264.1150;-33.5800;-29.1500;-4.4300
1264.3140;-33.5000;-29.0100;-4.4900
1264.5130;-33.3900;-28.8800;-4.5100
1264.7120;-33.2600;-28.7300;-4.5300
1264.9120;-33.1000;-28.6100;-4.4900
1265.1110;-32.9200;-28.4600;-4.4600
1265.3100;-32.7300;-28.3200;-4.4100
1265.5090;-32.5300;-28.1900;-4.3400
1265.7080;-32.3200;-28.0500;-4.2700
1265.9070;-32.0900;-27.9300;-4.1600
1266.1060;-31.8600;-27.7800;-4.0800
1266.3050;-31.6400;-27.6600;-3.9800
1266.5040;-31.4100;-27.5400;-3.8700
1266.7040;-31.1800;-27.4100;-3.7700
1266.9030;-30.9500;-27.2900;-3.6600
1267.1020;-30.7100;-27.1600;-3.5500
1267.3010;-30.5000;-27.0400;-3.4600
1267.5000;-30.2700;-26.9300;-3.3400
1267.6990;-30.0600;-26.8000;-3.2600
1267.8980;-29.8400;-26.6900;-3.1500
1268.0970;-29.6300;-26.5700;-3.0600
1268.2970;-29.4300;-26.4600;-2.9700
1268.4960;-29.2300;-26.3500;-2.8800
1268.6950;-29.0300;-26.2300;-2.8000
1268.8940;-28.8200;-26.1200;-2.7000
1269.0930;-28.6300;-25.9700;-2.6600
1269.2920;-28.4500;-25.8800;-2.5700
1269.4910;-28.2800;-25.7600;-2.5200
1269.6900;-28.1300;-25.6600;-2.4700
1269.8890;-27.9700;-25.5300;-2.4400
1270.0890;-27.8300;-25.4100;-2.4200
1270.2880;-27.7200;-25.3100;-2.4100
1270.4870;-27.6100;-25.1900;-2.4200
1270.6860;-27.5300;-25.0800;-2.4500
1270.8850;-27.4400;-24.9600;-2.4800
1271.0840;-27.3800;-24.8500;-2.5300
1271.2830;-27.3400;-24.7400;-2.6000
1271.4820;-27.3100;-24.6200;-2.6900
1271.6810;-27.3000;-24.5200;-2.7800
1271.8810;-27.3000;-24.4100;-2.8900
1272.0800;-27.3100;-24.3000;-3.0100
1272.2790;-27.3400;-24.2000;-3.1400
1272.4780;-27.3700;-24.0800;-3.2900
1272.6770;-27.4200;-23.9900;-3.4300
1272.8760;-27.4600;-23.8700;-3.5900
1273.0750;-27.5000;-23.7700;-3.7300
1273.2740;-27.5400;-23.6700;-3.8700
1273.4740;-27.5700;-23.5600;-4.0100
1273.6730;-27.6000;-23.4600;-4.1400
1273.8720;-27.5900;-23.3500;-4.2400
1274.0710;-27.5800;-23.2400;-4.3400
1274.2700;-27.5400;-23.1400;-4.4000
1274.4690;-27.4700;-23.0300;-4.4400
1274.6680;-27.3900;-22.9400;-4.4500
1274.8670;-27.2700;-22.8300;-4.4400
1275.0660;-27.1500;-22.7300;-4.4200
1275.2660;-26.9700;-22.6300;-4.3400
1275.4650;-26.7900;-22.5300;-4.2600
1275.6640;-26.5800;-22.4400;-4.1400
1275.8630;-26.3500;-22.3400;-4.0100
1276.0620;-26.0700;-22.2500;-3.8200
1276.2610;-25.8500;-22.1600;-3.6900
1276.4600;-25.5900;-22.0700;-3.5200
1276.6590;-25.3000;-21.9900;-3.3100
1276.8580;-25.0200;-21.8900;-3.1300
1277.0580;-24.7300;-21.8200;-2.9100
1277.2570;-24.4500;-21.7300;-2.7200
1277.4560;-24.1800;-21.6500;-2.5300
1277.6550;-23.8900;-21.5900;-2.3000
1277.8540;-23.6300;-21.5000;-2.1300
1278.0530;-23.3700;-21.4300;-1.9400
1278.2520;-23.1300;-21.3400;-1.7900
1278.4510;-22.9200;-21.2700;-1.6500
1278.6500;-22.7000;-21.2000;-1.5000
1278.8500;-22.5300;-21.1100;-1.4200
1279.0490;-22.3600;-21.0400;-1.3200
1279.2480;-22.2200;-20.9500;-1.2700
1279.4470;-22.1200;-20.8800;-1.2400
1279.6460;-22.0400;-20.8000;-1.2400
1279.8450;-22.0000;-20.7100;-1.2900
1280.0440;-21.9800;-20.6500;-1.3300
1280.2430;-22.0000;-20.5500;-1.4500
1280.4430;-22.0600;-20.4700;-1.5900
1280.6420;-22.1500;-20.3900;-1.7600
1280.8410;-22.2900;-20.3000;-1.9900
1281.0400;-22.4600;-20.2400;-2.2200
1281.2390;-22.6800;-20.1500;-2.5300
1281.4380;-22.9500;-20.0700;-2.8800
1281.6370;-23.2500;-19.9900;-3.2600
1281.8360;-23.6200;-19.9100;-3.7100
1282.0350;-24.0100;-19.8400;-4.1700
1282.2350;-24.4500;-19.7500;-4.7000
1282.4340;-24.9300;-19.6900;-5.2400
1282.6330;-25.4300;-19.6200;-5.8100
1282.8320;-25.9500;-19.5400;-6.4100
1283.0310;-26.4000;-19.4900;-6.9100
1283.2300;-26.8100;-19.4100;-7.4000
1283.4290;-27.0900;-19.3500;-7.7400
1283.6280;-27.2200;-19.2700;-7.9500
1283.8270;-27.1800;-19.2000;-7.9800
1284.0270;-26.9500;-19.1500;-7.8000
1284.2260;-26.5900;-19.0800;-7.5100
1284.4250;-26.1100;-19.0300;-7.0800
1284.6240;-25.5700;-18.9500;-6.6200
1284.8230;-25.0300;-18.8900;-6.1400
1285.0220;-24.4700;-18.8400;-5.6300
1285.2210;-23.9600;-18.7700;-5.1900
1285.4200;-23.4700;-18.7200;-4.7500
1285.6200;-23.0300;-18.6400;-4.3900
1285.8190;-22.6500;-18.5900;-4.0600
1286.0180;-22.3000;-18.5300;-3.7700
1286.2170;-22.0200;-18.4700;-3.5500
1286.4160;-21.7700;-18.4200;-3.3500
1286.6150;-21.5800;-18.3600;-3.2200
1286.8140;-21.4200;-18.3100;-3.1100
1287.0130;-21.2900;-18.2600;-3.0300
1287.2120;-21.2100;-18.2000;-3.0100
1287.4120;-21.1300;-18.1700;-2.9600
1287.6110;-21.0800;-18.1100;-2.9700
1287.8100;-21.0400;-18.0700;-2.9700
1288.0090;-21.0000;-18.0200;-2.9800
1288.2080;-20.9700;-17.9700;-3.0000
1288.4070;-20.9100;-17.9400;-2.9700
1288.6060;-20.8500;-17.8900;-2.9600
1288.8050;-20.7500;-17.8600;-2.8900
1289.0040;-20.6300;-17.8100;-2.8200
1289.2040;-20.4900;-17.7700;-2.7200
1289.4030;-20.3000;-17.7400;-2.5600
1289.6020;-20.1100;-17.7000;-2.4100
1289.8010;-19.8900;-17.6700;-2.2200
1290.0000;-19.6500;-17.6200;-2.0300
1290.1990;-19.4400;-17.5800;-1.8600
1290.3980;-19.2000;-17.5500;-1.6500
1290.5970;-19.0000;-17.5200;-1.4800
1290.7970;-18.7800;-17.4900;-1.2900
1290.9960;-18.5800;-17.4300;-1.1500
1291.1950;-18.4200;-17.3900;-1.0300
1291.3940;-18.2800;-17.3500;-0.9300
1291.5930;-18.1700;-17.3000;-0.8700
1291.7920;-18.0800;-17.2700;-0.8100
1291.9910;-18.0400;-17.2100;-0.8300
1292.1900;-18.0300;-17.1800;-0.8500
1292.3890;-18.0400;-17.1300;-0.9100
1292.5890;-18.1000;-17.0800;-1.0200
1292.7880;-18.1800;-17.0500;-1.1300
1292.9870;-18.3100;-17.0000;-1.3100
1293.1860;-18.4600;-16.9700;-1.4900
1293.3850;-18.6400;-16.9200;-1.7200
1293.5840;-18.8600;-16.8700;-1.9900
1293.7830;-19.1000;-16.8400;-2.2600
1293.9820;-19.3800;-16.8000;-2.5800
1294.1810;-19.6700;-16.7900;-2.8800
1294.3810;-19.9800;-16.7400;-3.2400
1294.5800;-20.3200;-16.7000;-3.6200
1294.7790;-20.6700;-16.6700;-4.0000
1294.9780;-21.0500;-16.6400;-4.4100
1295.1770;-21.4200;-16.6200;-4.8000
1295.3760;-21.8200;-16.5900;-5.2300
1295.5750;-22.2200;-16.5600;-5.6600
1295.7740;-22.6400;-16.5200;-6.1200
1295.9740;-23.0700;-16.4900;-6.5800
1296.1730;-23.5200;-16.4700;-7.0500
1296.3720;-23.9900;-16.4400;-7.5500
1296.5710;-24.4600;-16.4100;-8.0500
1296.7700;-24.9700;-16.3800;-8.5900
1296.9690;-25.4900;-16.3600;-9.1300
1297.1680;-26.0200;-16.3400;-9.6800
1297.3670;-26.5400;-16.3100;-10.2300
1297.5660;-26.9800;-16.2900;-10.6900
1297.7660;-27.3700;-16.2600;-11.1100
1297.9650;-27.5800;-16.2400;-11.3400
1298.1640;-27.5900;-16.2100;-11.3800
1298.3630;-27.3800;-16.1900;-11.1900
1298.5620;-26.9000;-16.1800;-10.7200
1298.7610;-26.2700;-16.1500;-10.1200
1298.9600;-25.5200;-16.1400;-9.3800
1299.1590;-24.7100;-16.1200;-8.5900
1299.3580;-23.9000;-16.1100;-7.7900
1299.5580;-23.0700;-16.0900;-6.9800
1299.7570;-22.3300;-16.0800;-6.2500
1299.9560;-21.6200;-16.0800;-5.5400
1300.1550;-20.9600;-16.0700;-4.8900
1300.3540;-20.3800;-16.0700;-4.3100
1300.5530;-19.8400;-16.0400;-3.8000
1300.7520;-19.3800;-16.0400;-3.3400
1300.9510;-18.9600;-16.0400;-2.9200
1301.1500;-18.6200;-16.0400;-2.5800
1301.3500;-18.3300;-16.0500;-2.2800
1301.5490;-18.1000;-16.0400;-2.0600
1301.7480;-17.9300;-16.0400;-1.8900
1301.9470;-17.7900;-16.0400;-1.7500
1302.1460;-17.7400;-16.0400;-1.7000
1302.3450;-17.7100;-16.0500;-1.6600
1302.5440;-17.7600;-16.0500;-1.7100
1302.7430;-17.8500;-16.0600;-1.7900
1302.9430;-17.9900;-16.0500;-1.9400
1303.1420;-18.2000;-16.0600;-2.1400
1303.3410;-18.4400;-16.0800;-2.3600
1303.5400;-18.7500;-16.0800;-2.6700
1303.7390;-19.1000;-16.0900;-3.0100
1303.9380;-19.5000;-16.0900;-3.4100
1304.1370;-19.9600;-16.1000;-3.8600
1304.3360;-20.4200;-16.1200;-4.3000
1304.5350;-20.9400;-16.1300;-4.8100
1304.7350;-21.4400;-16.1500;-5.2900
1304.9340;-21.9300;-16.1500;-5.7800
1305.1330;-22.4000;-16.1700;-6.2300
1305.3320;-22.7700;-16.1900;-6.5800
1305.5310;-23.0800;-16.2100;-6.8700
1305.7300;-23.2500;-16.2300;-7.0200
1305.9290;-23.3100;-16.2400;-7.0700
1306.1280;-23.2800;-16.2600;-7.0200
1306.3270;-23.1400;-16.2800;-6.8600
1306.5270;-22.9800;-16.3000;-6.6800
1306.7260;-22.7700;-16.3400;-6.4300
1306.9250;-22.5800;-16.3500;-6.2300
1307.1240;-22.4200;-16.3800;-6.0400
1307.3230;-22.2900;-16.3900;-5.9000
1307.5220;-22.2400;-16.4200;-5.8200
1307.7210;-22.2300;-16.4600;-5.7700
1307.9200;-22.3100;-16.4700;-5.8400
1308.1200;-22.4700;-16.5100;-5.9600
1308.3190;-22.7100;-16.5200;-6.1900
1308.5180;-23.0700;-16.5500;-6.5200
1308.7170;-23.5200;-16.5700;-6.9500
1308.9160;-24.0900;-16.5900;-7.5000
1309.1150;-24.8000;-16.6200;-8.1800
1309.3140;-25.6500;-16.6300;-9.0200
1309.5130;-26.7000;-16.6700;-10.0300
1309.7120;-27.9100;-16.7000;-11.2100
1309.9120;-29.6500;-16.7100;-12.9400
1310.1110;-30.9700;-16.7500;-14.2200
1310.3100;-32.5300;-16.7700;-15.7600
1310.5090;-33.5400;-16.8100;-16.7300
1310.7080;-33.3000;-16.8400;-16.4600
1310.9070;-31.9300;-16.8600;-15.0700
1311.1060;-30.1700;-16.9200;-13.2500
1311.3050;-28.4800;-16.9400;-11.5400
1311.5040;-26.9900;-16.9800;-10.0100
1311.7040;-25.5100;-17.0200;-8.4900
1311.9030;-24.6000;-17.0600;-7.5400
1312.1020;-23.6800;-17.1200;-6.5600
1312.3010;-22.8700;-17.1600;-5.7100
1312.5000;-22.2000;-17.2300;-4.9700
1312.6990;-21.6300;-17.2700;-4.3600
1312.8980;-21.1300;-17.3200;-3.8100
1313.0970;-20.7300;-17.3800;-3.3500
1313.2970;-20.3800;-17.4300;-2.9500
1313.4960;-20.1100;-17.5100;-2.6000
1313.6950;-19.9000;-17.5500;-2.3500
1313.8940;-19.7200;-17.6000;-2.1200
1314.0930;-19.6200;-17.6800;-1.9400
1314.2920;-19.5200;-17.7200;-1.8000
1314.4910;-19.4800;-17.8000;-1.6800
1314.6900;-19.4600;-17.8500;-1.6100
1314.8890;-19.4600;-17.9100;-1.5500
1315.0890;-19.5000;-17.9500;-1.5500
1315.2880;-19.5300;-18.0100;-1.5200
1315.4870;-19.6000;-18.0900;-1.5100
1315.6860;-19.6600;-18.1300;-1.5300
1315.8850;-19.7300;-18.2000;-1.5300
1316.0840;-19.8100;-18.2500;-1.5600
1316.2830;-19.8700;-18.3100;-1.5600
1316.4820;-19.9600;-18.3800;-1.5800
1316.6810;-20.0200;-18.4600;-1.5600
1316.8810;-20.0900;-18.5100;-1.5800
1317.0800;-20.1700;-18.5800;-1.5900
1317.2790;-20.2300;-18.6600;-1.5700
1317.4780;-20.3100;-18.7200;-1.5900
1317.6770;-20.3700;-18.7900;-1.5800
1317.8760;-20.4500;-18.8600;-1.5900
1318.0750;-20.5300;-18.9200;-1.6100
1318.2740;-20.6200;-19.0000;-1.6200
1318.4740;-20.7400;-19.0600;-1.6800
1318.6730;-20.8600;-19.1600;-1.7000
1318.8720;-21.0000;-19.2200;-1.7800
1319.0710;-21.1500;-19.3100;-1.8400
1319.2700;-21.3200;-19.3800;-1.9400
1319.4690;-21.5100;-19.4600;-2.0500
1319.6680;-21.7100;-19.5500;-2.1600
1319.8670;-21.9400;-19.6200;-2.3200
1320.0660;-22.1600;-19.7100;-2.4500
1320.2660;-22.4000;-19.7900;-2.6100
1320.4650;-22.6600;-19.8700;-2.7900
1320.6640;-22.9200;-19.9700;-2.9500
1320.8630;-23.1900;-20.0500;-3.1400
1321.0620;-23.4400;-20.1500;-3.2900
1321.2610;-23.7200;-20.2300;-3.4900
1321.4600;-23.9700;-20.3200;-3.6500
1321.6590;-24.2200;-20.4200;-3.8000
1321.8580;-24.4600;-20.5000;-3.9600
1322.0580;-24.6800;-20.6100;-4.0700
1322.2570;-24.9000;-20.7000;-4.2000
1322.4560;-25.0800;-20.8000;-4.2800
1322.6550;-25.2500;-20.9000;-4.3500
1322.8540;-25.4100;-21.0000;-4.4100
1323.0530;-25.5400;-21.1200;-4.4200
1323.2520;-25.6600;-21.2100;-4.4500
1323.4510;-25.7500;-21.3300;-4.4200
1323.6500;-25.8200;-21.4300;-4.3900
1323.8500;-25.8600;-21.5400;-4.3200
1324.0490;-25.9000;-21.6700;-4.2300
1324.2480;-25.9200;-21.7700;-4.1500
1324.4470;-25.9000;-21.9000;-4.0000
1324.6460;-25.8900;-22.0000;-3.8900
1324.8450;-25.8400;-22.1200;-3.7200
1325.0440;-25.7900;-22.2500;-3.5400
1325.2430;-25.7400;-22.3600;-3.3800
1325.4430;-25.6600;-22.5000;-3.1600
1325.6420;-25.6100;-22.6200;-2.9900
1325.8410;-25.5200;-22.7500;-2.7700
1326.0400;-25.4500;-22.8800;-2.5700
1326.2390;-25.3900;-23.0100;-2.3800
1326.4380;-25.3300;-23.1500;-2.1800
1326.6370;-25.3000;-23.2800;-2.0200
1326.8360;-25.2600;-23.4200;-1.8400
1327.0350;-25.2500;-23.5500;-1.7000
1327.2350;-25.2500;-23.6900;-1.5600
1327.4340;-25.2700;-23.8400;-1.4300
1327.6330;-25.3300;-23.9700;-1.3600
1327.8320;-25.3800;-24.1200;-1.2600
1328.0310;-25.4900;-24.2500;-1.2400
1328.2300;-25.5900;-24.3900;-1.2000
1328.4290;-25.7200;-24.5400;-1.1800
1328.6280;-25.8700;-24.6800;-1.1900
1328.8270;-26.0300;-24.8300;-1.2000
1329.0270;-26.2300;-24.9700;-1.2600
1329.2260;-26.4200;-25.1200;-1.3000
1329.4250;-26.6300;-25.2600;-1.3700
1329.6240;-26.8400;-25.4000;-1.4400
1329.8230;-27.0600;-25.5600;-1.5000
1330.0220;-27.3000;-25.7000;-1.6000
1330.2210;-27.5300;-25.8500;-1.6800
1330.4200;-27.7600;-26.0000;-1.7600
1330.6200;-27.9900;-26.1400;-1.8500
1330.8190;-28.2200;-26.3000;-1.9200
1331.0180;-28.5000;-26.4500;-2.0500
1331.2170;-28.6900;-26.6200;-2.0700
1331.4160;-28.9300;-26.7600;-2.1700
1331.6150;-29.1500;-26.9300;-2.2200
1331.8140;-29.4000;-27.0800;-2.3200
1332.0130;-29.6300;-27.2300;-2.4000
1332.2120;-29.8900;-27.4000;-2.4900
1332.4120;-30.1700;-27.5600;-2.6100
1332.6110;-30.4700;-27.7300;-2.7400
1332.8100;-30.7900;-27.8800;-2.9100
1333.0090;-31.1300;-28.0400;-3.0900
1333.2080;-31.5000;-28.1900;-3.3100
1333.4070;-31.8800;-28.3500;-3.5300
1333.6060;-32.3000;-28.5500;-3.7500
1333.8050;-32.7400;-28.6800;-4.0600
1334.0040;-33.2000;-28.8500;-4.3500
1334.2040;-33.6700;-29.0000;-4.6700
1334.4030;-34.1200;-29.1700;-4.9500
1334.6020;-34.5600;-29.3200;-5.2400
1334.8010;-34.9600;-29.4900;-5.4700
1335.0000;-35.3000;-29.6600;-5.6400
1335.1990;-35.5700;-29.8200;-5.7500
1335.3980;-35.7200;-29.9900;-5.7300
1335.5970;-35.8000;-30.1500;-5.6500
1335.7970;-35.7900;-30.3300;-5.4600
1335.9960;-35.7000;-30.5000;-5.2000
1336.1950;-35.5600;-30.6700;-4.8900
1336.3940;-35.3800;-30.8500;-4.5300
1336.5930;-35.2000;-31.0100;-4.1900
1336.7920;-34.9900;-31.1900;-3.8000
1336.9910;-34.8400;-31.3600;-3.4800
1337.1900;-34.7100;-31.5400;-3.1700
1337.3890;-34.6200;-31.7300;-2.8900
1337.5890;-34.5900;-31.9100;-2.6800
1337.7880;-34.5900;-32.1000;-2.4900
1337.9870;-34.6600;-32.2700;-2.3900
1338.1860;-34.7800;-32.4600;-2.3200
1338.3850;-34.9700;-32.6300;-2.3400
1338.5840;-35.2400;-32.8100;-2.4300
1338.7830;-35.5500;-32.9900;-2.5600
1338.9820;-35.9700;-33.1700;-2.8000
1339.1810;-36.4500;-33.3600;-3.0900
1339.3810;-37.0200;-33.5300;-3.4900
1339.5800;-37.6900;-33.7100;-3.9800
1339.7790;-38.6300;-33.8800;-4.7500
1339.9780;-39.3700;-34.0600;-5.3100
1340.1770;-40.3900;-34.2500;-6.1400
1340.3760;-41.5800;-34.4200;-7.1600
1340.5750;-42.9100;-34.6100;-8.3000
1340.7740;-44.4100;-34.7800;-9.6300
1340.9740;-45.9800;-34.9600;-11.0200
1341.1730;-47.4800;-35.1400;-12.3400
1341.3720;-48.7000;-35.3100;-13.3900
1341.5710;-48.6500;-35.5000;-13.1500
1341.7700;-47.8900;-35.6700;-12.2200
1341.9690;-46.6700;-35.8600;-10.8100
1342.1680;-45.1900;-36.0400;-9.1500
1342.3670;-44.2400;-36.2200;-8.0200
1342.5660;-43.2700;-36.4200;-6.8500
1342.7660;-42.4000;-36.6000;-5.8000
1342.9650;-41.7100;-36.8000;-4.9100
1343.1640;-41.1300;-36.9900;-4.1400
1343.3630;-40.6800;-37.1700;-3.5100
1343.5620;-40.3300;-37.3800;-2.9500
1343.7610;-40.0500;-37.5600;-2.4900
1343.9600;-39.8900;-37.7800;-2.1100
1344.1590;-39.7800;-37.9700;-1.8100
1344.3580;-39.7400;-38.1600;-1.5800
1344.5580;-39.7700;-38.3700;-1.4000
1344.7570;-39.8500;-38.6000;-1.2500
1344.9560;-39.9900;-38.7500;-1.2400
1345.1550;-40.1600;-38.9300;-1.2300
1345.3540;-40.3800;-39.1200;-1.2600
1345.5530;-40.6500;-39.3000;-1.3500
1345.7520;-40.9400;-39.4900;-1.4500
1345.9510;-41.2900;-39.6800;-1.6100
1346.1500;-41.6300;-39.8600;-1.7700
1346.3500;-42.0000;-40.0600;-1.9400
1346.5490;-42.3900;-40.2500;-2.1400
1346.7480;-42.7500;-40.4400;-2.3100
1346.9470;-43.1300;-40.6100;-2.5200
1347.1460;-43.4700;-40.7900;-2.6800
1347.3450;-43.8000;-40.9600;-2.8400
1347.5440;-44.1400;-41.1800;-2.9600
1347.7430;-44.4800;-41.4200;-3.0600
1347.9430;-44.7800;-41.6200;-3.1600
1348.1420;-45.0200;-41.8100;-3.2100
1348.3410;-45.2700;-42.0000;-3.2700
1348.5400;-45.4500;-42.1500;-3.3000
1348.7390;-45.6600;-42.3300;-3.3300
1348.9380;-45.8500;-42.4900;-3.3600
1349.1370;-46.0600;-42.6700;-3.3900
1349.3360;-46.2800;-42.8200;-3.4600
1349.5350;-46.5100;-42.9900;-3.5200
1349.7350;-46.7600;-43.1600;-3.6000
1349.9340;-47.0400;-43.3400;-3.7000
1350.1330;-47.3600;-43.5500;-3.8100
1350.3320;-47.7500;-43.7900;-3.9600
1350.5310;-48.1000;-44.0100;-4.0900
1350.7300;-48.5100;-44.1900;-4.3200
1350.9290;-48.7600;-44.3400;-4.4200
1351.1280;-49.0400;-44.4900;-4.5500
1351.3270;-49.3200;-44.6400;-4.6800
1351.5270;-49.5900;-44.8400;-4.7500
1351.7260;-49.8800;-45.0700;-4.8100
1351.9250;-50.0700;-45.2700;-4.8000
1352.1240;-50.2000;-45.4500;-4.7500
1352.3230;-50.2900;-45.6400;-4.6500
1352.5220;-50.3700;-45.8600;-4.5100
1352.7210;-50.3400;-46.0100;-4.3300
1352.9200;-50.3100;-46.1900;-4.1200
1353.1200;-50.3700;-46.4500;-3.9200
1353.3190;-50.2700;-46.5800;-3.6900
1353.5180;-50.2500;-46.7700;-3.4800
1353.7170;-50.2500;-46.9500;-3.3000
1353.9160;-50.2000;-47.0800;-3.1200
1354.1150;-50.2100;-47.2400;-2.9700
1354.3140;-50.3300;-47.4600;-2.8700
1354.5130;-50.4500;-47.6700;-2.7800
1354.7120;-50.7000;-48.0000;-2.7000
1354.9120;-50.9800;-48.3000;-2.6800
1355.1110;-51.1500;-48.5100;-2.6400
1355.3100;-51.3200;-48.6200;-2.7000
1355.5090;-51.3600;-48.6200;-2.7400
1355.7080;-51.6700;-48.8900;-2.7800
1355.9070;-52.0100;-49.1800;-2.8300
1356.1060;-52.2200;-49.3500;-2.8700
1356.3050;-52.3700;-49.4600;-2.9100
1356.5040;-52.5100;-49.5400;-2.9700
1356.7040;-52.4300;-49.4800;-2.9500
1356.9030;-52.5600;-49.6300;-2.9300
1357.1020;-52.8800;-50.0100;-2.8700
1357.3010;-53.0400;-50.2500;-2.7900
1357.5000;-53.1000;-50.4300;-2.6700
1357.6990;-53.1600;-50.6100;-2.5500
1357.8980;-53.0900;-50.6700;-2.4200
1358.0970;-53.0100;-50.7400;-2.2700
1358.2970;-53.0700;-50.9200;-2.1500
1358.4960;-53.1900;-51.1500;-2.0400
1358.6950;-53.2400;-51.3100;-1.9300
1358.8940;-53.3200;-51.4500;-1.8700
1359.0930;-53.4600;-51.6000;-1.8600
1359.2920;-53.5200;-51.6600;-1.8600
1359.4910;-53.9500;-52.0200;-1.9300
1359.6900;-54.3800;-52.3300;-2.0500
1359.8890;-54.7700;-52.5200;-2.2500
1360.0890;-55.1200;-52.5800;-2.5400
1360.2880;-55.4600;-52.6000;-2.8600
1360.4870;-55.8400;-52.5800;-3.2600
1360.6860;-56.4900;-52.7500;-3.7400
1360.8850;-57.3900;-53.0900;-4.3000
1361.0840;-58.6200;-53.3900;-5.2300
1361.2830;-59.4600;-53.5400;-5.9200
1361.4820;-60.6800;-53.7200;-6.9600
1361.6810;-61.8500;-53.9300;-7.9200
1361.8810;-63.1500;-54.0500;-9.1000
1362.0800;-64.6400;-54.2800;-10.3600
1362.2790;-66.1200;-54.7100;-11.4100
1362.4780;-66.8900;-54.9500;-11.9400
1362.6770;-66.6800;-55.0900;-11.5900
1362.8760;-65.6200;-54.9800;-10.6400
1363.0750;-64.3700;-54.9500;-9.4200
1363.2740;-63.0100;-54.7200;-8.2900
1363.4740;-61.9700;-54.8300;-7.1400
1363.6730;-61.0200;-54.9200;-6.1000
1363.8720;-60.2600;-55.1000;-5.1600
1364.0710;-59.7200;-55.3300;-4.3900
1364.2700;-59.2500;-55.5400;-3.7100
1364.4690;-59.0100;-55.8700;-3.1400
1364.6680;-59.0800;-56.4000;-2.6800
1364.8670;-58.9000;-56.6600;-2.2400
1365.0660;-58.5600;-56.6700;-1.8900
1365.2660;-58.5200;-56.8300;-1.6900
1365.4650;-58.3300;-56.8000;-1.5300
1365.6640;-58.3400;-56.9000;-1.4400
1365.8630;-58.3700;-56.9700;-1.4000
1366.0620;-58.4100;-56.9800;-1.4300
1366.2610;-58.5200;-57.0100;-1.5100
1366.4600;-58.7200;-57.1000;-1.6200
1366.6590;-59.0900;-57.2800;-1.8100
1366.8580;-59.5200;-57.5400;-1.9800
1367.0580;-59.9000;-57.6900;-2.2100
1367.2570;-60.2700;-57.8300;-2.4400
1367.4560;-60.7900;-58.0800;-2.7100
1367.6550;-61.2000;-58.3000;-2.9000
1367.8540;-61.6900;-58.6400;-3.0500
1368.0530;-62.0000;-58.7400;-3.2600
1368.2520;-62.1300;-58.7300;-3.4000
1368.4510;-62.5000;-59.0800;-3.4200
1368.6500;-62.6200;-59.2000;-3.4200
1368.8500;-62.6400;-59.3200;-3.3200
1369.0490;-62.5600;-59.3300;-3.2300
1369.2480;-62.3700;-59.3100;-3.0600
1369.4470;-62.1200;-59.2700;-2.8500
1369.6460;-62.0700;-59.3900;-2.6800
1369.8450;-62.2400;-59.7400;-2.5000
1370.0440;-62.2800;-59.9700;-2.3100
1370.2430;-62.2500;-60.1300;-2.1200
1370.4430;-62.1900;-60.2200;-1.9700
1370.6420;-62.1600;-60.2700;-1.8900
1370.8410;-62.4300;-60.6000;-1.8300
1371.0400;-62.6800;-60.8800;-1.8000
1371.2390;-62.8900;-61.1000;-1.7900
1371.4380;-62.9800;-61.1700;-1.8100
1371.6370;-63.0800;-61.1800;-1.9000
1371.8360;-63.2100;-61.1900;-2.0200
1372.0350;-63.6100;-61.4100;-2.2000
1372.2350;-64.0200;-61.6500;-2.3700
1372.4340;-64.4100;-61.7800;-2.6300
1372.6330;-64.8000;-61.8700;-2.9300
1372.8320;-65.2300;-61.9900;-3.2400
1373.0310;-65.5800;-62.0600;-3.5200
1373.2300;-66.2200;-62.2600;-3.9600
1373.4290;-66.7600;-62.4300;-4.3300
1373.6280;-67.3900;-62.5900;-4.8000
1373.8270;-68.0300;-62.7200;-5.3100
1374.0270;-68.6200;-62.8600;-5.7600
1374.2260;-69.2000;-63.0100;-6.1900
1374.4250;-70.0100;-63.1800;-6.8300
1374.6240;-70.7100;-63.3700;-7.3400
1374.8230;-71.5400;-63.6100;-7.9300
1375.0220;-71.9600;-63.8200;-8.1400
1375.2210;-72.7800;-63.9600;-8.8200
1375.4200;-73.1800;-64.0900;-9.0900
1375.6200;-73.9700;-64.2400;-9.7300
1375.8190;-74.5600;-64.3500;-10.2100
1376.0180;-75.3300;-64.6300;-10.7000
1376.2170;-76.1500;-64.8400;-11.3100
1376.4160;-76.8500;-64.9500;-11.9000
1376.6150;-76.9500;-65.0900;-11.8600
1376.8140;-77.9500;-65.3600;-12.5900
1377.0130;-79.1500;-65.6500;-13.5000
1377.2120;-77.8500;-65.8200;-12.0300
1377.4120;-77.8100;-65.9800;-11.8300
1377.6110;-78.6200;-66.1200;-12.5000
1377.8100;-76.7800;-66.0800;-10.7000
1378.0090;-76.0800;-66.2400;-9.8400
1378.2080;-76.2200;-66.4500;-9.7700
1378.4070;-75.5000;-66.6500;-8.8500
1378.6060;-76.0000;-66.9600;-9.0400
1378.8050;-75.9900;-67.3100;-8.6800
1379.0040;-75.1600;-67.5800;-7.5800
1379.2040;-74.3600;-67.5800;-6.7800
1379.4030;-73.7900;-67.6700;-6.1200
1379.6020;-73.8800;-67.6000;-6.2800
1379.8010;-73.4600;-67.7800;-5.6800
1380.0000;-73.1200;-67.9000;-5.2200
1380.1990;-73.3600;-68.2200;-5.1400
1380.3980;-73.6000;-68.4500;-5.1500
1380.5970;-73.7900;-68.9800;-4.8100
1380.7970;-74.4400;-69.4000;-5.0400
1380.9960;-74.2700;-69.8200;-4.4500
1381.1950;-74.4300;-69.7300;-4.7000
1381.3940;-73.9200;-69.5500;-4.3700
1381.5930;-74.0500;-69.2500;-4.8000
1381.7920;-74.1400;-69.4100;-4.7300
1381.9910;-74.1900;-69.5600;-4.6300
1382.1900;-74.7100;-69.5600;-5.1500
1382.3890;-75.2700;-69.8100;-5.4600
1382.5890;-75.7900;-70.3700;-5.4200
1382.7880;-76.3700;-71.0100;-5.3600
1382.9870;-76.7500;-71.2100;-5.5400
1383.1860;-77.5000;-71.0200;-6.4800
1383.3850;-77.2000;-70.7200;-6.4800
1383.5840;-76.4300;-70.7300;-5.7000
1383.7830;-76.5700;-70.7900;-5.7800
1383.9820;-77.3900;-71.0800;-6.3100
1384.1810;-77.2900;-71.1900;-6.1000
1384.3810;-77.0100;-70.9600;-6.0500
1384.5800;-76.7400;-71.0900;-5.6500
1384.7790;-76.8700;-71.1500;-5.7200
1384.9780;-76.5600;-71.6000;-4.9600
1385.1770;-76.7900;-71.7200;-5.0700
1385.3760;-76.6100;-71.7600;-4.8500
1385.5750;-76.5800;-71.8100;-4.7700
1385.7740;-76.4300;-71.9300;-4.5000
1385.9740;-76.9600;-71.8800;-5.0800
1386.1730;-76.8100;-71.8100;-5.0000
1386.3720;-76.5500;-72.1600;-4.3900
1386.5710;-76.1200;-72.0500;-4.0700
1386.7700;-76.2100;-72.2900;-3.9200
1386.9690;-76.4800;-72.1600;-4.3200
1387.1680;-76.6300;-72.1900;-4.4400
1387.3670;-76.4300;-72.2700;-4.1600
1387.5660;-76.4100;-72.3600;-4.0500
1387.7660;-76.2900;-72.8700;-3.4200
1387.9650;-76.3100;-73.0200;-3.2900
1388.1640;-77.1700;-73.3700;-3.8000
1388.3630;-77.1700;-73.7700;-3.4000
1388.5620;-76.4800;-73.4300;-3.0500
1388.7610;-76.1200;-73.2400;-2.8800
1388.9600;-76.3800;-73.1600;-3.2200
1389.1590;-76.5600;-73.1100;-3.4500
1389.3580;-76.4800;-73.0000;-3.4800
1389.5580;-76.6000;-72.9300;-3.6700
1389.7570;-76.7200;-73.0200;-3.7000
1389.9560;-76.4400;-73.4700;-2.9700
1390.1550;-76.3900;-73.4300;-2.9600
1390.3540;-76.6500;-73.3000;-3.3500
1390.5530;-76.6000;-73.8100;-2.7900
1390.7520;-76.6500;-73.7500;-2.9000
1390.9510;-76.8700;-73.6000;-3.2700
1391.1500;-77.0400;-73.7500;-3.2900
1391.3500;-76.2600;-74.1300;-2.1300
1391.5490;-76.1300;-73.9000;-2.2300
1391.7480;-76.2600;-73.8400;-2.4200
1391.9470;-77.3100;-74.0200;-3.2900
1392.1460;-76.7700;-74.4400;-2.3300
1392.3450;-77.0300;-74.8600;-2.1700
1392.5440;-78.6900;-75.2400;-3.4500
1392.7430;-78.5300;-75.2500;-3.2800
1392.9430;-77.7400;-74.9900;-2.7500
1393.1420;-77.9700;-75.1000;-2.8700
1393.3410;-77.7100;-74.8600;-2.8500
1393.5400;-77.6200;-75.2700;-2.3500
1393.7390;-77.9700;-74.7100;-3.2600
1393.9380;-78.3900;-74.2900;-4.1000
1394.1370;-78.4200;-74.6900;-3.7300
1394.3360;-78.1600;-74.8400;-3.3200
1394.5350;-77.6000;-74.6800;-2.9200
1394.7350;-78.0900;-75.5700;-2.5200
1394.9340;-79.1400;-75.2700;-3.8700
1395.1330;-79.1400;-75.3100;-3.8300
1395.3320;-78.3200;-75.9000;-2.4200
1395.5310;-78.8400;-75.8400;-3.0000
1395.7300;-78.3200;-76.3200;-2.0000
1395.9290;-77.9200;-76.1900;-1.7300
1396.1280;-78.1900;-75.7100;-2.4800
1396.3270;-78.6900;-76.6800;-2.0100
1396.5270;-79.4000;-75.7100;-3.6900
1396.7260;-78.5300;-76.0400;-2.4900
1396.9250;-80.2000;-76.1100;-4.0900
1397.1240;-79.2700;-76.1900;-3.0800
1397.3230;-78.8700;-75.8100;-3.0600
1397.5220;-78.8100;-75.7800;-3.0300
1397.7210;-79.6400;-76.5900;-3.0500
1397.9200;-78.7200;-76.1900;-2.5300
1398.1200;-79.9200;-76.0400;-3.8800
1398.3190;-78.6100;-76.2200;-2.3900
1398.5180;-79.1200;-75.8700;-3.2500
1398.7170;-79.5100;-76.4600;-3.0500
1398.9160;-80.7600;-76.2200;-4.5400
1399.1150;-79.2100;-76.3600;-2.8500
1399.3140;-79.0600;-75.9700;-3.0900
1399.5130;-79.4100;-76.2000;-3.2100
1399.7120;-81.2300;-76.7800;-4.4500
1399.9120;-81.0900;-76.3800;-4.7100
1400.1110;-79.5100;-76.8900;-2.6200
1400.3100;-79.5100;-76.6200;-2.8900
1400.5090;-80.7600;-76.8900;-3.8700
1400.7080;-80.3300;-77.5300;-2.8000
1400.9070;-80.7100;-77.5300;-3.1800
1401.1060;-81.1300;-77.0800;-4.0500
1401.3050;-79.5100;-76.8900;-2.6200
1401.5040;-79.6800;-76.5000;-3.1800
1401.7040;-79.9300;-77.7900;-2.1400
1401.9030;-81.9500;-76.9600;-4.9900
1402.1020;-81.2900;-77.0200;-4.2700
1402.3010;-80.8900;-77.1400;-3.7500
1402.5000;-81.5500;-77.3400;-4.2100
1402.6990;-81.1800;-77.3200;-3.8600
1402.8980;-81.5500;-76.4000;-5.1500
1403.0970;-81.1300;-77.2300;-3.9000
1403.2970;-81.6600;-76.9200;-4.7400
1403.4960;-82.1300;-77.4600;-4.6700
1403.6950;-81.3400;-77.8400;-3.5000
1403.8940;-80.5400;-77.0400;-3.5000
1404.0930;-80.0500;-76.7100;-3.3400
1404.2920;-82.2500;-77.1600;-5.0900
1404.4910;-81.8900;-77.7200;-4.1700
1404.6900;-81.0900;-77.1700;-3.9200
1404.8890;-81.7100;-77.7000;-4.0100
1405.0890;-85.5300;-77.5700;-7.9600
1405.2880;-81.7700;-77.9100;-3.8600
1405.4870;-82.2500;-79.6800;-2.5700
1405.6860;-80.0500;-78.0000;-2.0500
1405.8850;-80.8500;-77.8800;-2.9700
1406.0840;-80.7600;-77.3800;-3.3800
1406.2830;-82.0100;-77.3600;-4.6500
1406.4820;-80.2500;-78.0300;-2.2200
1406.6810;-80.6800;-77.8700;-2.8100
1406.8810;-80.3800;-76.8200;-3.5600
1407.0800;-80.5500;-77.2000;-3.3500
1407.2790;-79.8700;-78.7100;-1.1600
1407.4780;-83.3500;-79.1900;-4.1600
1407.6770;-81.4000;-79.0100;-2.3900
1407.8760;-80.7700;-78.0900;-2.6800
1408.0750;-81.5000;-78.7700;-2.7300
1408.2740;-81.4500;-77.6200;-3.8300
1408.4740;-83.3500;-77.0500;-6.3000
1408.6730;-83.3500;-77.4100;-5.9400
1408.8720;-82.1400;-77.4500;-4.6900
1409.0710;-82.5300;-77.8500;-4.6800
1409.2700;-82.0200;-77.2400;-4.7800
1409.4690;-81.8400;-77.0700;-4.7700
1409.6680;-80.7700;-77.5800;-3.1900
1409.8670;-83.1900;-78.0100;-5.1800
1410.0660;-80.6800;-77.7600;-2.9200
1410.2660;-81.7200;-78.1800;-3.5400
1410.4650;-81.0500;-77.8200;-3.2300
1410.6640;-81.6700;-77.7600;-3.9100
1410.8630;-82.0200;-77.6700;-4.3500
1411.0620;-81.0000;-78.4400;-2.5600
1411.2610;-81.9000;-77.5100;-4.3900
1411.4600;-80.1800;-77.4100;-2.7700
1411.6590;-80.0200;-77.9900;-2.0300
1411.8580;-82.3900;-78.8300;-3.5600
1412.0580;-81.7800;-77.2200;-4.5600
1412.2570;-81.9600;-77.3700;-4.5900
1412.4560;-80.9000;-77.4100;-3.4900
1412.6550;-81.9000;-77.2700;-4.6300
1412.8540;-82.4600;-76.7000;-5.7600
1413.0530;-81.0500;-77.5400;-3.5100
1413.2520;-80.2600;-77.7100;-2.5500
1413.4510;-81.0500;-77.3700;-3.6800
1413.6500;-80.7300;-77.6800;-3.0500
1413.8500;-80.6000;-77.0600;-3.5400
1414.0490;-84.2600;-77.1400;-7.1200
1414.2480;-85.5500;-77.6800;-7.8700
1414.4470;-79.6700;-77.5000;-2.1700
1414.6460;-81.4600;-77.2800;-4.1800
1414.8450;-80.7800;-77.4200;-3.3600
1415.0440;-82.5400;-77.0000;-5.5400
1415.2430;-80.9100;-77.5500;-3.3600
1415.4430;-80.4300;-77.2100;-3.2200
1415.6420;-81.6800;-77.1000;-4.5800
1415.8410;-82.8200;-77.8100;-5.0100
1416.0400;-80.3900;-77.2800;-3.1100
1416.2390;-80.4300;-77.6100;-2.8200
1416.4380;-80.3500;-76.2900;-4.0600
1416.6370;-84.1600;-76.6700;-7.4900
1416.8360;-80.6900;-77.0200;-3.6700
1417.0350;-81.7300;-76.9800;-4.7500
1417.2350;-81.1500;-77.0200;-4.1300
1417.4340;-80.9600;-76.6500;-4.3100
1417.6330;-80.3500;-76.6700;-3.6800
1417.8320;-79.3600;-76.5900;-2.7700
1418.0310;-80.1100;-75.8900;-4.2200
1418.2300;-81.3600;-76.9300;-4.4300
1418.4290;-80.3500;-77.0200;-3.3300
1418.6280;-81.8500;-77.3000;-4.5500
1418.8270;-80.6000;-77.5700;-3.0300
1419.0270;-82.5400;-77.6500;-4.8900
1419.2260;-82.9700;-77.7400;-5.2300
1419.4250;-82.7500;-77.8300;-4.9200
1419.6240;-80.2700;-77.0200;-3.2500
1419.8230;-81.3100;-77.5700;-3.7400
1420.0220;-80.0700;-76.1700;-3.9000
1420.2210;-82.9700;-76.7100;-6.2600
1420.4200;-81.5700;-76.8900;-4.6800
1420.6200;-79.9500;-76.7100;-3.2400
1420.8190;-81.4100;-76.2900;-5.1200
1421.0180;-82.8900;-76.8500;-6.0400
1421.2170;-80.6000;-76.3200;-4.2800
1421.4160;-81.1100;-77.1200;-3.9900
1421.6150;-79.7100;-76.6000;-3.1100
1421.8140;-81.4700;-76.6300;-4.8400
1422.0130;-79.9600;-75.8400;-4.1200
1422.2120;-81.0700;-76.4900;-4.5800
1422.4120;-79.3700;-76.6100;-2.7600
1422.6110;-80.1200;-77.0700;-3.0500
1422.8100;-81.3200;-77.3300;-3.9900
1423.0090;-79.5400;-76.7400;-2.8000
1423.2080;-79.1500;-76.4400;-2.7100
1423.4070;-81.7400;-76.5300;-5.2100
1423.6060;-80.1600;-76.2300;-3.9300
1423.8050;-81.9200;-76.8600;-5.0600
1424.0040;-81.0700;-77.0100;-4.0600
1424.2040;-80.7900;-77.5100;-3.2800
1424.4030;-80.4000;-76.5300;-3.8700
1424.6020;-80.9700;-76.2500;-4.7200
1424.8010;-79.3700;-76.5300;-2.8400
1425.0000;-81.0200;-76.5300;-4.4900
