Wavelength;Intensity_Meas;Intensity_Ref;Difference_dB
1200.0000;-61.5200;-57.0400;-4.4800
1200.1990;-61.5100;-57.0100;-4.5000
1200.3980;-61.4700;-56.9700;-4.5000
1200.5970;-61.4600;-56.9600;-4.5000
1200.7970;-61.4400;-56.9200;-4.5200
1200.9960;-61.3700;-56.9000;-4.4700
1201.1950;-61.2900;-56.8600;-4.4300
1201.3940;-61.2900;-56.8000;-4.4900
1201.5930;-61.2400;-56.7800;-4.4600
1201.7920;-61.1600;-56.7400;-4.4200
1201.9910;-61.1200;-56.6800;-4.4400
1202.1900;-61.1000;-56.6500;-4.4500
1202.3890;-61.0400;-56.5600;-4.4800
1202.5890;-60.9800;-56.5200;-4.4600
1202.7880;-60.9300;-56.4800;-4.4500
1202.9870;-60.8900;-56.4300;-4.4600
1203.1860;-60.8600;-56.3600;-4.5000
1203.3850;-60.8200;-56.3000;-4.5200
1203.5840;-60.7900;-56.3000;-4.4900
1203.7830;-60.7700;-56.2500;-4.5200
1203.9820;-60.7700;-56.2000;-4.5700
1204.1810;-60.6900;-56.1500;-4.5400
1204.3810;-60.6700;-56.1100;-4.5600
1204.5800;-60.6400;-56.1100;-4.5300
1204.7790;-60.5800;-56.0600;-4.5200
1204.9780;-60.5600;-56.0100;-4.5500
1205.1770;-60.4900;-56.0000;-4.4900
1205.3760;-60.4300;-55.9800;-4.4500
1205.5750;-60.4100;-55.9600;-4.4500
1205.7740;-60.3800;-55.9300;-4.4500
1205.9740;-60.3200;-55.9100;-4.4100
1206.1730;-60.2300;-55.9200;-4.3100
1206.3720;-60.2200;-55.8800;-4.3400
1206.5710;-60.2200;-55.8700;-4.3500
1206.7700;-60.1600;-55.8300;-4.3300
1206.9690;-60.1000;-55.8100;-4.2900
1207.1680;-60.0900;-55.8300;-4.2600
1207.3670;-60.0900;-55.7800;-4.3100
1207.5660;-60.0600;-55.7300;-4.3300
1207.7660;-60.0000;-55.7100;-4.2900
1207.9650;-60.0100;-55.6900;-4.3200
1208.1640;-59.9900;-55.6500;-4.3400
1208.3630;-59.9600;-55.5800;-4.3800
1208.5620;-59.9200;-55.5500;-4.3700
1208.7610;-59.8700;-55.5300;-4.3400
1208.9600;-59.8500;-55.4700;-4.3800
1209.1590;-59.8300;-55.4200;-4.4100
1209.3580;-59.7900;-55.3500;-4.4400
1209.5580;-59.7200;-55.3200;-4.4000
1209.7570;-59.6900;-55.2900;-4.4000
1209.9560;-59.6800;-55.2200;-4.4600
1210.1550;-59.5800;-55.1700;-4.4100
1210.3540;-59.4900;-55.1200;-4.3700
1210.5530;-59.4700;-55.0900;-4.3800
1210.7520;-59.4500;-55.0300;-4.4200
1210.9510;-59.3900;-54.9700;-4.4200
1211.1500;-59.3000;-54.9500;-4.3500
1211.3500;-59.2400;-54.9100;-4.3300
1211.5490;-59.2100;-54.8600;-4.3500
1211.7480;-59.1600;-54.8200;-4.3400
1211.9470;-59.1100;-54.7900;-4.3200
1212.1460;-59.0400;-54.7700;-4.2700
1212.3450;-59.0200;-54.7300;-4.2900
1212.5440;-59.0100;-54.6800;-4.3300
1212.7430;-58.9500;-54.6700;-4.2800
1212.9430;-58.9100;-54.6400;-4.2700
1213.1420;-58.9000;-54.6200;-4.2800
1213.3410;-58.9100;-54.5800;-4.3300
1213.5400;-58.8800;-54.5600;-4.3200
1213.7390;-58.8300;-54.5500;-4.2800
1213.9380;-58.8400;-54.5200;-4.3200
1214.1370;-58.8400;-54.4700;-4.3700
1214.3360;-58.8000;-54.4200;-4.3800
1214.5350;-58.7800;-54.4100;-4.3700
1214.7350;-58.7600;-54.3900;-4.3700
1214.9340;-58.7600;-54.3300;-4.4300
1215.1330;-58.7200;-54.2800;-4.4400
1215.3320;-58.6600;-54.2400;-4.4200
1215.5310;-58.6200;-54.2100;-4.4100
1215.7300;-58.6100;-54.1500;-4.4600
1215.9290;-58.5700;-54.0900;-4.4800
1216.1280;-58.4700;-54.0500;-4.4200
1216.3270;-58.4000;-53.9900;-4.4100
1216.5270;-58.3700;-53.9400;-4.4300
1216.7260;-58.3000;-53.8800;-4.4200
1216.9250;-58.2400;-53.8200;-4.4200
1217.1240;-58.1500;-53.7900;-4.3600
1217.3230;-58.1000;-53.7100;-4.3900
1217.5220;-58.0400;-53.6500;-4.3900
1217.7210;-57.9400;-53.6100;-4.3300
1217.9200;-57.8600;-53.5600;-4.3000
1218.1200;-57.8000;-53.5200;-4.2800
1218.3190;-57.7600;-53.4500;-4.3100
1218.5180;-57.6700;-53.4300;-4.2400
1218.7170;-57.5800;-53.4000;-4.1800
1218.9160;-57.5500;-53.3500;-4.2000
1219.1150;-57.4900;-53.3100;-4.1800
1219.3140;-57.4300;-53.2700;-4.1600
1219.5130;-57.3700;-53.2500;-4.1200
1219.7120;-57.3300;-53.2200;-4.1100
1219.9120;-57.3200;-53.1700;-4.1500
1220.1110;-57.2600;-53.1600;-4.1000
1220.3100;-57.2200;-53.1200;-4.1000
1220.5090;-57.1800;-53.0900;-4.0900
1220.7080;-57.1600;-53.0400;-4.1200
1220.9070;-57.1400;-53.0000;-4.1400
1221.1060;-57.0700;-52.9700;-4.1000
1221.3050;-57.0600;-52.9200;-4.1400
1221.5040;-57.0300;-52.8600;-4.1700
1221.7040;-56.9800;-52.8100;-4.1700
1221.9030;-56.9400;-52.7700;-4.1700
1222.1020;-56.8900;-52.7100;-4.1800
1222.3010;-56.8700;-52.6400;-4.2300
1222.5000;-56.8000;-52.5700;-4.2300
1222.6990;-56.7400;-52.5100;-4.2300
1222.8980;-56.6900;-52.4500;-4.2400
1223.0970;-56.6400;-52.3900;-4.2500
1223.2970;-56.6000;-52.3000;-4.3000
1223.4960;-56.5100;-52.2300;-4.2800
1223.6950;-56.4500;-52.1700;-4.2800
1223.8940;-56.4300;-52.1000;-4.3300
1224.0930;-56.3600;-52.0400;-4.3200
1224.2920;-56.3100;-51.9700;-4.3400
1224.4910;-56.2400;-51.8900;-4.3500
1224.6900;-56.2200;-51.8400;-4.3800
1224.8890;-56.1900;-51.7600;-4.4300
1225.0890;-56.1200;-51.7200;-4.4000
1225.2880;-56.0700;-51.6500;-4.4200
1225.4870;-56.0400;-51.5800;-4.4600
1225.6860;-55.9900;-51.5300;-4.4600
1225.8850;-55.9500;-51.4900;-4.4600
1226.0840;-55.8700;-51.4400;-4.4300
1226.2830;-55.8300;-51.3800;-4.4500
1226.4820;-55.7400;-51.3200;-4.4200
1226.6810;-55.6800;-51.2900;-4.3900
1226.8810;-55.6000;-51.2400;-4.3600
1227.0800;-55.5200;-51.1900;-4.3300
1227.2790;-55.4600;-51.1300;-4.3300
1227.4780;-55.3400;-51.0800;-4.2600
1227.6770;-55.2500;-51.0300;-4.2200
1227.8760;-55.1700;-50.9700;-4.2000
1228.0750;-55.0600;-50.9200;-4.1400
1228.2740;-54.9800;-50.8600;-4.1200
1228.4740;-54.8700;-50.7900;-4.0800
1228.6730;-54.8000;-50.7300;-4.0700
1228.8720;-54.7300;-50.6700;-4.0600
1229.0710;-54.6300;-50.6100;-4.0200
1229.2700;-54.5900;-50.5200;-4.0700
1229.4690;-54.5300;-50.4400;-4.0900
1229.6680;-54.4900;-50.3800;-4.1100
1229.8670;-54.4400;-50.3000;-4.1400
1230.0660;-54.4200;-50.2300;-4.1900
1230.2660;-54.4300;-50.1400;-4.2900
1230.4650;-54.4200;-50.0500;-4.3700
1230.6640;-54.4200;-49.9900;-4.4300
1230.8630;-54.4700;-49.9200;-4.5500
1231.0620;-54.5200;-49.8500;-4.6700
1231.2610;-54.6000;-49.7800;-4.8200
1231.4600;-54.6500;-49.7200;-4.9300
1231.6590;-54.7200;-49.6600;-5.0600
1231.8580;-54.8000;-49.5900;-5.2100
1232.0580;-54.8600;-49.5400;-5.3200
1232.2570;-54.9100;-49.4700;-5.4400
1232.4560;-54.9600;-49.4200;-5.5400
1232.6550;-55.0000;-49.3600;-5.6400
1232.8540;-55.0000;-49.2900;-5.7100
1233.0530;-54.9900;-49.2600;-5.7300
1233.2520;-54.9700;-49.1900;-5.7800
1233.4510;-54.8900;-49.1300;-5.7600
1233.6500;-54.8000;-49.0800;-5.7200
1233.8500;-54.6700;-49.0100;-5.6600
1234.0490;-54.5400;-48.9700;-5.5700
1234.2480;-54.4000;-48.8900;-5.5100
1234.4470;-54.2000;-48.8300;-5.3700
1234.6460;-54.0200;-48.7700;-5.2500
1234.8450;-53.8400;-48.7000;-5.1400
1235.0440;-53.6400;-48.6300;-5.0100
1235.2430;-53.4400;-48.5500;-4.8900
1235.4430;-53.2300;-48.4800;-4.7500
1235.6420;-53.0800;-48.3900;-4.6900
1235.8410;-52.8900;-48.3000;-4.5900
1236.0400;-52.7200;-48.2300;-4.4900
1236.2390;-52.5800;-48.1300;-4.4500
1236.4380;-52.4600;-48.0600;-4.4000
1236.6370;-52.3500;-47.9700;-4.3800
1236.8360;-52.2300;-47.8700;-4.3600
1237.0350;-52.1500;-47.7900;-4.3600
1237.2350;-52.1000;-47.7000;-4.4000
1237.4340;-52.0200;-47.6200;-4.4000
1237.6330;-51.9800;-47.5300;-4.4500
1237.8320;-51.9500;-47.4600;-4.4900
1238.0310;-51.9200;-47.3700;-4.5500
1238.2300;-51.9100;-47.2900;-4.6200
1238.4290;-51.8800;-47.2200;-4.6600
1238.6280;-51.8900;-47.1400;-4.7500
1238.8270;-51.8600;-47.0600;-4.8000
1239.0270;-51.8200;-46.9800;-4.8400
1239.2260;-51.8000;-46.9000;-4.9000
1239.4250;-51.7700;-46.8300;-4.9400
1239.6240;-51.7300;-46.7400;-4.9900
1239.8230;-51.6400;-46.6600;-4.9800
1240.0220;-51.5700;-46.5700;-5.0000
1240.2210;-51.4900;-46.4800;-5.0100
1240.4200;-51.3700;-46.4000;-4.9700
1240.6200;-51.2500;-46.3000;-4.9500
1240.8190;-51.1200;-46.2000;-4.9200
1241.0180;-50.9800;-46.0800;-4.9000
1241.2170;-50.8400;-45.9700;-4.8700
1241.4160;-50.6800;-45.8400;-4.8400
1241.6150;-50.5600;-45.7400;-4.8200
1241.8140;-50.4300;-45.6300;-4.8000
1242.0130;-50.2900;-45.5000;-4.7900
1242.2120;-50.1800;-45.3900;-4.7900
1242.4120;-50.0900;-45.2600;-4.8300
1242.6110;-50.0000;-45.1300;-4.8700
1242.8100;-49.9100;-45.0100;-4.9000
1243.0090;-49.8400;-44.8600;-4.9800
1243.2080;-49.8000;-44.7500;-5.0500
1243.4070;-49.7500;-44.6100;-5.1400
1243.6060;-49.7000;-44.4700;-5.2300
1243.8050;-49.6700;-44.3600;-5.3100
1244.0040;-49.6400;-44.2200;-5.4200
1244.2040;-49.6000;-44.1000;-5.5000
1244.4030;-49.5700;-43.9700;-5.6000
1244.6020;-49.5500;-43.8300;-5.7200
1244.8010;-49.5100;-43.7200;-5.7900
1245.0000;-49.4600;-43.5900;-5.8700
1245.1990;-49.4300;-43.4700;-5.9600
1245.3980;-49.3800;-43.3300;-6.0500
1245.5970;-49.3300;-43.2000;-6.1300
1245.7970;-49.2700;-43.0700;-6.2000
1245.9960;-49.2200;-42.9300;-6.2900
1246.1950;-49.1900;-42.8000;-6.3900
1246.3940;-49.1300;-42.6500;-6.4800
1246.5930;-49.0900;-42.5000;-6.5900
1246.7920;-49.0600;-42.3700;-6.6900
1246.9910;-49.0100;-42.2000;-6.8100
1247.1900;-48.9800;-42.0600;-6.9200
1247.3890;-48.9500;-41.9100;-7.0400
1247.5890;-48.9200;-41.7400;-7.1800
1247.7880;-48.8700;-41.6000;-7.2700
1247.9870;-48.8300;-41.4300;-7.4000
1248.1860;-48.7900;-41.2800;-7.5100
1248.3850;-48.7400;-41.1100;-7.6300
1248.5840;-48.6800;-40.9400;-7.7400
1248.7830;-48.6000;-40.8000;-7.8000
1248.9820;-48.5400;-40.6400;-7.9000
1249.1810;-48.4500;-40.4900;-7.9600
1249.3810;-48.3500;-40.3300;-8.0200
1249.5800;-48.2600;-40.1700;-8.0900
1249.7790;-48.1500;-40.0300;-8.1200
1249.9780;-48.0200;-39.8600;-8.1600
1250.1770;-47.9000;-39.7200;-8.1800
1250.3760;-47.7800;-39.5700;-8.2100
1250.5750;-47.6400;-39.4100;-8.2300
1250.7740;-47.4900;-39.2700;-8.2200
1250.9740;-47.3600;-39.1200;-8.2400
1251.1730;-47.2100;-38.9800;-8.2300
1251.3720;-47.0300;-38.8100;-8.2200
1251.5710;-46.8800;-38.6600;-8.2200
1251.7700;-46.6800;-38.5100;-8.1700
1251.9690;-46.4700;-38.3400;-8.1300
1252.1680;-46.2100;-38.2000;-8.0100
1252.3670;-45.9400;-38.0200;-7.9200
1252.5660;-45.6100;-37.8700;-7.7400
1252.7660;-45.3100;-37.7000;-7.6100
1252.9650;-44.9500;-37.5400;-7.4100
1253.1640;-44.5300;-37.3800;-7.1500
1253.3630;-44.0800;-37.1900;-6.8900
1253.5620;-43.6100;-37.0300;-6.5800
1253.7610;-43.1100;-36.8600;-6.2500
1253.9600;-42.6200;-36.7000;-5.9200
1254.1590;-42.0900;-36.5500;-5.5400
1254.3580;-41.5700;-36.3700;-5.2000
1254.5580;-41.0800;-36.2200;-4.8600
1254.7570;-40.5700;-36.0500;-4.5200
1254.9560;-40.0900;-35.8700;-4.2200
1255.1550;-39.6200;-35.7500;-3.8700
1255.3540;-39.1700;-35.5900;-3.5800
1255.5530;-38.7500;-35.4700;-3.2800
1255.7520;-38.3400;-35.3100;-3.0300
1255.9510;-37.9800;-35.1600;-2.8200
1256.1500;-37.6200;-35.0200;-2.6000
1256.3500;-37.3000;-34.8700;-2.4300
1256.5490;-37.0000;-34.7500;-2.2500
1256.7480;-36.7300;-34.6000;-2.1300
1256.9470;-36.5000;-34.4600;-2.0400
1257.1460;-36.2700;-34.3100;-1.9600
1257.3450;-36.0900;-34.1600;-1.9300
1257.5440;-35.9200;-34.0300;-1.8900
1257.7430;-35.8200;-33.8700;-1.9500
1257.9430;-35.7100;-33.7300;-1.9800
1258.1420;-35.6500;-33.5700;-2.0800
1258.3410;-35.6100;-33.4200;-2.1900
1258.5400;-35.5900;-33.2800;-2.3100
1258.7390;-35.5900;-33.1100;-2.4800
1258.9380;-35.6100;-32.9600;-2.6500
1259.1370;-35.6600;-32.8000;-2.8600
1259.3360;-35.7300;-32.6400;-3.0900
1259.5350;-35.8100;-32.4900;-3.3200
1259.7350;-35.9100;-32.3200;-3.5900
1259.9340;-36.0100;-32.1700;-3.8400
1260.1330;-36.1400;-32.0200;-4.1200
1260.3320;-36.2700;-31.8600;-4.4100
1260.5310;-36.3900;-31.7200;-4.6700
1260.7300;-36.5100;-31.5600;-4.9500
1260.9290;-36.6000;-31.4100;-5.1900
1261.1280;-36.6700;-31.2500;-5.4200
1261.3270;-36.7100;-31.1100;-5.6000
1261.5270;-36.7000;-30.9800;-5.7200
1261.7260;-36.6400;-30.8300;-5.8100
1261.9250;-36.5100;-30.6900;-5.8200
1262.1240;-36.3200;-30.5400;-5.7800
1262.3230;-36.0800;-30.4000;-5.6800
1262.5220;-35.7800;-30.2700;-5.5100
1262.7210;-35.4300;-30.1300;-5.3000
1262.9200;-35.0200;-30.0000;-5.0200
1263.1200;-34.5900;-29.8500;-4.7400
1263.3190;-34.1500;-29.7100;-4.4400
1263.5180;-33.6900;-29.5800;-4.1100
1263.7170;-33.2500;-29.4400;-3.8100
1263.9160;-32.7800;-29.3000;-3.4800
1264.1150;-32.3400;-29.1500;-3.1900
1264.3140;-31.9100;-29.0100;-2.9000
1264.5130;-31.5000;-28.8800;-2.6200
1264.7120;-31.1300;-28.7300;-2.4000
1264.9120;-30.7600;-28.6100;-2.1500
1265.1110;-30.4300;-28.4600;-1.9700
1265.3100;-30.1400;-28.3200;-1.8200
1265.5090;-29.8800;-28.1900;-1.6900
1265.7080;-29.6600;-28.0500;-1.6100
1265.9070;-29.4700;-27.9300;-1.5400
1266.1060;-29.3100;-27.7800;-1.5300
1266.3050;-29.2000;-27.6600;-1.5400
1266.5040;-29.1200;-27.5400;-1.5800
1266.7040;-29.0900;-27.4100;-1.6800
1266.9030;-29.0800;-27.2900;-1.7900
1267.1020;-29.1200;-27.1600;-1.9600
1267.3010;-29.1800;-27.0400;-2.1400
1267.5000;-29.2900;-26.9300;-2.3600
1267.6990;-29.4200;-26.8000;-2.6200
1267.8980;-29.5600;-26.6900;-2.8700
1268.0970;-29.7500;-26.5700;-3.1800
1268.2970;-29.9500;-26.4600;-3.4900
1268.4960;-30.1600;-26.3500;-3.8100
1268.6950;-30.3900;-26.2300;-4.1600
1268.8940;-30.6000;-26.1200;-4.4800
1269.0930;-30.8300;-25.9700;-4.8600
1269.2920;-31.0400;-25.8800;-5.1600
1269.4910;-31.2400;-25.7600;-5.4800
1269.6900;-31.4400;-25.6600;-5.7800
1269.8890;-31.5800;-25.5300;-6.0500
1270.0890;-31.7300;-25.4100;-6.3200
1270.2880;-31.8500;-25.3100;-6.5400
1270.4870;-31.9600;-25.1900;-6.7700
1270.6860;-32.0700;-25.0800;-6.9900
1270.8850;-32.1500;-24.9600;-7.1900
1271.0840;-32.2500;-24.8500;-7.4000
1271.2830;-32.3500;-24.7400;-7.6100
1271.4820;-32.4700;-24.6200;-7.8500
1271.6810;-32.6100;-24.5200;-8.0900
1271.8810;-32.7600;-24.4100;-8.3500
1272.0800;-32.9300;-24.3000;-8.6300
1272.2790;-33.0800;-24.2000;-8.8800
1272.4780;-33.2200;-24.0800;-9.1400
1272.6770;-33.3300;-23.9900;-9.3400
1272.8760;-33.3700;-23.8700;-9.5000
1273.0750;-33.3300;-23.7700;-9.5600
1273.2740;-33.1700;-23.6700;-9.5000
1273.4740;-32.8900;-23.5600;-9.3300
1273.6730;-32.4900;-23.4600;-9.0300
1273.8720;-31.9900;-23.3500;-8.6400
1274.0710;-31.4200;-23.2400;-8.1800
1274.2700;-30.7700;-23.1400;-7.6300
1274.4690;-30.1100;-23.0300;-7.0800
1274.6680;-29.4500;-22.9400;-6.5100
1274.8670;-28.7800;-22.8300;-5.9500
1275.0660;-28.1700;-22.7300;-5.4400
1275.2660;-27.5700;-22.6300;-4.9400
1275.4650;-27.0300;-22.5300;-4.5000
1275.6640;-26.5300;-22.4400;-4.0900
1275.8630;-26.0200;-22.3400;-3.6800
1276.0620;-25.6800;-22.2500;-3.4300
1276.2610;-25.3400;-22.1600;-3.1800
1276.4600;-25.0600;-22.0700;-2.9900
1276.6590;-24.8200;-21.9900;-2.8300
1276.8580;-24.6600;-21.8900;-2.7700
1277.0580;-24.5300;-21.8200;-2.7100
1277.2570;-24.4800;-21.7300;-2.7500
1277.4560;-24.4800;-21.6500;-2.8300
1277.6550;-24.5300;-21.5900;-2.9400
1277.8540;-24.6500;-21.5000;-3.1500
1278.0530;-24.8000;-21.4300;-3.3700
1278.2520;-25.0100;-21.3400;-3.6700
1278.4510;-25.2700;-21.2700;-4.0000
1278.6500;-25.5400;-21.2000;-4.3400
1278.8500;-25.8500;-21.1100;-4.7400
1279.0490;-26.1300;-21.0400;-5.0900
1279.2480;-26.3800;-20.9500;-5.4300
1279.4470;-26.5800;-20.8800;-5.7000
1279.6460;-26.6700;-20.8000;-5.8700
1279.8450;-26.6600;-20.7100;-5.9500
1280.0440;-26.4800;-20.6500;-5.8300
1280.2430;-26.1800;-20.5500;-5.6300
1280.4430;-25.7600;-20.4700;-5.2900
1280.6420;-25.2500;-20.3900;-4.8600
1280.8410;-24.7100;-20.3000;-4.4100
1281.0400;-24.1300;-20.2400;-3.8900
1281.2390;-23.5700;-20.1500;-3.4200
1281.4380;-23.0300;-20.0700;-2.9600
1281.6370;-22.5200;-19.9900;-2.5300
1281.8360;-22.0800;-19.9100;-2.1700
1282.0350;-21.6700;-19.8400;-1.8300
1282.2350;-21.3300;-19.7500;-1.5800
1282.4340;-21.0200;-19.6900;-1.3300
1282.6330;-20.8000;-19.6200;-1.1800
1282.8320;-20.6400;-19.5400;-1.1000
1283.0310;-20.5200;-19.4900;-1.0300
1283.2300;-20.4800;-19.4100;-1.0700
1283.4290;-20.4900;-19.3500;-1.1400
1283.6280;-20.5700;-19.2700;-1.3000
1283.8270;-20.7200;-19.2000;-1.5200
1284.0270;-20.9300;-19.1500;-1.7800
1284.2260;-21.2400;-19.0800;-2.1600
1284.4250;-21.6100;-19.0300;-2.5800
1284.6240;-22.0700;-18.9500;-3.1200
1284.8230;-22.6200;-18.8900;-3.7300
1285.0220;-23.2600;-18.8400;-4.4200
1285.2210;-24.0300;-18.7700;-5.2600
1285.4200;-24.8700;-18.7200;-6.1500
1285.6200;-25.8200;-18.6400;-7.1800
1285.8190;-26.8200;-18.5900;-8.2300
1286.0180;-27.8100;-18.5300;-9.2800
1286.2170;-28.7900;-18.4700;-10.3200
1286.4160;-29.0900;-18.4200;-10.6700
1286.6150;-29.0300;-18.3600;-10.6700
1286.8140;-28.4300;-18.3100;-10.1200
1287.0130;-27.5300;-18.2600;-9.2700
1287.2120;-26.4900;-18.2000;-8.2900
1287.4120;-25.3100;-18.1700;-7.1400
1287.6110;-24.5200;-18.1100;-6.4100
1287.8100;-23.6800;-18.0700;-5.6100
1288.0090;-22.9400;-18.0200;-4.9200
1288.2080;-22.2900;-17.9700;-4.3200
1288.4070;-21.7500;-17.9400;-3.8100
1288.6060;-21.2900;-17.8900;-3.4000
1288.8050;-20.9200;-17.8600;-3.0600
1289.0040;-20.6300;-17.8100;-2.8200
1289.2040;-20.4200;-17.7700;-2.6500
1289.4030;-20.2900;-17.7400;-2.5500
1289.6020;-20.2000;-17.7000;-2.5000
1289.8010;-20.2000;-17.6700;-2.5300
1290.0000;-20.2700;-17.6200;-2.6500
1290.1990;-20.4000;-17.5800;-2.8200
1290.3980;-20.6100;-17.5500;-3.0600
1290.5970;-20.8700;-17.5200;-3.3500
1290.7970;-21.2100;-17.4900;-3.7200
1290.9960;-21.6100;-17.4300;-4.1800
1291.1950;-22.0900;-17.3900;-4.7000
1291.3940;-22.6600;-17.3500;-5.3100
1291.5930;-23.2900;-17.3000;-5.9900
1291.7920;-24.0300;-17.2700;-6.7600
1291.9910;-24.8600;-17.2100;-7.6500
1292.1900;-25.7900;-17.1800;-8.6100
1292.3890;-26.8300;-17.1300;-9.7000
1292.5890;-27.9300;-17.0800;-10.8500
1292.7880;-29.3700;-17.0500;-12.3200
1292.9870;-30.2900;-17.0000;-13.2900
1293.1860;-31.2200;-16.9700;-14.2500
1293.3850;-31.6900;-16.9200;-14.7700
1293.5840;-31.5500;-16.8700;-14.6800
1293.7830;-30.8800;-16.8400;-14.0400
1293.9820;-29.8800;-16.8000;-13.0800
1294.1810;-28.8000;-16.7900;-12.0100
1294.3810;-27.7000;-16.7400;-10.9600
1294.5800;-26.6700;-16.7000;-9.9700
1294.7790;-25.6000;-16.6700;-8.9300
1294.9780;-24.9100;-16.6400;-8.2700
1295.1770;-24.1500;-16.6200;-7.5300
1295.3760;-23.4600;-16.5900;-6.8700
1295.5750;-22.8500;-16.5600;-6.2900
1295.7740;-22.2800;-16.5200;-5.7600
1295.9740;-21.7800;-16.4900;-5.2900
1296.1730;-21.3300;-16.4700;-4.8600
1296.3720;-20.9400;-16.4400;-4.5000
1296.5710;-20.6000;-16.4100;-4.1900
1296.7700;-20.2900;-16.3800;-3.9100
1296.9690;-20.0600;-16.3600;-3.7000
1297.1680;-19.8500;-16.3400;-3.5100
1297.3670;-19.6900;-16.3100;-3.3800
1297.5660;-19.5900;-16.2900;-3.3000
1297.7660;-19.5200;-16.2600;-3.2600
1297.9650;-19.5200;-16.2400;-3.2800
1298.1640;-19.5600;-16.2100;-3.3500
1298.3630;-19.6500;-16.1900;-3.4600
1298.5620;-19.8000;-16.1800;-3.6200
1298.7610;-20.0000;-16.1500;-3.8500
1298.9600;-20.2800;-16.1400;-4.1400
1299.1590;-20.6000;-16.1200;-4.4800
1299.3580;-20.9900;-16.1100;-4.8800
1299.5580;-21.4400;-16.0900;-5.3500
1299.7570;-21.9500;-16.0800;-5.8700
1299.9560;-22.5400;-16.0800;-6.4600
1300.1550;-23.1400;-16.0700;-7.0700
1300.3540;-23.7900;-16.0700;-7.7200
1300.5530;-24.3800;-16.0400;-8.3400
1300.7520;-24.8900;-16.0400;-8.8500
1300.9510;-25.2500;-16.0400;-9.2100
1301.1500;-25.3400;-16.0400;-9.3000
1301.3500;-25.1600;-16.0500;-9.1100
1301.5490;-24.7100;-16.0400;-8.6700
1301.7480;-24.0800;-16.0400;-8.0400
1301.9470;-23.3600;-16.0400;-7.3200
1302.1460;-22.6000;-16.0400;-6.5600
1302.3450;-21.8500;-16.0500;-5.8000
1302.5440;-21.1400;-16.0500;-5.0900
1302.7430;-20.4900;-16.0600;-4.4300
1302.9430;-19.9000;-16.0500;-3.8500
1303.1420;-19.3800;-16.0600;-3.3200
1303.3410;-18.9400;-16.0800;-2.8600
1303.5400;-18.5400;-16.0800;-2.4600
1303.7390;-18.2100;-16.0900;-2.1200
1303.9380;-17.9300;-16.0900;-1.8400
1304.1370;-17.7200;-16.1000;-1.6200
1304.3360;-17.5600;-16.1200;-1.4400
1304.5350;-17.4400;-16.1300;-1.3100
1304.7350;-17.3700;-16.1500;-1.2200
1304.9340;-17.3200;-16.1500;-1.1700
1305.1330;-17.3300;-16.1700;-1.1600
1305.3320;-17.3800;-16.1900;-1.1900
1305.5310;-17.4400;-16.2100;-1.2300
1305.7300;-17.5300;-16.2300;-1.3000
1305.9290;-17.6200;-16.2400;-1.3800
1306.1280;-17.7400;-16.2600;-1.4800
1306.3270;-17.8500;-16.2800;-1.5700
1306.5270;-17.9700;-16.3000;-1.6700
1306.7260;-18.0700;-16.3400;-1.7300
1306.9250;-18.1300;-16.3500;-1.7800
1307.1240;-18.2000;-16.3800;-1.8200
1307.3230;-18.2200;-16.3900;-1.8300
1307.5220;-18.2300;-16.4200;-1.8100
1307.7210;-18.2100;-16.4600;-1.7500
1307.9200;-18.1600;-16.4700;-1.6900
1308.1200;-18.1100;-16.5100;-1.6000
1308.3190;-18.0400;-16.5200;-1.5200
1308.5180;-17.9800;-16.5500;-1.4300
1308.7170;-17.9300;-16.5700;-1.3600
1308.9160;-17.8600;-16.5900;-1.2700
1309.1150;-17.8500;-16.6200;-1.2300
1309.3140;-17.8400;-16.6300;-1.2100
1309.5130;-17.8800;-16.6700;-1.2100
1309.7120;-17.9400;-16.7000;-1.2400
1309.9120;-18.0300;-16.7100;-1.3200
1310.1110;-18.1800;-16.7500;-1.4300
1310.3100;-18.3500;-16.7700;-1.5800
1310.5090;-18.5800;-16.8100;-1.7700
1310.7080;-18.8600;-16.8400;-2.0200
1310.9070;-19.1800;-16.8600;-2.3200
1311.1060;-19.5700;-16.9200;-2.6500
1311.3050;-19.9900;-16.9400;-3.0500
1311.5040;-20.4800;-16.9800;-3.5000
1311.7040;-20.9900;-17.0200;-3.9700
1311.9030;-21.5400;-17.0600;-4.4800
1312.1020;-22.1400;-17.1200;-5.0200
1312.3010;-22.7300;-17.1600;-5.5700
1312.5000;-23.3400;-17.2300;-6.1100
1312.6990;-23.8800;-17.2700;-6.6100
1312.8980;-24.3500;-17.3200;-7.0300
1313.0970;-24.7100;-17.3800;-7.3300
1313.2970;-24.9200;-17.4300;-7.4900
1313.4960;-25.0100;-17.5100;-7.5000
1313.6950;-24.9100;-17.5500;-7.3600
1313.8940;-24.7200;-17.6000;-7.1200
1314.0930;-24.4400;-17.6800;-6.7600
1314.2920;-24.1100;-17.7200;-6.3900
1314.4910;-23.7800;-17.8000;-5.9800
1314.6900;-23.4300;-17.8500;-5.5800
1314.8890;-23.1300;-17.9100;-5.2200
1315.0890;-22.8300;-17.9500;-4.8800
1315.2880;-22.5900;-18.0100;-4.5800
1315.4870;-22.4000;-18.0900;-4.3100
1315.6860;-22.2300;-18.1300;-4.1000
1315.8850;-22.1200;-18.2000;-3.9200
1316.0840;-22.0300;-18.2500;-3.7800
1316.2830;-22.0000;-18.3100;-3.6900
1316.4820;-21.9900;-18.3800;-3.6100
1316.6810;-22.0100;-18.4600;-3.5500
1316.8810;-22.0600;-18.5100;-3.5500
1317.0800;-22.1400;-18.5800;-3.5600
1317.2790;-22.2400;-18.6600;-3.5800
1317.4780;-22.3500;-18.7200;-3.6300
1317.6770;-22.4600;-18.7900;-3.6700
1317.8760;-22.5900;-18.8600;-3.7300
1318.0750;-22.7200;-18.9200;-3.8000
1318.2740;-22.8700;-19.0000;-3.8700
1318.4740;-23.0000;-19.0600;-3.9400
1318.6730;-23.1600;-19.1600;-4.0000
1318.8720;-23.3000;-19.2200;-4.0800
1319.0710;-23.4500;-19.3100;-4.1400
1319.2700;-23.6100;-19.3800;-4.2300
1319.4690;-23.7500;-19.4600;-4.2900
1319.6680;-23.9300;-19.5500;-4.3800
1319.8670;-24.0800;-19.6200;-4.4600
1320.0660;-24.2600;-19.7100;-4.5500
1320.2660;-24.4500;-19.7900;-4.6600
1320.4650;-24.6500;-19.8700;-4.7800
1320.6640;-24.8800;-19.9700;-4.9100
1320.8630;-25.0900;-20.0500;-5.0400
1321.0620;-25.3400;-20.1500;-5.1900
1321.2610;-25.5900;-20.2300;-5.3600
1321.4600;-25.8600;-20.3200;-5.5400
1321.6590;-26.1500;-20.4200;-5.7300
1321.8580;-26.4300;-20.5000;-5.9300
1322.0580;-26.7400;-20.6100;-6.1300
1322.2570;-27.0400;-20.7000;-6.3400
1322.4560;-27.3600;-20.8000;-6.5600
1322.6550;-27.6800;-20.9000;-6.7800
1322.8540;-28.0000;-21.0000;-7.0000
1323.0530;-28.3500;-21.1200;-7.2300
1323.2520;-28.7500;-21.2100;-7.5400
1323.4510;-29.0500;-21.3300;-7.7200
1323.6500;-29.3900;-21.4300;-7.9600
1323.8500;-29.7900;-21.5400;-8.2500
1324.0490;-30.1900;-21.6700;-8.5200
1324.2480;-30.6300;-21.7700;-8.8600
1324.4470;-31.1200;-21.9000;-9.2200
1324.6460;-31.6300;-22.0000;-9.6300
1324.8450;-32.2200;-22.1200;-10.1000
1325.0440;-32.8600;-22.2500;-10.6100
1325.2430;-33.5800;-22.3600;-11.2200
1325.4430;-34.3900;-22.5000;-11.8900
1325.6420;-35.2800;-22.6200;-12.6600
1325.8410;-36.2500;-22.7500;-13.5000
1326.0400;-37.2400;-22.8800;-14.3600
1326.2390;-38.2200;-23.0100;-15.2100
1326.4380;-39.1700;-23.1500;-16.0200
1326.6370;-39.4800;-23.2800;-16.2000
1326.8360;-39.4200;-23.4200;-16.0000
1327.0350;-38.9100;-23.5500;-15.3600
1327.2350;-38.0800;-23.6900;-14.3900
1327.4340;-37.1100;-23.8400;-13.2700
1327.6330;-35.9500;-23.9700;-11.9800
1327.8320;-35.1900;-24.1200;-11.0700
1328.0310;-34.3700;-24.2500;-10.1200
1328.2300;-33.6200;-24.3900;-9.2300
1328.4290;-32.9700;-24.5400;-8.4300
1328.6280;-32.3900;-24.6800;-7.7100
1328.8270;-31.9000;-24.8300;-7.0700
1329.0270;-31.4900;-24.9700;-6.5200
1329.2260;-31.1300;-25.1200;-6.0100
1329.4250;-30.8300;-25.2600;-5.5700
1329.6240;-30.5800;-25.4000;-5.1800
1329.8230;-30.3800;-25.5600;-4.8200
1330.0220;-30.2300;-25.7000;-4.5300
1330.2210;-30.1000;-25.8500;-4.2500
1330.4200;-30.0200;-26.0000;-4.0200
1330.6200;-29.9400;-26.1400;-3.8000
1330.8190;-29.9000;-26.3000;-3.6000
1331.0180;-29.8700;-26.4500;-3.4200
1331.2170;-29.8500;-26.6200;-3.2300
1331.4160;-29.8500;-26.7600;-3.0900
1331.6150;-29.8400;-26.9300;-2.9100
1331.8140;-29.8400;-27.0800;-2.7600
1332.0130;-29.8400;-27.2300;-2.6100
1332.2120;-29.8400;-27.4000;-2.4400
1332.4120;-29.8600;-27.5600;-2.3000
1332.6110;-29.8800;-27.7300;-2.1500
1332.8100;-29.9200;-27.8800;-2.0400
1333.0090;-29.9600;-28.0400;-1.9200
1333.2080;-30.0100;-28.1900;-1.8200
1333.4070;-30.0900;-28.3500;-1.7400
1333.6060;-30.1900;-28.5500;-1.6400
1333.8050;-30.3300;-28.6800;-1.6500
1334.0040;-30.4900;-28.8500;-1.6400
1334.2040;-30.7000;-29.0000;-1.7000
1334.4030;-30.9400;-29.1700;-1.7700
1334.6020;-31.2400;-29.3200;-1.9200
1334.8010;-31.5900;-29.4900;-2.1000
1335.0000;-32.0000;-29.6600;-2.3400
1335.1990;-32.4800;-29.8200;-2.6600
1335.3980;-33.0100;-29.9900;-3.0200
1335.5970;-33.6400;-30.1500;-3.4900
1335.7970;-34.3600;-30.3300;-4.0300
1335.9960;-35.1700;-30.5000;-4.6700
1336.1950;-36.1100;-30.6700;-5.4400
1336.3940;-37.1600;-30.8500;-6.3100
1336.5930;-38.3800;-31.0100;-7.3700
1336.7920;-40.0400;-31.1900;-8.8500
1336.9910;-41.3100;-31.3600;-9.9500
1337.1900;-42.9500;-31.5400;-11.4100
1337.3890;-44.5300;-31.7300;-12.8000
1337.5890;-45.5800;-31.9100;-13.6700
1337.7880;-45.6100;-32.1000;-13.5100
1337.9870;-44.7300;-32.2700;-12.4600
1338.1860;-43.4100;-32.4600;-10.9500
1338.3850;-42.0900;-32.6300;-9.4600
1338.5840;-40.8900;-32.8100;-8.0800
1338.7830;-39.8800;-32.9900;-6.8900
1338.9820;-39.0500;-33.1700;-5.8800
1339.1810;-38.3500;-33.3600;-4.9900
1339.3810;-37.8100;-33.5300;-4.2800
1339.5800;-37.3700;-33.7100;-3.6600
1339.7790;-37.0400;-33.8800;-3.1600
1339.9780;-36.8300;-34.0600;-2.7700
1340.1770;-36.7100;-34.2500;-2.4600
1340.3760;-36.6900;-34.4200;-2.2700
1340.5750;-36.7500;-34.6100;-2.1400
1340.7740;-36.8900;-34.7800;-2.1100
1340.9740;-37.1000;-34.9600;-2.1400
1341.1730;-37.4000;-35.1400;-2.2600
1341.3720;-37.8000;-35.3100;-2.4900
1341.5710;-38.2800;-35.5000;-2.7800
1341.7700;-38.8700;-35.6700;-3.2000
1341.9690;-39.5400;-35.8600;-3.6800
1342.1680;-40.3400;-36.0400;-4.3000
1342.3670;-41.2500;-36.2200;-5.0300
1342.5660;-42.3100;-36.4200;-5.8900
1342.7660;-43.5600;-36.6000;-6.9600
1342.9650;-44.9600;-36.8000;-8.1600
1343.1640;-46.6200;-36.9900;-9.6300
1343.3630;-48.9400;-37.1700;-11.7700
1343.5620;-50.5800;-37.3800;-13.2000
1343.7610;-52.4300;-37.5600;-14.8700
1343.9600;-53.3600;-37.7800;-15.5800
1344.1590;-52.8000;-37.9700;-14.8300
1344.3580;-51.3500;-38.1600;-13.1900
1344.5580;-49.8200;-38.3700;-11.4500
1344.7570;-48.4400;-38.6000;-9.8400
1344.9560;-47.2900;-38.7500;-8.5400
1345.1550;-46.3700;-38.9300;-7.4400
1345.3540;-45.5100;-39.1200;-6.3900
1345.5530;-45.0600;-39.3000;-5.7600
1345.7520;-44.6400;-39.4900;-5.1500
1345.9510;-44.3500;-39.6800;-4.6700
1346.1500;-44.1400;-39.8600;-4.2800
1346.3500;-44.0600;-40.0600;-4.0000
1346.5490;-44.0600;-40.2500;-3.8100
1346.7480;-44.1300;-40.4400;-3.6900
1346.9470;-44.2900;-40.6100;-3.6800
1347.1460;-44.5100;-40.7900;-3.7200
1347.3450;-44.7900;-40.9600;-3.8300
1347.5440;-45.1800;-41.1800;-4.0000
1347.7430;-45.6600;-41.4200;-4.2400
1347.9430;-46.1900;-41.6200;-4.5700
1348.1420;-46.7300;-41.8100;-4.9200
1348.3410;-47.3400;-42.0000;-5.3400
1348.5400;-47.9400;-42.1500;-5.7900
1348.7390;-48.7500;-42.3300;-6.4200
1348.9380;-49.2800;-42.4900;-6.7900
1349.1370;-49.9500;-42.6700;-7.2800
1349.3360;-50.5700;-42.8200;-7.7500
1349.5350;-51.1600;-42.9900;-8.1700
1349.7350;-51.6700;-43.1600;-8.5100
1349.9340;-52.0600;-43.3400;-8.7200
1350.1330;-52.3700;-43.5500;-8.8200
1350.3320;-52.6000;-43.7900;-8.8100
1350.5310;-52.6900;-44.0100;-8.6800
1350.7300;-52.6500;-44.1900;-8.4600
1350.9290;-52.5100;-44.3400;-8.1700
1351.1280;-52.3300;-44.4900;-7.8400
1351.3270;-52.1500;-44.6400;-7.5100
1351.5270;-52.0000;-44.8400;-7.1600
1351.7260;-51.9100;-45.0700;-6.8400
1351.9250;-51.7800;-45.2700;-6.5100
1352.1240;-51.6500;-45.4500;-6.2000
1352.3230;-51.5400;-45.6400;-5.9000
1352.5220;-51.4700;-45.8600;-5.6100
1352.7210;-51.3400;-46.0100;-5.3300
1352.9200;-51.2300;-46.1900;-5.0400
1353.1200;-51.2300;-46.4500;-4.7800
1353.3190;-51.0800;-46.5800;-4.5000
1353.5180;-51.0100;-46.7700;-4.2400
1353.7170;-50.9400;-46.9500;-3.9900
1353.9160;-50.8100;-47.0800;-3.7300
1354.1150;-50.7400;-47.2400;-3.5000
1354.3140;-50.7700;-47.4600;-3.3100
1354.5130;-50.7800;-47.6700;-3.1100
1354.7120;-50.9200;-48.0000;-2.9200
1354.9120;-51.0800;-48.3000;-2.7800
1355.1110;-51.1400;-48.5100;-2.6300
1355.3100;-51.2000;-48.6200;-2.5800
1355.5090;-51.1600;-48.6200;-2.5400
1355.7080;-51.4200;-48.8900;-2.5300
1355.9070;-51.7300;-49.1800;-2.5500
1356.1060;-51.9700;-49.3500;-2.6200
1356.3050;-52.1900;-49.4600;-2.7300
1356.5040;-52.4700;-49.5400;-2.9300
1356.7040;-52.5700;-49.4800;-3.0900
1356.9030;-52.9700;-49.6300;-3.3400
1357.1020;-53.5700;-50.0100;-3.5600
1357.3010;-54.1100;-50.2500;-3.8600
1357.5000;-54.6200;-50.4300;-4.1900
1357.6990;-55.1200;-50.6100;-4.5100
1357.8980;-55.4600;-50.6700;-4.7900
1358.0970;-55.7500;-50.7400;-5.0100
1358.2970;-56.1100;-50.9200;-5.1900
1358.4960;-56.4000;-51.1500;-5.2500
1358.6950;-56.5000;-51.3100;-5.1900
1358.8940;-56.5000;-51.4500;-5.0500
1359.0930;-56.4000;-51.6000;-4.8000
1359.2920;-56.1300;-51.6600;-4.4700
1359.4910;-56.1600;-52.0200;-4.1400
1359.6900;-56.0800;-52.3300;-3.7500
1359.8890;-55.8300;-52.5200;-3.3100
1360.0890;-55.4900;-52.5800;-2.9100
1360.2880;-55.1600;-52.6000;-2.5600
1360.4870;-54.8700;-52.5800;-2.2900
1360.6860;-54.7700;-52.7500;-2.0200
1360.8850;-54.9000;-53.0900;-1.8100
1361.0840;-55.0500;-53.3900;-1.6600
1361.2830;-55.1000;-53.5400;-1.5600
1361.4820;-55.2500;-53.7200;-1.5300
1361.6810;-55.5000;-53.9300;-1.5700
1361.8810;-55.7400;-54.0500;-1.6900
1362.0800;-56.1500;-54.2800;-1.8700
1362.2790;-56.8200;-54.7100;-2.1100
1362.4780;-57.3900;-54.9500;-2.4400
1362.6770;-58.0200;-55.0900;-2.9300
1362.8760;-58.6000;-54.9800;-3.6200
1363.0750;-59.2100;-54.9500;-4.2600
1363.2740;-59.6700;-54.7200;-4.9500
1363.4740;-60.6400;-54.8300;-5.8100
1363.6730;-61.8000;-54.9200;-6.8800
1363.8720;-63.2100;-55.1000;-8.1100
1364.0710;-64.8100;-55.3300;-9.4800
1364.2700;-66.6200;-55.5400;-11.0800
1364.4690;-68.5500;-55.8700;-12.6800
1364.6680;-70.1400;-56.4000;-13.7400
1364.8670;-70.5400;-56.6600;-13.8800
1365.0660;-69.5500;-56.6700;-12.8800
1365.2660;-68.2800;-56.8300;-11.4500
1365.4650;-66.8900;-56.8000;-10.0900
1365.6640;-65.6300;-56.9000;-8.7300
1365.8630;-64.4700;-56.9700;-7.5000
1366.0620;-63.4700;-56.9800;-6.4900
1366.2610;-62.7500;-57.0100;-5.7400
1366.4600;-62.1800;-57.1000;-5.0800
1366.6590;-61.8300;-57.2800;-4.5500
1366.8580;-61.6500;-57.5400;-4.1100
1367.0580;-61.5000;-57.6900;-3.8100
1367.2570;-61.3900;-57.8300;-3.5600
1367.4560;-61.5300;-58.0800;-3.4500
1367.6550;-61.7000;-58.3000;-3.4000
1367.8540;-62.0100;-58.6400;-3.3700
1368.0530;-62.2800;-58.7400;-3.5400
1368.2520;-62.4800;-58.7300;-3.7500
1368.4510;-63.0800;-59.0800;-4.0000
1368.6500;-63.5300;-59.2000;-4.3300
1368.8500;-64.0500;-59.3200;-4.7300
1369.0490;-64.6200;-59.3300;-5.2900
1369.2480;-65.1800;-59.3100;-5.8700
1369.4470;-65.6900;-59.2700;-6.4200
1369.6460;-66.4900;-59.3900;-7.1000
1369.8450;-67.5000;-59.7400;-7.7600
1370.0440;-68.4600;-59.9700;-8.4900
1370.2430;-69.3700;-60.1300;-9.2400
1370.4430;-70.0900;-60.2200;-9.8700
1370.6420;-70.5400;-60.2700;-10.2700
1370.8410;-71.0600;-60.6000;-10.4600
1371.0400;-71.4800;-60.8800;-10.6000
1371.2390;-71.3800;-61.1000;-10.2800
1371.4380;-71.3100;-61.1700;-10.1400
1371.6370;-70.7200;-61.1800;-9.5400
1371.8360;-70.5200;-61.1900;-9.3300
1372.0350;-70.1000;-61.4100;-8.6900
1372.2350;-70.0700;-61.6500;-8.4200
1372.4340;-69.6400;-61.7800;-7.8600
1372.6330;-69.3100;-61.8700;-7.4400
1372.8320;-69.1700;-61.9900;-7.1800
1373.0310;-68.9500;-62.0600;-6.8900
1373.2300;-68.9200;-62.2600;-6.6600
1373.4290;-68.8500;-62.4300;-6.4200
1373.6280;-68.9000;-62.5900;-6.3100
1373.8270;-68.7800;-62.7200;-6.0600
1374.0270;-68.7000;-62.8600;-5.8400
1374.2260;-68.7400;-63.0100;-5.7300
1374.4250;-68.7000;-63.1800;-5.5200
1374.6240;-68.6800;-63.3700;-5.3100
1374.8230;-68.7900;-63.6100;-5.1800
1375.0220;-68.6800;-63.8200;-4.8600
1375.2210;-68.6900;-63.9600;-4.7300
1375.4200;-68.4400;-64.0900;-4.3500
1375.6200;-68.3700;-64.2400;-4.1300
1375.8190;-68.4100;-64.3500;-4.0600
1376.0180;-68.2600;-64.6300;-3.6300
1376.2170;-68.1700;-64.8400;-3.3300
1376.4160;-68.0900;-64.9500;-3.1400
1376.6150;-68.0700;-65.0900;-2.9800
1376.8140;-68.0100;-65.3600;-2.6500
1377.0130;-68.2000;-65.6500;-2.5500
1377.2120;-68.1900;-65.8200;-2.3700
1377.4120;-68.2300;-65.9800;-2.2500
1377.6110;-68.2800;-66.1200;-2.1600
1377.8100;-68.2200;-66.0800;-2.1400
1378.0090;-68.2400;-66.2400;-2.0000
1378.2080;-68.4700;-66.4500;-2.0200
1378.4070;-68.6900;-66.6500;-2.0400
1378.6060;-69.0300;-66.9600;-2.0700
1378.8050;-69.2900;-67.3100;-1.9800
1379.0040;-69.5400;-67.5800;-1.9600
1379.2040;-69.5800;-67.5800;-2.0000
1379.4030;-69.6800;-67.6700;-2.0100
1379.6020;-69.5800;-67.6000;-1.9800
1379.8010;-70.0500;-67.7800;-2.2700
1380.0000;-70.1600;-67.9000;-2.2600
1380.1990;-70.2800;-68.2200;-2.0600
1380.3980;-70.7100;-68.4500;-2.2600
1380.5970;-71.0800;-68.9800;-2.1000
1380.7970;-71.4600;-69.4000;-2.0600
1380.9960;-71.8000;-69.8200;-1.9800
1381.1950;-71.8500;-69.7300;-2.1200
1381.3940;-71.6100;-69.5500;-2.0600
1381.5930;-71.1800;-69.2500;-1.9300
1381.7920;-71.1400;-69.4100;-1.7300
1381.9910;-71.1800;-69.5600;-1.6200
1382.1900;-71.4000;-69.5600;-1.8400
1382.3890;-71.7800;-69.8100;-1.9700
1382.5890;-72.2100;-70.3700;-1.8400
1382.7880;-72.6300;-71.0100;-1.6200
1382.9870;-72.7700;-71.2100;-1.5600
1383.1860;-72.8700;-71.0200;-1.8500
1383.3850;-72.8000;-70.7200;-2.0800
1383.5840;-72.6400;-70.7300;-1.9100
1383.7830;-72.6400;-70.7900;-1.8500
1383.9820;-72.9500;-71.0800;-1.8700
1384.1810;-73.0500;-71.1900;-1.8600
1384.3810;-73.2900;-70.9600;-2.3300
1384.5800;-72.9600;-71.0900;-1.8700
1384.7790;-73.0500;-71.1500;-1.9000
1384.9780;-73.6600;-71.6000;-2.0600
1385.1770;-73.8800;-71.7200;-2.1600
1385.3760;-74.0500;-71.7600;-2.2900
1385.5750;-74.2200;-71.8100;-2.4100
1385.7740;-74.2500;-71.9300;-2.3200
1385.9740;-73.9100;-71.8800;-2.0300
1386.1730;-74.1900;-71.8100;-2.3800
1386.3720;-74.6500;-72.1600;-2.4900
1386.5710;-74.6200;-72.0500;-2.5700
1386.7700;-74.0900;-72.2900;-1.8000
1386.9690;-74.5800;-72.1600;-2.4200
1387.1680;-75.0000;-72.1900;-2.8100
1387.3670;-74.5200;-72.2700;-2.2500
1387.5660;-74.8300;-72.3600;-2.4700
1387.7660;-75.5100;-72.8700;-2.6400
1387.9650;-75.5100;-73.0200;-2.4900
1388.1640;-75.8900;-73.3700;-2.5200
1388.3630;-75.6500;-73.7700;-1.8800
1388.5620;-76.6100;-73.4300;-3.1800
1388.7610;-76.6700;-73.2400;-3.4300
1388.9600;-76.6500;-73.1600;-3.4900
1389.1590;-77.0600;-73.1100;-3.9500
1389.3580;-76.9400;-73.0000;-3.9400
1389.5580;-77.5100;-72.9300;-4.5800
1389.7570;-77.9600;-73.0200;-4.9400
1389.9560;-79.1600;-73.4700;-5.6900
1390.1550;-79.0700;-73.4300;-5.6400
1390.3540;-79.7000;-73.3000;-6.4000
1390.5530;-80.1100;-73.8100;-6.3000
1390.7520;-79.7000;-73.7500;-5.9500
1390.9510;-80.7800;-73.6000;-7.1800
1391.1500;-81.5300;-73.7500;-7.7800
1391.3500;-81.1100;-74.1300;-6.9800
1391.5490;-81.5900;-73.9000;-7.6900
1391.7480;-81.3300;-73.8400;-7.4900
1391.9470;-80.6100;-74.0200;-6.5900
1392.1460;-80.9800;-74.4400;-6.5400
1392.3450;-80.4800;-74.8600;-5.6200
1392.5440;-81.1700;-75.2400;-5.9300
1392.7430;-81.1700;-75.2500;-5.9200
1392.9430;-81.0300;-74.9900;-6.0400
1393.1420;-84.5500;-75.1000;-9.4500
1393.3410;-80.8800;-74.8600;-6.0200
1393.5400;-82.3100;-75.2700;-7.0400
1393.7390;-81.9400;-74.7100;-7.2300
1393.9380;-83.3300;-74.2900;-9.0400
1394.1370;-82.7900;-74.6900;-8.1000
1394.3360;-83.2500;-74.8400;-8.4100
1394.5350;-81.5400;-74.6800;-6.8600
1394.7350;-81.5400;-75.5700;-5.9700
1394.9340;-80.8400;-75.2700;-5.5700
1395.1330;-83.2500;-75.3100;-7.9400
1395.3320;-84.0400;-75.9000;-8.1400
1395.5310;-81.7000;-75.8400;-5.8600
1395.7300;-82.3100;-76.3200;-5.9900
1395.9290;-81.8800;-76.1900;-5.6900
1396.1280;-80.7500;-75.7100;-5.0400
1396.3270;-80.5700;-76.6800;-3.8900
1396.5270;-81.7600;-75.7100;-6.0500
1396.7260;-83.2500;-76.0400;-7.2100
1396.9250;-81.6500;-76.1100;-5.5400
1397.1240;-86.4200;-76.1900;-10.2300
1397.3230;-81.4800;-75.8100;-5.6700
1397.5220;-81.4300;-75.7800;-5.6500
1397.7210;-79.6000;-76.5900;-3.0100
1397.9200;-81.1200;-76.1900;-4.9300
1398.1200;-80.7500;-76.0400;-4.7100
1398.3190;-82.0600;-76.2200;-5.8400
1398.5180;-82.3800;-75.8700;-6.5100
1398.7170;-80.9900;-76.4600;-4.5300
1398.9160;-81.1300;-76.2200;-4.9100
1399.1150;-79.7200;-76.3600;-3.3600
1399.3140;-82.8700;-75.9700;-6.9000
1399.5130;-82.5200;-76.2000;-6.3200
1399.7120;-81.8900;-76.7800;-5.1100
1399.9120;-80.6700;-76.3800;-4.2900
1400.1110;-79.7200;-76.8900;-2.8300
1400.3100;-81.0400;-76.6200;-4.4200
1400.5090;-83.5000;-76.8900;-6.6100
1400.7080;-83.1000;-77.5300;-5.5700
1400.9070;-81.4900;-77.5300;-3.9600
1401.1060;-81.8300;-77.0800;-4.7500
1401.3050;-82.1900;-76.8900;-5.3000
1401.5040;-81.2300;-76.5000;-4.7300
1401.7040;-81.2900;-77.7900;-3.5000
1401.9030;-80.1700;-76.9600;-3.2100
1402.1020;-81.6600;-77.0200;-4.6400
1402.3010;-81.7100;-77.1400;-4.5700
1402.5000;-85.8100;-77.3400;-8.4700
1402.6990;-82.4500;-77.3200;-5.1300
1402.8980;-83.5900;-76.4000;-7.1900
1403.0970;-80.7100;-77.2300;-3.4800
1403.2970;-82.5200;-76.9200;-5.6000
1403.4960;-80.4100;-77.4600;-2.9500
1403.6950;-82.0100;-77.8400;-4.1700
1403.8940;-81.4400;-77.0400;-4.4000
1404.0930;-81.3900;-76.7100;-4.6800
1404.2920;-83.1000;-77.1600;-5.9400
1404.4910;-81.4400;-77.7200;-3.7200
1404.6900;-82.0100;-77.1700;-4.8400
1404.8890;-81.8900;-77.7000;-4.1900
1405.0890;-82.5200;-77.5700;-4.9500
1405.2880;-80.7600;-77.9100;-2.8500
1405.4870;-81.0400;-79.6800;-1.3600
1405.6860;-82.5200;-78.0000;-4.5200
1405.8850;-82.1300;-77.8800;-4.2500
1406.0840;-82.8700;-77.3800;-5.4900
1406.2830;-80.3300;-77.3600;-2.9700
1406.4820;-81.0400;-78.0300;-3.0100
1406.6810;-82.0200;-77.8700;-4.1500
1406.8810;-81.4000;-76.8200;-4.5800
1407.0800;-83.1900;-77.2000;-5.9900
1407.2790;-80.5500;-78.7100;-1.8400
1407.4780;-80.4200;-79.1900;-1.2300
1407.6770;-81.5600;-79.0100;-2.5500
1407.8760;-80.8600;-78.0900;-2.7700
1408.0750;-81.8400;-78.7700;-3.0700
1408.2740;-84.3600;-77.6200;-6.7400
1408.4740;-83.1100;-77.0500;-6.0600
1408.6730;-82.0200;-77.4100;-4.6100
1408.8720;-80.9000;-77.4500;-3.4500
1409.0710;-81.1000;-77.8500;-3.2500
1409.2700;-80.9000;-77.2400;-3.6600
1409.4690;-80.1800;-77.0700;-3.1100
1409.6680;-81.9000;-77.5800;-4.3200
1409.8670;-83.9600;-78.0100;-5.9500
1410.0660;-82.3900;-77.7600;-4.6300
1410.2660;-82.1400;-78.1800;-3.9600
1410.4650;-82.7400;-77.8200;-4.9200
1410.6640;-83.9600;-77.7600;-6.2000
1410.8630;-82.7400;-77.6700;-5.0700
1411.0620;-81.3000;-78.4400;-2.8600
1411.2610;-81.4500;-77.5100;-3.9400
1411.4600;-82.0200;-77.4100;-4.6100
1411.6590;-83.1900;-77.9900;-5.2000
1411.8580;-82.2600;-78.8300;-3.4300
1412.0580;-82.5300;-77.2200;-5.3100
1412.2570;-79.3200;-77.3700;-1.9500
1412.4560;-84.4600;-77.4100;-7.0500
1412.6550;-83.6000;-77.2700;-6.3300
1412.8540;-79.8700;-76.7000;-3.1700
1413.0530;-81.1000;-77.5400;-3.5600
1413.2520;-79.9800;-77.7100;-2.2700
1413.4510;-83.1900;-77.3700;-5.8200
1413.6500;-82.0300;-77.6800;-4.3500
1413.8500;-81.5100;-77.0600;-4.4500
1414.0490;-80.2300;-77.1400;-3.0900
1414.2480;-80.1100;-77.6800;-2.4300
1414.4470;-83.7900;-77.5000;-6.2900
1414.6460;-82.1500;-77.2800;-4.8700
1414.8450;-80.2300;-77.4200;-2.8100
1415.0440;-82.1500;-77.0000;-5.1500
1415.2430;-81.5700;-77.5500;-4.0200
1415.4430;-81.1100;-77.2100;-3.9000
1415.6420;-81.1100;-77.1000;-4.0100
1415.8410;-81.5700;-77.8100;-3.7600
1416.0400;-81.2500;-77.2800;-3.9700
1416.2390;-79.7400;-77.6100;-2.1300
1416.4380;-79.7700;-76.2900;-3.4800
1416.6370;-82.6800;-76.6700;-6.0100
1416.8360;-80.3100;-77.0200;-3.2900
1417.0350;-82.5400;-76.9800;-5.5600
1417.2350;-82.1500;-77.0200;-5.1300
1417.4340;-82.4000;-76.6500;-5.7500
1417.6330;-81.2000;-76.6700;-4.5300
1417.8320;-81.1500;-76.5900;-4.5600
1418.0310;-79.8100;-75.8900;-3.9200
1418.2300;-80.4300;-76.9300;-3.5000
1418.4290;-79.6300;-77.0200;-2.6100
1418.6280;-81.3100;-77.3000;-4.0100
1418.8270;-81.0100;-77.5700;-3.4400
1419.0270;-81.7900;-77.6500;-4.1400
1419.2260;-81.4600;-77.7400;-3.7200
1419.4250;-79.2600;-77.8300;-1.4300
1419.6240;-80.7800;-77.0200;-3.7600
1419.8230;-79.4900;-77.5700;-1.9200
1420.0220;-80.7800;-76.1700;-4.6100
1420.2210;-81.3100;-76.7100;-4.6000
1420.4200;-81.1100;-76.8900;-4.2200
1420.6200;-80.6000;-76.7100;-3.8900
1420.8190;-80.4300;-76.2900;-4.1400
1421.0180;-82.1500;-76.8500;-5.3000
1421.2170;-81.1100;-76.3200;-4.7900
1421.4160;-80.4300;-77.1200;-3.3100
1421.6150;-81.5800;-76.6000;-4.9800
1421.8140;-80.2000;-76.6300;-3.5700
1422.0130;-79.0900;-75.8400;-3.2500
1422.2120;-81.8600;-76.4900;-5.3700
1422.4120;-81.6900;-76.6100;-5.0800
1422.6110;-82.2800;-77.0700;-5.2100
1422.8100;-80.8800;-77.3300;-3.5500
1423.0090;-81.3700;-76.7400;-4.6300
1423.2080;-80.9200;-76.4400;-4.4800
1423.4070;-81.2600;-76.5300;-4.7300
1423.6060;-80.3600;-76.2300;-4.1300
1423.8050;-79.7100;-76.8600;-2.8500
1424.0040;-79.8900;-77.0100;-2.8800
1424.2040;-80.7900;-77.5100;-3.2800
1424.4030;-79.7100;-76.5300;-3.1800
1424.6020;-81.5800;-76.2500;-5.3300
1424.8010;-79.0900;-76.5300;-2.5600
1425.0000;-79.9600;-76.5300;-3.4300
