Wavelength;Intensity_Meas;Intensity_Ref;Difference_dB
1200.0000;-61.5000;-57.0400;-4.4600
1200.1990;-61.4600;-57.0100;-4.4500
1200.3980;-61.4000;-56.9700;-4.4300
1200.5970;-61.4000;-56.9600;-4.4400
1200.7970;-61.3800;-56.9200;-4.4600
1200.9960;-61.3400;-56.9000;-4.4400
1201.1950;-61.2600;-56.8600;-4.4000
1201.3940;-61.2500;-56.8000;-4.4500
1201.5930;-61.2300;-56.7800;-4.4500
1201.7920;-61.1600;-56.7400;-4.4200
1201.9910;-61.1100;-56.6800;-4.4300
1202.1900;-61.0800;-56.6500;-4.4300
1202.3890;-61.0400;-56.5600;-4.4800
1202.5890;-61.0000;-56.5200;-4.4800
1202.7880;-60.9600;-56.4800;-4.4800
1202.9870;-60.9400;-56.4300;-4.5100
1203.1860;-60.9000;-56.3600;-4.5400
1203.3850;-60.8500;-56.3000;-4.5500
1203.5840;-60.8000;-56.3000;-4.5000
1203.7830;-60.7900;-56.2500;-4.5400
1203.9820;-60.8000;-56.2000;-4.6000
1204.1810;-60.7500;-56.1500;-4.6000
1204.3810;-60.7000;-56.1100;-4.5900
1204.5800;-60.7000;-56.1100;-4.5900
1204.7790;-60.6500;-56.0600;-4.5900
1204.9780;-60.6100;-56.0100;-4.6000
1205.1770;-60.5700;-56.0000;-4.5700
1205.3760;-60.5200;-55.9800;-4.5400
1205.5750;-60.4800;-55.9600;-4.5200
1205.7740;-60.4600;-55.9300;-4.5300
1205.9740;-60.4100;-55.9100;-4.5000
1206.1730;-60.3400;-55.9200;-4.4200
1206.3720;-60.3100;-55.8800;-4.4300
1206.5710;-60.3200;-55.8700;-4.4500
1206.7700;-60.2500;-55.8300;-4.4200
1206.9690;-60.1900;-55.8100;-4.3800
1207.1680;-60.1800;-55.8300;-4.3500
1207.3670;-60.1600;-55.7800;-4.3800
1207.5660;-60.1400;-55.7300;-4.4100
1207.7660;-60.0800;-55.7100;-4.3700
1207.9650;-60.0500;-55.6900;-4.3600
1208.1640;-60.0300;-55.6500;-4.3800
1208.3630;-60.0000;-55.5800;-4.4200
1208.5620;-59.9800;-55.5500;-4.4300
1208.7610;-59.9100;-55.5300;-4.3800
1208.9600;-59.8800;-55.4700;-4.4100
1209.1590;-59.8600;-55.4200;-4.4400
1209.3580;-59.7700;-55.3500;-4.4200
1209.5580;-59.7100;-55.3200;-4.3900
1209.7570;-59.6900;-55.2900;-4.4000
1209.9560;-59.6500;-55.2200;-4.4300
1210.1550;-59.5800;-55.1700;-4.4100
1210.3540;-59.4900;-55.1200;-4.3700
1210.5530;-59.4700;-55.0900;-4.3800
1210.7520;-59.4500;-55.0300;-4.4200
1210.9510;-59.3900;-54.9700;-4.4200
1211.1500;-59.3100;-54.9500;-4.3600
1211.3500;-59.2600;-54.9100;-4.3500
1211.5490;-59.2600;-54.8600;-4.4000
1211.7480;-59.2100;-54.8200;-4.3900
1211.9470;-59.1400;-54.7900;-4.3500
1212.1460;-59.1000;-54.7700;-4.3300
1212.3450;-59.0600;-54.7300;-4.3300
1212.5440;-59.0800;-54.6800;-4.4000
1212.7430;-59.0100;-54.6700;-4.3400
1212.9430;-58.9500;-54.6400;-4.3100
1213.1420;-58.9700;-54.6200;-4.3500
1213.3410;-58.9500;-54.5800;-4.3700
1213.5400;-58.9300;-54.5600;-4.3700
1213.7390;-58.8600;-54.5500;-4.3100
1213.9380;-58.8700;-54.5200;-4.3500
1214.1370;-58.8900;-54.4700;-4.4200
1214.3360;-58.8100;-54.4200;-4.3900
1214.5350;-58.7900;-54.4100;-4.3800
1214.7350;-58.7700;-54.3900;-4.3800
1214.9340;-58.7600;-54.3300;-4.4300
1215.1330;-58.7100;-54.2800;-4.4300
1215.3320;-58.6400;-54.2400;-4.4000
1215.5310;-58.6200;-54.2100;-4.4100
1215.7300;-58.5900;-54.1500;-4.4400
1215.9290;-58.5400;-54.0900;-4.4500
1216.1280;-58.4700;-54.0500;-4.4200
1216.3270;-58.3900;-53.9900;-4.4000
1216.5270;-58.3800;-53.9400;-4.4400
1216.7260;-58.3100;-53.8800;-4.4300
1216.9250;-58.2000;-53.8200;-4.3800
1217.1240;-58.1400;-53.7900;-4.3500
1217.3230;-58.0800;-53.7100;-4.3700
1217.5220;-58.0400;-53.6500;-4.3900
1217.7210;-57.9300;-53.6100;-4.3200
1217.9200;-57.8300;-53.5600;-4.2700
1218.1200;-57.8000;-53.5200;-4.2800
1218.3190;-57.7300;-53.4500;-4.2800
1218.5180;-57.6600;-53.4300;-4.2300
1218.7170;-57.5600;-53.4000;-4.1600
1218.9160;-57.5200;-53.3500;-4.1700
1219.1150;-57.4900;-53.3100;-4.1800
1219.3140;-57.4100;-53.2700;-4.1400
1219.5130;-57.3500;-53.2500;-4.1000
1219.7120;-57.3200;-53.2200;-4.1000
1219.9120;-57.3000;-53.1700;-4.1300
1220.1110;-57.2500;-53.1600;-4.0900
1220.3100;-57.1800;-53.1200;-4.0600
1220.5090;-57.1700;-53.0900;-4.0800
1220.7080;-57.1500;-53.0400;-4.1100
1220.9070;-57.1200;-53.0000;-4.1200
1221.1060;-57.0700;-52.9700;-4.1000
1221.3050;-57.0400;-52.9200;-4.1200
1221.5040;-57.0200;-52.8600;-4.1600
1221.7040;-56.9800;-52.8100;-4.1700
1221.9030;-56.9300;-52.7700;-4.1600
1222.1020;-56.9100;-52.7100;-4.2000
1222.3010;-56.8600;-52.6400;-4.2200
1222.5000;-56.8300;-52.5700;-4.2600
1222.6990;-56.7600;-52.5100;-4.2500
1222.8980;-56.7100;-52.4500;-4.2600
1223.0970;-56.6800;-52.3900;-4.2900
1223.2970;-56.6200;-52.3000;-4.3200
1223.4960;-56.5600;-52.2300;-4.3300
1223.6950;-56.5100;-52.1700;-4.3400
1223.8940;-56.4900;-52.1000;-4.3900
1224.0930;-56.4500;-52.0400;-4.4100
1224.2920;-56.3900;-51.9700;-4.4200
1224.4910;-56.3500;-51.8900;-4.4600
1224.6900;-56.3300;-51.8400;-4.4900
1224.8890;-56.2900;-51.7600;-4.5300
1225.0890;-56.2500;-51.7200;-4.5300
1225.2880;-56.1900;-51.6500;-4.5400
1225.4870;-56.1700;-51.5800;-4.5900
1225.6860;-56.1300;-51.5300;-4.6000
1225.8850;-56.0600;-51.4900;-4.5700
1226.0840;-56.0200;-51.4400;-4.5800
1226.2830;-55.9700;-51.3800;-4.5900
1226.4820;-55.9200;-51.3200;-4.6000
1226.6810;-55.8300;-51.2900;-4.5400
1226.8810;-55.7400;-51.2400;-4.5000
1227.0800;-55.6800;-51.1900;-4.4900
1227.2790;-55.6000;-51.1300;-4.4700
1227.4780;-55.5000;-51.0800;-4.4200
1227.6770;-55.4000;-51.0300;-4.3700
1227.8760;-55.3400;-50.9700;-4.3700
1228.0750;-55.2300;-50.9200;-4.3100
1228.2740;-55.1200;-50.8600;-4.2600
1228.4740;-55.0400;-50.7900;-4.2500
1228.6730;-54.9500;-50.7300;-4.2200
1228.8720;-54.8800;-50.6700;-4.2100
1229.0710;-54.7800;-50.6100;-4.1700
1229.2700;-54.7000;-50.5200;-4.1800
1229.4690;-54.6500;-50.4400;-4.2100
1229.6680;-54.5800;-50.3800;-4.2000
1229.8670;-54.5100;-50.3000;-4.2100
1230.0660;-54.4600;-50.2300;-4.2300
1230.2660;-54.4400;-50.1400;-4.3000
1230.4650;-54.4200;-50.0500;-4.3700
1230.6640;-54.3800;-49.9900;-4.3900
1230.8630;-54.4000;-49.9200;-4.4800
1231.0620;-54.4200;-49.8500;-4.5700
1231.2610;-54.4500;-49.7800;-4.6700
1231.4600;-54.5000;-49.7200;-4.7800
1231.6590;-54.5300;-49.6600;-4.8700
1231.8580;-54.6100;-49.5900;-5.0200
1232.0580;-54.6600;-49.5400;-5.1200
1232.2570;-54.7100;-49.4700;-5.2400
1232.4560;-54.7900;-49.4200;-5.3700
1232.6550;-54.8300;-49.3600;-5.4700
1232.8540;-54.8600;-49.2900;-5.5700
1233.0530;-54.8800;-49.2600;-5.6200
1233.2520;-54.8800;-49.1900;-5.6900
1233.4510;-54.8700;-49.1300;-5.7400
1233.6500;-54.8200;-49.0800;-5.7400
1233.8500;-54.7400;-49.0100;-5.7300
1234.0490;-54.6500;-48.9700;-5.6800
1234.2480;-54.5400;-48.8900;-5.6500
1234.4470;-54.3800;-48.8300;-5.5500
1234.6460;-54.2200;-48.7700;-5.4500
1234.8450;-54.0800;-48.7000;-5.3800
1235.0440;-53.8900;-48.6300;-5.2600
1235.2430;-53.7000;-48.5500;-5.1500
1235.4430;-53.5200;-48.4800;-5.0400
1235.6420;-53.3400;-48.3900;-4.9500
1235.8410;-53.1700;-48.3000;-4.8700
1236.0400;-52.9800;-48.2300;-4.7500
1236.2390;-52.8200;-48.1300;-4.6900
1236.4380;-52.6900;-48.0600;-4.6300
1236.6370;-52.5500;-47.9700;-4.5800
1236.8360;-52.4100;-47.8700;-4.5400
1237.0350;-52.3000;-47.7900;-4.5100
1237.2350;-52.2200;-47.7000;-4.5200
1237.4340;-52.1300;-47.6200;-4.5100
1237.6330;-52.0500;-47.5300;-4.5200
1237.8320;-52.0200;-47.4600;-4.5600
1238.0310;-51.9600;-47.3700;-4.5900
1238.2300;-51.9200;-47.2900;-4.6300
1238.4290;-51.8900;-47.2200;-4.6700
1238.6280;-51.8800;-47.1400;-4.7400
1238.8270;-51.8700;-47.0600;-4.8100
1239.0270;-51.8300;-46.9800;-4.8500
1239.2260;-51.8000;-46.9000;-4.9000
1239.4250;-51.7700;-46.8300;-4.9400
1239.6240;-51.7200;-46.7400;-4.9800
1239.8230;-51.6500;-46.6600;-4.9900
1240.0220;-51.5700;-46.5700;-5.0000
1240.2210;-51.4900;-46.4800;-5.0100
1240.4200;-51.3700;-46.4000;-4.9700
1240.6200;-51.2400;-46.3000;-4.9400
1240.8190;-51.1300;-46.2000;-4.9300
1241.0180;-50.9700;-46.0800;-4.8900
1241.2170;-50.8100;-45.9700;-4.8400
1241.4160;-50.6400;-45.8400;-4.8000
1241.6150;-50.4800;-45.7400;-4.7400
1241.8140;-50.3500;-45.6300;-4.7200
1242.0130;-50.1700;-45.5000;-4.6700
1242.2120;-50.0300;-45.3900;-4.6400
1242.4120;-49.9100;-45.2600;-4.6500
1242.6110;-49.7700;-45.1300;-4.6400
1242.8100;-49.6600;-45.0100;-4.6500
1243.0090;-49.5500;-44.8600;-4.6900
1243.2080;-49.4700;-44.7500;-4.7200
1243.4070;-49.4000;-44.6100;-4.7900
1243.6060;-49.3200;-44.4700;-4.8500
1243.8050;-49.3000;-44.3600;-4.9400
1244.0040;-49.2500;-44.2200;-5.0300
1244.2040;-49.2300;-44.1000;-5.1300
1244.4030;-49.2200;-43.9700;-5.2500
1244.6020;-49.2200;-43.8300;-5.3900
1244.8010;-49.2400;-43.7200;-5.5200
1245.0000;-49.2400;-43.5900;-5.6500
1245.1990;-49.2600;-43.4700;-5.7900
1245.3980;-49.2900;-43.3300;-5.9600
1245.5970;-49.2800;-43.2000;-6.0800
1245.7970;-49.3000;-43.0700;-6.2300
1245.9960;-49.2900;-42.9300;-6.3600
1246.1950;-49.2900;-42.8000;-6.4900
1246.3940;-49.2600;-42.6500;-6.6100
1246.5930;-49.2200;-42.5000;-6.7200
1246.7920;-49.1900;-42.3700;-6.8200
1246.9910;-49.1100;-42.2000;-6.9100
1247.1900;-49.0400;-42.0600;-6.9800
1247.3890;-48.9600;-41.9100;-7.0500
1247.5890;-48.8400;-41.7400;-7.1000
1247.7880;-48.7400;-41.6000;-7.1400
1247.9870;-48.5900;-41.4300;-7.1600
1248.1860;-48.4600;-41.2800;-7.1800
1248.3850;-48.3000;-41.1100;-7.1900
1248.5840;-48.1200;-40.9400;-7.1800
1248.7830;-47.9700;-40.8000;-7.1700
1248.9820;-47.8000;-40.6400;-7.1600
1249.1810;-47.6300;-40.4900;-7.1400
1249.3810;-47.4400;-40.3300;-7.1100
1249.5800;-47.2700;-40.1700;-7.1000
1249.7790;-47.1200;-40.0300;-7.0900
1249.9780;-46.9500;-39.8600;-7.0900
1250.1770;-46.8100;-39.7200;-7.0900
1250.3760;-46.6700;-39.5700;-7.1000
1250.5750;-46.5200;-39.4100;-7.1100
1250.7740;-46.3800;-39.2700;-7.1100
1250.9740;-46.2600;-39.1200;-7.1400
1251.1730;-46.1200;-38.9800;-7.1400
1251.3720;-45.9600;-38.8100;-7.1500
1251.5710;-45.7900;-38.6600;-7.1300
1251.7700;-45.6400;-38.5100;-7.1300
1251.9690;-45.4400;-38.3400;-7.1000
1252.1680;-45.2100;-38.2000;-7.0100
1252.3670;-44.9600;-38.0200;-6.9400
1252.5660;-44.7000;-37.8700;-6.8300
1252.7660;-44.3700;-37.7000;-6.6700
1252.9650;-44.0400;-37.5400;-6.5000
1253.1640;-43.6900;-37.3800;-6.3100
1253.3630;-43.3000;-37.1900;-6.1100
1253.5620;-42.9100;-37.0300;-5.8800
1253.7610;-42.4900;-36.8600;-5.6300
1253.9600;-42.1000;-36.7000;-5.4000
1254.1590;-41.6900;-36.5500;-5.1400
1254.3580;-41.2700;-36.3700;-4.9000
1254.5580;-40.9000;-36.2200;-4.6800
1254.7570;-40.5100;-36.0500;-4.4600
1254.9560;-40.1600;-35.8700;-4.2900
1255.1550;-39.8200;-35.7500;-4.0700
1255.3540;-39.4900;-35.5900;-3.9000
1255.5530;-39.2000;-35.4700;-3.7300
1255.7520;-38.9000;-35.3100;-3.5900
1255.9510;-38.6400;-35.1600;-3.4800
1256.1500;-38.3900;-35.0200;-3.3700
1256.3500;-38.1400;-34.8700;-3.2700
1256.5490;-37.9300;-34.7500;-3.1800
1256.7480;-37.7000;-34.6000;-3.1000
1256.9470;-37.5000;-34.4600;-3.0400
1257.1460;-37.2900;-34.3100;-2.9800
1257.3450;-37.1000;-34.1600;-2.9400
1257.5440;-36.9500;-34.0300;-2.9200
1257.7430;-36.7800;-33.8700;-2.9100
1257.9430;-36.6400;-33.7300;-2.9100
1258.1420;-36.5100;-33.5700;-2.9400
1258.3410;-36.3800;-33.4200;-2.9600
1258.5400;-36.2900;-33.2800;-3.0100
1258.7390;-36.1800;-33.1100;-3.0700
1258.9380;-36.1100;-32.9600;-3.1500
1259.1370;-36.0400;-32.8000;-3.2400
1259.3360;-35.9800;-32.6400;-3.3400
1259.5350;-35.9500;-32.4900;-3.4600
1259.7350;-35.9200;-32.3200;-3.6000
1259.9340;-35.8900;-32.1700;-3.7200
1260.1330;-35.8900;-32.0200;-3.8700
1260.3320;-35.8800;-31.8600;-4.0200
1260.5310;-35.8800;-31.7200;-4.1600
1260.7300;-35.8800;-31.5600;-4.3200
1260.9290;-35.8800;-31.4100;-4.4700
1261.1280;-35.8600;-31.2500;-4.6100
1261.3270;-35.8400;-31.1100;-4.7300
1261.5270;-35.7900;-30.9800;-4.8100
1261.7260;-35.7100;-30.8300;-4.8800
1261.9250;-35.6000;-30.6900;-4.9100
1262.1240;-35.4300;-30.5400;-4.8900
1262.3230;-35.2400;-30.4000;-4.8400
1262.5220;-34.9800;-30.2700;-4.7100
1262.7210;-34.6800;-30.1300;-4.5500
1262.9200;-34.3400;-30.0000;-4.3400
1263.1200;-33.9500;-29.8500;-4.1000
1263.3190;-33.5500;-29.7100;-3.8400
1263.5180;-33.1200;-29.5800;-3.5400
1263.7170;-32.6900;-29.4400;-3.2500
1263.9160;-32.2500;-29.3000;-2.9500
1264.1150;-31.8100;-29.1500;-2.6600
1264.3140;-31.4000;-29.0100;-2.3900
1264.5130;-31.0000;-28.8800;-2.1200
1264.7120;-30.6200;-28.7300;-1.8900
1264.9120;-30.2600;-28.6100;-1.6500
1265.1110;-29.9300;-28.4600;-1.4700
1265.3100;-29.6500;-28.3200;-1.3300
1265.5090;-29.3900;-28.1900;-1.2000
1265.7080;-29.1700;-28.0500;-1.1200
1265.9070;-28.9800;-27.9300;-1.0500
1266.1060;-28.8200;-27.7800;-1.0400
1266.3050;-28.7200;-27.6600;-1.0600
1266.5040;-28.6500;-27.5400;-1.1100
1266.7040;-28.6200;-27.4100;-1.2100
1266.9030;-28.6200;-27.2900;-1.3300
1267.1020;-28.6500;-27.1600;-1.4900
1267.3010;-28.7400;-27.0400;-1.7000
1267.5000;-28.8400;-26.9300;-1.9100
1267.6990;-28.9800;-26.8000;-2.1800
1267.8980;-29.1300;-26.6900;-2.4400
1268.0970;-29.3100;-26.5700;-2.7400
1268.2970;-29.5100;-26.4600;-3.0500
1268.4960;-29.7100;-26.3500;-3.3600
1268.6950;-29.9200;-26.2300;-3.6900
1268.8940;-30.1100;-26.1200;-3.9900
1269.0930;-30.2900;-25.9700;-4.3200
1269.2920;-30.4700;-25.8800;-4.5900
1269.4910;-30.6300;-25.7600;-4.8700
1269.6900;-30.7700;-25.6600;-5.1100
1269.8890;-30.8800;-25.5300;-5.3500
1270.0890;-30.9800;-25.4100;-5.5700
1270.2880;-31.1000;-25.3100;-5.7900
1270.4870;-31.2100;-25.1900;-6.0200
1270.6860;-31.3500;-25.0800;-6.2700
1270.8850;-31.5000;-24.9600;-6.5400
1271.0840;-31.7000;-24.8500;-6.8500
1271.2830;-31.9700;-24.7400;-7.2300
1271.4820;-32.3000;-24.6200;-7.6800
1271.6810;-32.7300;-24.5200;-8.2100
1271.8810;-33.2500;-24.4100;-8.8400
1272.0800;-33.9000;-24.3000;-9.6000
1272.2790;-34.7100;-24.2000;-10.5100
1272.4780;-35.6600;-24.0800;-11.5800
1272.6770;-36.7700;-23.9900;-12.7800
1272.8760;-37.9600;-23.8700;-14.0900
1273.0750;-39.2700;-23.7700;-15.5000
1273.2740;-39.6200;-23.6700;-15.9500
1273.4740;-39.2200;-23.5600;-15.6600
1273.6730;-37.9700;-23.4600;-14.5100
1273.8720;-36.3200;-23.3500;-12.9700
1274.0710;-34.4000;-23.2400;-11.1600
1274.2700;-33.0900;-23.1400;-9.9500
1274.4690;-31.7100;-23.0300;-8.6800
1274.6680;-30.4600;-22.9400;-7.5200
1274.8670;-29.3600;-22.8300;-6.5300
1275.0660;-28.3800;-22.7300;-5.6500
1275.2660;-27.5100;-22.6300;-4.8800
1275.4650;-26.7500;-22.5300;-4.2200
1275.6640;-25.9600;-22.4400;-3.5200
1275.8630;-25.4800;-22.3400;-3.1400
1276.0620;-24.9600;-22.2500;-2.7100
1276.2610;-24.5100;-22.1600;-2.3500
1276.4600;-24.1200;-22.0700;-2.0500
1276.6590;-23.7800;-21.9900;-1.7900
1276.8580;-23.5300;-21.8900;-1.6400
1277.0580;-23.3100;-21.8200;-1.4900
1277.2570;-23.1600;-21.7300;-1.4300
1277.4560;-23.0400;-21.6500;-1.3900
1277.6550;-22.9700;-21.5900;-1.3800
1277.8540;-22.9600;-21.5000;-1.4600
1278.0530;-22.9600;-21.4300;-1.5300
1278.2520;-23.0100;-21.3400;-1.6700
1278.4510;-23.0600;-21.2700;-1.7900
1278.6500;-23.1400;-21.2000;-1.9400
1278.8500;-23.2300;-21.1100;-2.1200
1279.0490;-23.3000;-21.0400;-2.2600
1279.2480;-23.3800;-20.9500;-2.4300
1279.4470;-23.4100;-20.8800;-2.5300
1279.6460;-23.4100;-20.8000;-2.6100
1279.8450;-23.3800;-20.7100;-2.6700
1280.0440;-23.2800;-20.6500;-2.6300
1280.2430;-23.1600;-20.5500;-2.6100
1280.4430;-22.9700;-20.4700;-2.5000
1280.6420;-22.7700;-20.3900;-2.3800
1280.8410;-22.5300;-20.3000;-2.2300
1281.0400;-22.2700;-20.2400;-2.0300
1281.2390;-22.0300;-20.1500;-1.8800
1281.4380;-21.7700;-20.0700;-1.7000
1281.6370;-21.5500;-19.9900;-1.5600
1281.8360;-21.3400;-19.9100;-1.4300
1282.0350;-21.1700;-19.8400;-1.3300
1282.2350;-21.0500;-19.7500;-1.3000
1282.4340;-20.9500;-19.6900;-1.2600
1282.6330;-20.9300;-19.6200;-1.3100
1282.8320;-20.9300;-19.5400;-1.3900
1283.0310;-21.0000;-19.4900;-1.5100
1283.2300;-21.1400;-19.4100;-1.7300
1283.4290;-21.3300;-19.3500;-1.9800
1283.6280;-21.6200;-19.2700;-2.3500
1283.8270;-21.9600;-19.2000;-2.7600
1284.0270;-22.3900;-19.1500;-3.2400
1284.2260;-22.9300;-19.0800;-3.8500
1284.4250;-23.5700;-19.0300;-4.5400
1284.6240;-24.3400;-18.9500;-5.3900
1284.8230;-25.2300;-18.8900;-6.3400
1285.0220;-26.3000;-18.8400;-7.4600
1285.2210;-27.5700;-18.7700;-8.8000
1285.4200;-29.3300;-18.7200;-10.6100
1285.6200;-30.6400;-18.6400;-12.0000
1285.8190;-32.1400;-18.5900;-13.5500
1286.0180;-33.0400;-18.5300;-14.5100
1286.2170;-32.7000;-18.4700;-14.2300
1286.4160;-31.3600;-18.4200;-12.9400
1286.6150;-29.6600;-18.3600;-11.3000
1286.8140;-27.9900;-18.3100;-9.6800
1287.0130;-26.5300;-18.2600;-8.2700
1287.2120;-25.0300;-18.2000;-6.8300
1287.4120;-24.1300;-18.1700;-5.9600
1287.6110;-23.1800;-18.1100;-5.0700
1287.8100;-22.3600;-18.0700;-4.2900
1288.0090;-21.6500;-18.0200;-3.6300
1288.2080;-21.0400;-17.9700;-3.0700
1288.4070;-20.5300;-17.9400;-2.5900
1288.6060;-20.0700;-17.8900;-2.1800
1288.8050;-19.7100;-17.8600;-1.8500
1289.0040;-19.3800;-17.8100;-1.5700
1289.2040;-19.1300;-17.7700;-1.3600
1289.4030;-18.9400;-17.7400;-1.2000
1289.6020;-18.7800;-17.7000;-1.0800
1289.8010;-18.6900;-17.6700;-1.0200
1290.0000;-18.6300;-17.6200;-1.0100
1290.1990;-18.6100;-17.5800;-1.0300
1290.3980;-18.6500;-17.5500;-1.1000
1290.5970;-18.7200;-17.5200;-1.2000
1290.7970;-18.8400;-17.4900;-1.3500
1290.9960;-18.9600;-17.4300;-1.5300
1291.1950;-19.1500;-17.3900;-1.7600
1291.3940;-19.3900;-17.3500;-2.0400
1291.5930;-19.6400;-17.3000;-2.3400
1291.7920;-19.9700;-17.2700;-2.7000
1291.9910;-20.3200;-17.2100;-3.1100
1292.1900;-20.7300;-17.1800;-3.5500
1292.3890;-21.1900;-17.1300;-4.0600
1292.5890;-21.7000;-17.0800;-4.6200
1292.7880;-22.3000;-17.0500;-5.2500
1292.9870;-22.9500;-17.0000;-5.9500
1293.1860;-23.7000;-16.9700;-6.7300
1293.3850;-24.5300;-16.9200;-7.6100
1293.5840;-25.4600;-16.8700;-8.5900
1293.7830;-26.5400;-16.8400;-9.7000
1293.9820;-27.7400;-16.8000;-10.9400
1294.1810;-29.4000;-16.7900;-12.6100
1294.3810;-30.6000;-16.7400;-13.8600
1294.5800;-32.0900;-16.7000;-15.3900
1294.7790;-33.3100;-16.6700;-16.6400
1294.9780;-33.8300;-16.6400;-17.1900
1295.1770;-33.4000;-16.6200;-16.7800
1295.3760;-32.2900;-16.5900;-15.7000
1295.5750;-30.9600;-16.5600;-14.4000
1295.7740;-29.6700;-16.5200;-13.1500
1295.9740;-28.5100;-16.4900;-12.0200
1296.1730;-27.5300;-16.4700;-11.0600
1296.3720;-26.7000;-16.4400;-10.2600
1296.5710;-25.9000;-16.4100;-9.4900
1296.7700;-25.4600;-16.3800;-9.0800
1296.9690;-25.0500;-16.3600;-8.6900
1297.1680;-24.7200;-16.3400;-8.3800
1297.3670;-24.5200;-16.3100;-8.2100
1297.5660;-24.3900;-16.2900;-8.1000
1297.7660;-24.3700;-16.2600;-8.1100
1297.9650;-24.4500;-16.2400;-8.2100
1298.1640;-24.6200;-16.2100;-8.4100
1298.3630;-24.8800;-16.1900;-8.6900
1298.5620;-25.2000;-16.1800;-9.0200
1298.7610;-25.6200;-16.1500;-9.4700
1298.9600;-26.0900;-16.1400;-9.9500
1299.1590;-26.5600;-16.1200;-10.4400
1299.3580;-27.0000;-16.1100;-10.8900
1299.5580;-27.3100;-16.0900;-11.2200
1299.7570;-27.4200;-16.0800;-11.3400
1299.9560;-27.2400;-16.0800;-11.1600
1300.1550;-26.7600;-16.0700;-10.6900
1300.3540;-26.0800;-16.0700;-10.0100
1300.5530;-25.2100;-16.0400;-9.1700
1300.7520;-24.3100;-16.0400;-8.2700
1300.9510;-23.4000;-16.0400;-7.3600
1301.1500;-22.5400;-16.0400;-6.5000
1301.3500;-21.7500;-16.0500;-5.7000
1301.5490;-21.0100;-16.0400;-4.9700
1301.7480;-20.3500;-16.0400;-4.3100
1301.9470;-19.7400;-16.0400;-3.7000
1302.1460;-19.2200;-16.0400;-3.1800
1302.3450;-18.7700;-16.0500;-2.7200
1302.5440;-18.3800;-16.0500;-2.3300
1302.7430;-18.0500;-16.0600;-1.9900
1302.9430;-17.7600;-16.0500;-1.7100
1303.1420;-17.5500;-16.0600;-1.4900
1303.3410;-17.3900;-16.0800;-1.3100
1303.5400;-17.2800;-16.0800;-1.2000
1303.7390;-17.2200;-16.0900;-1.1300
1303.9380;-17.1900;-16.0900;-1.1000
1304.1370;-17.2300;-16.1000;-1.1300
1304.3360;-17.2900;-16.1200;-1.1700
1304.5350;-17.3900;-16.1300;-1.2600
1304.7350;-17.5400;-16.1500;-1.3900
1304.9340;-17.6800;-16.1500;-1.5300
1305.1330;-17.8700;-16.1700;-1.7000
1305.3320;-18.0600;-16.1900;-1.8700
1305.5310;-18.2600;-16.2100;-2.0500
1305.7300;-18.4500;-16.2300;-2.2200
1305.9290;-18.6200;-16.2400;-2.3800
1306.1280;-18.7900;-16.2600;-2.5300
1306.3270;-18.9000;-16.2800;-2.6200
1306.5270;-19.0000;-16.3000;-2.7000
1306.7260;-19.0600;-16.3400;-2.7200
1306.9250;-19.0800;-16.3500;-2.7300
1307.1240;-19.0900;-16.3800;-2.7100
1307.3230;-19.0500;-16.3900;-2.6600
1307.5220;-19.0100;-16.4200;-2.5900
1307.7210;-18.9600;-16.4600;-2.5000
1307.9200;-18.9100;-16.4700;-2.4400
1308.1200;-18.9000;-16.5100;-2.3900
1308.3190;-18.8900;-16.5200;-2.3700
1308.5180;-18.9200;-16.5500;-2.3700
1308.7170;-18.9800;-16.5700;-2.4100
1308.9160;-19.0700;-16.5900;-2.4800
1309.1150;-19.2400;-16.6200;-2.6200
1309.3140;-19.4300;-16.6300;-2.8000
1309.5130;-19.7000;-16.6700;-3.0300
1309.7120;-20.0100;-16.7000;-3.3100
1309.9120;-20.3800;-16.7100;-3.6700
1310.1110;-20.8400;-16.7500;-4.0900
1310.3100;-21.3400;-16.7700;-4.5700
1310.5090;-21.9300;-16.8100;-5.1200
1310.7080;-22.5800;-16.8400;-5.7400
1310.9070;-23.3000;-16.8600;-6.4400
1311.1060;-24.0900;-16.9200;-7.1700
1311.3050;-24.8700;-16.9400;-7.9300
1311.5040;-25.6500;-16.9800;-8.6700
1311.7040;-26.2800;-17.0200;-9.2600
1311.9030;-26.7100;-17.0600;-9.6500
1312.1020;-26.8300;-17.1200;-9.7100
1312.3010;-26.6400;-17.1600;-9.4800
1312.5000;-26.2100;-17.2300;-8.9800
1312.6990;-25.5700;-17.2700;-8.3000
1312.8980;-24.8800;-17.3200;-7.5600
1313.0970;-24.1600;-17.3800;-6.7800
1313.2970;-23.4800;-17.4300;-6.0500
1313.4960;-22.8600;-17.5100;-5.3500
1313.6950;-22.2900;-17.5500;-4.7400
1313.8940;-21.7900;-17.6000;-4.1900
1314.0930;-21.3500;-17.6800;-3.6700
1314.2920;-20.9700;-17.7200;-3.2500
1314.4910;-20.6500;-17.8000;-2.8500
1314.6900;-20.3800;-17.8500;-2.5300
1314.8890;-20.1600;-17.9100;-2.2500
1315.0890;-19.9700;-17.9500;-2.0200
1315.2880;-19.8300;-18.0100;-1.8200
1315.4870;-19.7200;-18.0900;-1.6300
1315.6860;-19.6500;-18.1300;-1.5200
1315.8850;-19.6000;-18.2000;-1.4000
1316.0840;-19.5800;-18.2500;-1.3300
1316.2830;-19.5900;-18.3100;-1.2800
1316.4820;-19.6100;-18.3800;-1.2300
1316.6810;-19.6500;-18.4600;-1.1900
1316.8810;-19.7000;-18.5100;-1.1900
1317.0800;-19.7700;-18.5800;-1.1900
1317.2790;-19.8600;-18.6600;-1.2000
1317.4780;-19.9500;-18.7200;-1.2300
1317.6770;-20.0600;-18.7900;-1.2700
1317.8760;-20.1600;-18.8600;-1.3000
1318.0750;-20.2800;-18.9200;-1.3600
1318.2740;-20.4200;-19.0000;-1.4200
1318.4740;-20.5700;-19.0600;-1.5100
1318.6730;-20.7500;-19.1600;-1.5900
1318.8720;-20.9200;-19.2200;-1.7000
1319.0710;-21.1400;-19.3100;-1.8300
1319.2700;-21.3600;-19.3800;-1.9800
1319.4690;-21.6000;-19.4600;-2.1400
1319.6680;-21.8900;-19.5500;-2.3400
1319.8670;-22.1800;-19.6200;-2.5600
1320.0660;-22.5100;-19.7100;-2.8000
1320.2660;-22.8600;-19.7900;-3.0700
1320.4650;-23.2400;-19.8700;-3.3700
1320.6640;-23.6700;-19.9700;-3.7000
1320.8630;-24.1100;-20.0500;-4.0600
1321.0620;-24.6000;-20.1500;-4.4500
1321.2610;-25.1000;-20.2300;-4.8700
1321.4600;-25.6400;-20.3200;-5.3200
1321.6590;-26.2000;-20.4200;-5.7800
1321.8580;-26.7900;-20.5000;-6.2900
1322.0580;-27.4200;-20.6100;-6.8100
1322.2570;-28.0400;-20.7000;-7.3400
1322.4560;-28.8300;-20.8000;-8.0300
1322.6550;-29.3500;-20.9000;-8.4500
1322.8540;-30.0000;-21.0000;-9.0000
1323.0530;-30.6300;-21.1200;-9.5100
1323.2520;-31.2300;-21.2100;-10.0200
1323.4510;-31.7900;-21.3300;-10.4600
1323.6500;-32.2700;-21.4300;-10.8400
1323.8500;-32.6900;-21.5400;-11.1500
1324.0490;-32.9900;-21.6700;-11.3200
1324.2480;-33.2000;-21.7700;-11.4300
1324.4470;-33.2800;-21.9000;-11.3800
1324.6460;-33.2500;-22.0000;-11.2500
1324.8450;-33.1300;-22.1200;-11.0100
1325.0440;-32.8900;-22.2500;-10.6400
1325.2430;-32.5900;-22.3600;-10.2300
1325.4430;-32.2200;-22.5000;-9.7200
1325.6420;-31.8200;-22.6200;-9.2000
1325.8410;-31.4000;-22.7500;-8.6500
1326.0400;-30.9500;-22.8800;-8.0700
1326.2390;-30.5100;-23.0100;-7.5000
1326.4380;-30.0800;-23.1500;-6.9300
1326.6370;-29.6600;-23.2800;-6.3800
1326.8360;-29.2800;-23.4200;-5.8600
1327.0350;-28.9200;-23.5500;-5.3700
1327.2350;-28.6000;-23.6900;-4.9100
1327.4340;-28.2900;-23.8400;-4.4500
1327.6330;-28.0300;-23.9700;-4.0600
1327.8320;-27.8000;-24.1200;-3.6800
1328.0310;-27.6000;-24.2500;-3.3500
1328.2300;-27.4500;-24.3900;-3.0600
1328.4290;-27.3100;-24.5400;-2.7700
1328.6280;-27.2300;-24.6800;-2.5500
1328.8270;-27.1600;-24.8300;-2.3300
1329.0270;-27.1200;-24.9700;-2.1500
1329.2260;-27.1200;-25.1200;-2.0000
1329.4250;-27.1200;-25.2600;-1.8600
1329.6240;-27.1600;-25.4000;-1.7600
1329.8230;-27.2000;-25.5600;-1.6400
1330.0220;-27.2700;-25.7000;-1.5700
1330.2210;-27.3500;-25.8500;-1.5000
1330.4200;-27.4300;-26.0000;-1.4300
1330.6200;-27.5400;-26.1400;-1.4000
1330.8190;-27.6400;-26.3000;-1.3400
1331.0180;-27.7400;-26.4500;-1.2900
1331.2170;-27.8500;-26.6200;-1.2300
1331.4160;-27.9600;-26.7600;-1.2000
1331.6150;-28.0900;-26.9300;-1.1600
1331.8140;-28.2000;-27.0800;-1.1200
1332.0130;-28.3400;-27.2300;-1.1100
1332.2120;-28.4600;-27.4000;-1.0600
1332.4120;-28.6100;-27.5600;-1.0500
1332.6110;-28.7900;-27.7300;-1.0600
1332.8100;-28.9600;-27.8800;-1.0800
1333.0090;-29.1800;-28.0400;-1.1400
1333.2080;-29.4000;-28.1900;-1.2100
1333.4070;-29.6700;-28.3500;-1.3200
1333.6060;-29.9700;-28.5500;-1.4200
1333.8050;-30.3100;-28.6800;-1.6300
1334.0040;-30.7000;-28.8500;-1.8500
1334.2040;-31.1300;-29.0000;-2.1300
1334.4030;-31.6300;-29.1700;-2.4600
1334.6020;-32.1600;-29.3200;-2.8400
1334.8010;-32.7700;-29.4900;-3.2800
1335.0000;-33.4500;-29.6600;-3.7900
1335.1990;-34.1900;-29.8200;-4.3700
1335.3980;-35.0200;-29.9900;-5.0300
1335.5970;-35.9000;-30.1500;-5.7500
1335.7970;-36.8600;-30.3300;-6.5300
1335.9960;-37.8500;-30.5000;-7.3500
1336.1950;-39.0600;-30.6700;-8.3900
1336.3940;-39.7800;-30.8500;-8.9300
1336.5930;-40.5300;-31.0100;-9.5200
1336.7920;-40.9900;-31.1900;-9.8000
1336.9910;-41.1000;-31.3600;-9.7400
1337.1900;-40.8900;-31.5400;-9.3500
1337.3890;-40.4400;-31.7300;-8.7100
1337.5890;-39.8900;-31.9100;-7.9800
1337.7880;-39.3100;-32.1000;-7.2100
1337.9870;-38.7600;-32.2700;-6.4900
1338.1860;-38.2900;-32.4600;-5.8300
1338.3850;-37.8800;-32.6300;-5.2500
1338.5840;-37.5700;-32.8100;-4.7600
1338.7830;-37.3400;-32.9900;-4.3500
1338.9820;-37.2000;-33.1700;-4.0300
1339.1810;-37.1700;-33.3600;-3.8100
1339.3810;-37.2000;-33.5300;-3.6700
1339.5800;-37.3400;-33.7100;-3.6300
1339.7790;-37.5500;-33.8800;-3.6700
1339.9780;-37.8600;-34.0600;-3.8000
1340.1770;-38.2700;-34.2500;-4.0200
1340.3760;-38.7800;-34.4200;-4.3600
1340.5750;-39.4100;-34.6100;-4.8000
1340.7740;-40.1300;-34.7800;-5.3500
1340.9740;-41.0000;-34.9600;-6.0400
1341.1730;-42.0100;-35.1400;-6.8700
1341.3720;-43.1900;-35.3100;-7.8800
1341.5710;-44.5800;-35.5000;-9.0800
1341.7700;-46.1900;-35.6700;-10.5200
1341.9690;-48.0400;-35.8600;-12.1800
1342.1680;-50.4600;-36.0400;-14.4200
1342.3670;-51.6700;-36.2200;-15.4500
1342.5660;-52.0500;-36.4200;-15.6300
1342.7660;-51.0300;-36.6000;-14.4300
1342.9650;-49.4000;-36.8000;-12.6000
1343.1640;-47.7600;-36.9900;-10.7700
1343.3630;-46.1100;-37.1700;-8.9400
1343.5620;-45.1500;-37.3800;-7.7700
1343.7610;-44.2000;-37.5600;-6.6400
1343.9600;-43.4000;-37.7800;-5.6200
1344.1590;-42.7600;-37.9700;-4.7900
1344.3580;-42.2300;-38.1600;-4.0700
1344.5580;-41.8400;-38.3700;-3.4700
1344.7570;-41.5400;-38.6000;-2.9400
1344.9560;-41.3000;-38.7500;-2.5500
1345.1550;-41.1700;-38.9300;-2.2400
1345.3540;-41.0900;-39.1200;-1.9700
1345.5530;-41.0900;-39.3000;-1.7900
1345.7520;-41.1500;-39.4900;-1.6600
1345.9510;-41.2700;-39.6800;-1.5900
1346.1500;-41.4600;-39.8600;-1.6000
1346.3500;-41.6800;-40.0600;-1.6200
1346.5490;-41.9700;-40.2500;-1.7200
1346.7480;-42.2800;-40.4400;-1.8400
1346.9470;-42.6400;-40.6100;-2.0300
1347.1460;-43.0500;-40.7900;-2.2600
1347.3450;-43.4600;-40.9600;-2.5000
1347.5440;-43.9800;-41.1800;-2.8000
1347.7430;-44.5100;-41.4200;-3.0900
1347.9430;-45.0800;-41.6200;-3.4600
1348.1420;-45.6400;-41.8100;-3.8300
1348.3410;-46.2300;-42.0000;-4.2300
1348.5400;-46.8100;-42.1500;-4.6600
1348.7390;-47.4000;-42.3300;-5.0700
1348.9380;-48.0200;-42.4900;-5.5300
1349.1370;-48.7800;-42.6700;-6.1100
1349.3360;-49.2800;-42.8200;-6.4600
1349.5350;-49.9300;-42.9900;-6.9400
1349.7350;-50.5700;-43.1600;-7.4100
1349.9340;-51.2400;-43.3400;-7.9000
1350.1330;-51.8900;-43.5500;-8.3400
1350.3320;-52.5800;-43.7900;-8.7900
1350.5310;-53.1900;-44.0100;-9.1800
1350.7300;-53.6900;-44.1900;-9.5000
1350.9290;-54.0800;-44.3400;-9.7400
1351.1280;-54.2600;-44.4900;-9.7700
1351.3270;-54.3300;-44.6400;-9.6900
1351.5270;-54.2400;-44.8400;-9.4000
1351.7260;-54.0700;-45.0700;-9.0000
1351.9250;-53.7200;-45.2700;-8.4500
1352.1240;-53.2600;-45.4500;-7.8100
1352.3230;-52.8300;-45.6400;-7.1900
1352.5220;-52.3600;-45.8600;-6.5000
1352.7210;-51.8600;-46.0100;-5.8500
1352.9200;-51.3900;-46.1900;-5.2000
1353.1200;-51.0700;-46.4500;-4.6200
1353.3190;-50.6500;-46.5800;-4.0700
1353.5180;-50.3100;-46.7700;-3.5400
1353.7170;-50.0700;-46.9500;-3.1200
1353.9160;-49.7700;-47.0800;-2.6900
1354.1150;-49.5900;-47.2400;-2.3500
1354.3140;-49.5300;-47.4600;-2.0700
1354.5130;-49.4800;-47.6700;-1.8100
1354.7120;-49.6200;-48.0000;-1.6200
1354.9120;-49.7500;-48.3000;-1.4500
1355.1110;-49.8300;-48.5100;-1.3200
1355.3100;-49.9000;-48.6200;-1.2800
1355.5090;-49.8900;-48.6200;-1.2700
1355.7080;-50.1700;-48.8900;-1.2800
1355.9070;-50.4900;-49.1800;-1.3100
1356.1060;-50.7600;-49.3500;-1.4100
1356.3050;-50.9600;-49.4600;-1.5000
1356.5040;-51.2200;-49.5400;-1.6800
1356.7040;-51.2600;-49.4800;-1.7800
1356.9030;-51.5500;-49.6300;-1.9200
1357.1020;-52.0500;-50.0100;-2.0400
1357.3010;-52.3900;-50.2500;-2.1400
1357.5000;-52.6800;-50.4300;-2.2500
1357.6990;-52.9200;-50.6100;-2.3100
1357.8980;-53.0000;-50.6700;-2.3300
1358.0970;-53.0300;-50.7400;-2.2900
1358.2970;-53.1600;-50.9200;-2.2400
1358.4960;-53.3100;-51.1500;-2.1600
1358.6950;-53.3100;-51.3100;-2.0000
1358.8940;-53.3400;-51.4500;-1.8900
1359.0930;-53.3400;-51.6000;-1.7400
1359.2920;-53.2600;-51.6600;-1.6000
1359.4910;-53.5300;-52.0200;-1.5100
1359.6900;-53.7400;-52.3300;-1.4100
1359.8890;-53.8900;-52.5200;-1.3700
1360.0890;-53.9300;-52.5800;-1.3500
1360.2880;-54.0000;-52.6000;-1.4000
1360.4870;-54.0800;-52.5800;-1.5000
1360.6860;-54.3700;-52.7500;-1.6200
1360.8850;-54.9300;-53.0900;-1.8400
1361.0840;-55.4900;-53.3900;-2.1000
1361.2830;-56.0500;-53.5400;-2.5100
1361.4820;-56.7000;-53.7200;-2.9800
1361.6810;-57.3900;-53.9300;-3.4600
1361.8810;-58.1900;-54.0500;-4.1400
1362.0800;-59.4200;-54.2800;-5.1400
1362.2790;-60.5200;-54.7100;-5.8100
1362.4780;-61.7300;-54.9500;-6.7800
1362.6770;-63.2000;-55.0900;-8.1100
1362.8760;-64.5000;-54.9800;-9.5200
1363.0750;-65.8900;-54.9500;-10.9400
1363.2740;-66.5600;-54.7200;-11.8400
1363.4740;-67.0900;-54.8300;-12.2600
1363.6730;-66.8600;-54.9200;-11.9400
1363.8720;-65.9700;-55.1000;-10.8700
1364.0710;-64.9600;-55.3300;-9.6300
1364.2700;-63.8000;-55.5400;-8.2600
1364.4690;-63.0500;-55.8700;-7.1800
1364.6680;-62.5500;-56.4000;-6.1500
1364.8670;-61.7400;-56.6600;-5.0800
1365.0660;-60.9100;-56.6700;-4.2400
1365.2660;-60.4100;-56.8300;-3.5800
1365.4650;-59.9200;-56.8000;-3.1200
1365.6640;-59.5300;-56.9000;-2.6300
1365.8630;-59.2300;-56.9700;-2.2600
1366.0620;-58.9600;-56.9800;-1.9800
1366.2610;-58.7800;-57.0100;-1.7700
1366.4600;-58.7400;-57.1000;-1.6400
1366.6590;-58.8400;-57.2800;-1.5600
1366.8580;-59.0700;-57.5400;-1.5300
1367.0580;-59.2500;-57.6900;-1.5600
1367.2570;-59.4400;-57.8300;-1.6100
1367.4560;-59.8400;-58.0800;-1.7600
1367.6550;-60.1800;-58.3000;-1.8800
1367.8540;-60.6500;-58.6400;-2.0100
1368.0530;-60.9900;-58.7400;-2.2500
1368.2520;-61.1900;-58.7300;-2.4600
1368.4510;-61.7200;-59.0800;-2.6400
1368.6500;-62.0000;-59.2000;-2.8000
1368.8500;-62.3200;-59.3200;-3.0000
1369.0490;-62.5000;-59.3300;-3.1700
1369.2480;-62.6200;-59.3100;-3.3100
1369.4470;-62.6200;-59.2700;-3.3500
1369.6460;-62.7800;-59.3900;-3.3900
1369.8450;-63.1400;-59.7400;-3.4000
1370.0440;-63.3700;-59.9700;-3.4000
1370.2430;-63.5200;-60.1300;-3.3900
1370.4430;-63.6000;-60.2200;-3.3800
1370.6420;-63.6400;-60.2700;-3.3700
1370.8410;-63.9600;-60.6000;-3.3600
1371.0400;-64.2900;-60.8800;-3.4100
1371.2390;-64.5900;-61.1000;-3.4900
1371.4380;-64.7000;-61.1700;-3.5300
1371.6370;-64.8800;-61.1800;-3.7000
1371.8360;-65.0400;-61.1900;-3.8500
1372.0350;-65.5200;-61.4100;-4.1100
1372.2350;-66.0200;-61.6500;-4.3700
1372.4340;-66.5100;-61.7800;-4.7300
1372.6330;-67.1000;-61.8700;-5.2300
1372.8320;-67.6300;-61.9900;-5.6400
1373.0310;-68.3600;-62.0600;-6.3000
1373.2300;-69.2100;-62.2600;-6.9500
1373.4290;-70.1500;-62.4300;-7.7200
1373.6280;-70.8600;-62.5900;-8.2700
1373.8270;-71.8200;-62.7200;-9.1000
1374.0270;-72.7600;-62.8600;-9.9000
1374.2260;-73.9300;-63.0100;-10.9200
1374.4250;-74.8200;-63.1800;-11.6400
1374.6240;-75.6500;-63.3700;-12.2800
1374.8230;-76.4600;-63.6100;-12.8500
1375.0220;-76.4200;-63.8200;-12.6000
1375.2210;-76.4600;-63.9600;-12.5000
1375.4200;-76.0500;-64.0900;-11.9600
1375.6200;-75.3800;-64.2400;-11.1400
1375.8190;-74.9800;-64.3500;-10.6300
1376.0180;-74.5800;-64.6300;-9.9500
1376.2170;-74.4000;-64.8400;-9.5600
1376.4160;-73.7500;-64.9500;-8.8000
1376.6150;-73.5500;-65.0900;-8.4600
1376.8140;-73.1300;-65.3600;-7.7700
1377.0130;-73.2800;-65.6500;-7.6300
1377.2120;-73.2500;-65.8200;-7.4300
1377.4120;-73.0700;-65.9800;-7.0900
1377.6110;-72.9500;-66.1200;-6.8300
1377.8100;-72.4200;-66.0800;-6.3400
1378.0090;-72.4100;-66.2400;-6.1700
1378.2080;-72.6700;-66.4500;-6.2200
1378.4070;-72.2900;-66.6500;-5.6400
1378.6060;-72.4900;-66.9600;-5.5300
1378.8050;-72.6700;-67.3100;-5.3600
1379.0040;-72.3700;-67.5800;-4.7900
1379.2040;-72.2600;-67.5800;-4.6800
1379.4030;-71.9800;-67.6700;-4.3100
1379.6020;-71.9200;-67.6000;-4.3200
1379.8010;-71.9600;-67.7800;-4.1800
1380.0000;-71.8300;-67.9000;-3.9300
1380.1990;-71.8300;-68.2200;-3.6100
1380.3980;-71.9000;-68.4500;-3.4500
1380.5970;-72.2500;-68.9800;-3.2700
1380.7970;-72.6700;-69.4000;-3.2700
1380.9960;-72.7200;-69.8200;-2.9000
1381.1950;-72.7000;-69.7300;-2.9700
1381.3940;-72.4200;-69.5500;-2.8700
1381.5930;-72.1500;-69.2500;-2.9000
1381.7920;-72.1900;-69.4100;-2.7800
1381.9910;-72.3700;-69.5600;-2.8100
1382.1900;-72.2700;-69.5600;-2.7100
1382.3890;-72.5400;-69.8100;-2.7300
1382.5890;-73.4600;-70.3700;-3.0900
1382.7880;-73.8600;-71.0100;-2.8500
1382.9870;-74.7600;-71.2100;-3.5500
1383.1860;-74.5200;-71.0200;-3.5000
1383.3850;-74.1900;-70.7200;-3.4700
1383.5840;-74.1100;-70.7300;-3.3800
1383.7830;-74.2700;-70.7900;-3.4800
1383.9820;-74.2700;-71.0800;-3.1900
1384.1810;-74.7500;-71.1900;-3.5600
1384.3810;-74.1900;-70.9600;-3.2300
1384.5800;-74.1400;-71.0900;-3.0500
1384.7790;-74.2700;-71.1500;-3.1200
1384.9780;-74.8100;-71.6000;-3.2100
1385.1770;-75.0000;-71.7200;-3.2800
1385.3760;-74.7600;-71.7600;-3.0000
1385.5750;-74.9600;-71.8100;-3.1500
1385.7740;-74.8500;-71.9300;-2.9200
1385.9740;-74.5700;-71.8800;-2.6900
1386.1730;-74.9200;-71.8100;-3.1100
1386.3720;-74.3700;-72.1600;-2.2100
1386.5710;-74.8000;-72.0500;-2.7500
1386.7700;-74.3700;-72.2900;-2.0800
1386.9690;-74.5800;-72.1600;-2.4200
1387.1680;-75.1400;-72.1900;-2.9500
1387.3670;-74.9000;-72.2700;-2.6300
1387.5660;-75.0900;-72.3600;-2.7300
1387.7660;-75.5100;-72.8700;-2.6400
1387.9650;-76.1300;-73.0200;-3.1100
1388.1640;-75.8200;-73.3700;-2.4500
1388.3630;-76.2600;-73.7700;-2.4900
1388.5620;-76.7900;-73.4300;-3.3600
1388.7610;-76.2800;-73.2400;-3.0400
1388.9600;-76.0900;-73.1600;-2.9300
1389.1590;-75.7300;-73.1100;-2.6200
1389.3580;-76.4100;-73.0000;-3.4100
1389.5580;-77.1700;-72.9300;-4.2400
1389.7570;-77.0600;-73.0200;-4.0400
1389.9560;-76.9800;-73.4700;-3.5100
1390.1550;-76.4100;-73.4300;-2.9800
1390.3540;-77.1500;-73.3000;-3.8500
1390.5530;-77.3600;-73.8100;-3.5500
1390.7520;-76.9800;-73.7500;-3.2300
1390.9510;-77.1500;-73.6000;-3.5500
1391.1500;-77.1900;-73.7500;-3.4400
1391.3500;-77.4800;-74.1300;-3.3500
1391.5490;-76.7300;-73.9000;-2.8300
1391.7480;-76.8200;-73.8400;-2.9800
1391.9470;-77.2000;-74.0200;-3.1800
1392.1460;-77.2200;-74.4400;-2.7800
1392.3450;-77.4700;-74.8600;-2.6100
1392.5440;-78.1600;-75.2400;-2.9200
1392.7430;-78.6400;-75.2500;-3.3900
1392.9430;-78.5300;-74.9900;-3.5400
1393.1420;-79.1700;-75.1000;-4.0700
1393.3410;-77.3100;-74.8600;-2.4500
1393.5400;-77.0700;-75.2700;-1.8000
1393.7390;-79.2300;-74.7100;-4.5200
1393.9380;-78.3700;-74.2900;-4.0800
1394.1370;-78.4200;-74.6900;-3.7300
1394.3360;-78.3700;-74.8400;-3.5300
1394.5350;-79.1700;-74.6800;-4.4900
1394.7350;-79.5000;-75.5700;-3.9300
1394.9340;-78.5000;-75.2700;-3.2300
1395.1330;-79.4300;-75.3100;-4.1200
1395.3320;-79.5000;-75.9000;-3.6000
1395.5310;-79.5000;-75.8400;-3.6600
1395.7300;-79.2300;-76.3200;-2.9100
1395.9290;-79.7800;-76.1900;-3.5900
1396.1280;-80.4000;-75.7100;-4.6900
1396.3270;-80.0000;-76.6800;-3.3200
1396.5270;-80.2000;-75.7100;-4.4900
1396.7260;-79.7100;-76.0400;-3.6700
1396.9250;-80.2000;-76.1100;-4.0900
1397.1240;-79.6400;-76.1900;-3.4500
1397.3230;-79.5000;-75.8100;-3.6900
1397.5220;-79.0500;-75.7800;-3.2700
1397.7210;-80.8400;-76.5900;-4.2500
1397.9200;-80.4000;-76.1900;-4.2100
1398.1200;-81.5400;-76.0400;-5.5000
1398.3190;-80.0800;-76.2200;-3.8600
1398.5180;-78.7600;-75.8700;-2.8900
1398.7170;-80.8900;-76.4600;-4.4300
1398.9160;-80.8900;-76.2200;-4.6700
1399.1150;-80.2100;-76.3600;-3.8500
1399.3140;-81.7700;-75.9700;-5.8000
1399.5130;-81.6600;-76.2000;-5.4600
1399.7120;-82.0100;-76.7800;-5.2300
1399.9120;-81.3900;-76.3800;-5.0100
1400.1110;-81.8900;-76.8900;-5.0000
1400.3100;-83.0200;-76.6200;-6.4000
1400.5090;-81.2300;-76.8900;-4.3400
1400.7080;-82.8700;-77.5300;-5.3400
1400.9070;-81.2300;-77.5300;-3.7000
1401.1060;-82.3800;-77.0800;-5.3000
1401.3050;-82.3800;-76.8900;-5.4900
1401.5040;-80.9400;-76.5000;-4.4400
1401.7040;-83.6800;-77.7900;-5.8900
1401.9030;-85.5300;-76.9600;-8.5700
1402.1020;-80.7600;-77.0200;-3.7400
1402.3010;-82.1300;-77.1400;-4.9900
1402.5000;-81.1300;-77.3400;-3.7900
1402.6990;-81.4900;-77.3200;-4.1700
1402.8980;-81.5500;-76.4000;-5.1500
1403.0970;-81.1300;-77.2300;-3.9000
1403.2970;-82.2500;-76.9200;-5.3300
1403.4960;-82.1300;-77.4600;-4.6700
1403.6950;-80.5800;-77.8400;-2.7400
1403.8940;-79.7500;-77.0400;-2.7100
1404.0930;-82.7300;-76.7100;-6.0200
1404.2920;-81.5500;-77.1600;-4.3900
1404.4910;-81.0400;-77.7200;-3.3200
1404.6900;-81.8900;-77.1700;-4.7200
1404.8890;-81.3400;-77.7000;-3.6400
1405.0890;-80.8900;-77.5700;-3.3200
1405.2880;-86.6000;-77.9100;-8.6900
1405.4870;-81.4900;-79.6800;-1.8100
1405.6860;-80.4900;-78.0000;-2.4900
1405.8850;-81.0400;-77.8800;-3.1600
1406.0840;-80.2500;-77.3800;-2.8700
1406.2830;-80.0500;-77.3600;-2.6900
1406.4820;-80.6200;-78.0300;-2.5900
1406.6810;-82.9600;-77.8700;-5.0900
1406.8810;-81.1400;-76.8200;-4.3200
1407.0800;-81.3000;-77.2000;-4.1000
1407.2790;-82.4600;-78.7100;-3.7500
1407.4780;-80.4200;-79.1900;-1.2300
1407.6770;-82.2000;-79.0100;-3.1900
1407.8760;-82.5300;-78.0900;-4.4400
1408.0750;-81.3500;-78.7700;-2.5800
1408.2740;-83.4300;-77.6200;-5.8100
1408.4740;-80.3400;-77.0500;-3.2900
1408.6730;-80.7200;-77.4100;-3.3100
1408.8720;-80.0600;-77.4500;-2.6100
1409.0710;-81.2400;-77.8500;-3.3900
1409.2700;-81.1000;-77.2400;-3.8600
1409.4690;-82.4600;-77.0700;-5.3900
1409.6680;-80.9500;-77.5800;-3.3700
1409.8670;-81.1400;-78.0100;-3.1300
1410.0660;-80.9500;-77.7600;-3.1900
1410.2660;-80.4200;-78.1800;-2.2400
1410.4650;-80.8100;-77.8200;-2.9900
1410.6640;-81.9000;-77.7600;-4.1400
1410.8630;-82.1400;-77.6700;-4.4700
1411.0620;-79.5200;-78.4400;-1.0800
1411.2610;-80.9000;-77.5100;-3.3900
1411.4600;-83.7800;-77.4100;-6.3700
1411.6590;-83.7800;-77.9900;-5.7900
1411.8580;-81.9600;-78.8300;-3.1300
1412.0580;-81.0500;-77.2200;-3.8300
1412.2570;-81.4500;-77.3700;-4.0800
1412.4560;-81.4500;-77.4100;-4.0400
1412.6550;-80.6800;-77.2700;-3.4100
1412.8540;-82.3900;-76.7000;-5.6900
1413.0530;-81.2400;-77.5400;-3.7000
1413.2520;-80.1800;-77.7100;-2.4700
1413.4510;-80.2200;-77.3700;-2.8500
1413.6500;-80.5100;-77.6800;-2.8300
1413.8500;-81.4600;-77.0600;-4.4000
1414.0490;-81.3100;-77.1400;-4.1700
1414.2480;-79.5300;-77.6800;-1.8500
1414.4470;-83.7000;-77.5000;-6.2000
1414.6460;-80.2700;-77.2800;-2.9900
1414.8450;-81.4100;-77.4200;-3.9900
1415.0440;-82.7500;-77.0000;-5.7500
1415.2430;-82.2100;-77.5500;-4.6600
1415.4430;-81.4600;-77.2100;-4.2500
1415.6420;-81.3100;-77.1000;-4.2100
1415.8410;-81.6200;-77.8100;-3.8100
1416.0400;-82.3400;-77.2800;-5.0600
1416.2390;-80.3900;-77.6100;-2.7800
1416.4380;-79.8100;-76.2900;-3.5200
1416.6370;-81.0600;-76.6700;-4.3900
1416.8360;-82.7500;-77.0200;-5.7300
1417.0350;-82.8200;-76.9800;-5.8400
1417.2350;-79.9500;-77.0200;-2.9300
1417.4340;-80.2300;-76.6500;-3.5800
1417.6330;-81.7300;-76.6700;-5.0600
1417.8320;-80.6900;-76.5900;-4.1000
1418.0310;-80.1100;-75.8900;-4.2200
1418.2300;-78.7000;-76.9300;-1.7700
1418.4290;-80.1900;-77.0200;-3.1700
1418.6280;-79.7400;-77.3000;-2.4400
1418.8270;-80.7300;-77.5700;-3.1600
1419.0270;-80.8700;-77.6500;-3.2200
1419.2260;-81.9100;-77.7400;-4.1700
1419.4250;-81.1500;-77.8300;-3.3200
1419.6240;-80.8200;-77.0200;-3.8000
1419.8230;-81.4100;-77.5700;-3.8400
1420.0220;-80.6000;-76.1700;-4.4300
1420.2210;-81.0100;-76.7100;-4.3000
1420.4200;-81.1100;-76.8900;-4.2200
1420.6200;-82.6800;-76.7100;-5.9700
1420.8190;-81.3100;-76.2900;-5.0200
1421.0180;-80.7800;-76.8500;-3.9300
1421.2170;-80.2700;-76.3200;-3.9500
1421.4160;-80.9600;-77.1200;-3.8400
1421.6150;-79.8200;-76.6000;-3.2200
1421.8140;-79.6800;-76.6300;-3.0500
1422.0130;-81.3700;-75.8400;-5.5300
1422.2120;-80.3600;-76.4900;-3.8700
1422.4120;-80.9700;-76.6100;-4.3600
1422.6110;-80.0400;-77.0700;-2.9700
1422.8100;-80.0000;-77.3300;-2.6700
1423.0090;-79.5000;-76.7400;-2.7600
1423.2080;-79.7800;-76.4400;-3.3400
1423.4070;-79.9600;-76.5300;-3.4300
1423.6060;-78.9100;-76.2300;-2.6800
1423.8050;-80.5700;-76.8600;-3.7100
1424.0040;-79.9300;-77.0100;-2.9200
1424.2040;-81.5800;-77.5100;-4.0700
1424.4030;-82.1600;-76.5300;-5.6300
1424.6020;-79.5400;-76.2500;-3.2900
1424.8010;-81.2100;-76.5300;-4.6800
1425.0000;-80.7000;-76.5300;-4.1700
