Wavelength;Intensity_Meas;Intensity_Ref;Difference_dB
1200.0000;-61.5200;-57.0400;-4.4800
1200.1990;-61.4400;-57.0100;-4.4300
1200.3980;-61.4400;-56.9700;-4.4700
1200.5970;-61.3900;-56.9600;-4.4300
1200.7970;-61.3400;-56.9200;-4.4200
1200.9960;-61.2900;-56.9000;-4.3900
1201.1950;-61.2400;-56.8600;-4.3800
1201.3940;-61.2300;-56.8000;-4.4300
1201.5930;-61.1700;-56.7800;-4.3900
1201.7920;-61.0800;-56.7400;-4.3400
1201.9910;-61.0600;-56.6800;-4.3800
1202.1900;-61.0400;-56.6500;-4.3900
1202.3890;-61.0200;-56.5600;-4.4600
1202.5890;-60.9600;-56.5200;-4.4400
1202.7880;-60.9200;-56.4800;-4.4400
1202.9870;-60.9300;-56.4300;-4.5000
1203.1860;-60.9100;-56.3600;-4.5500
1203.3850;-60.8700;-56.3000;-4.5700
1203.5840;-60.8500;-56.3000;-4.5500
1203.7830;-60.8500;-56.2500;-4.6000
1203.9820;-60.8600;-56.2000;-4.6600
1204.1810;-60.8300;-56.1500;-4.6800
1204.3810;-60.7900;-56.1100;-4.6800
1204.5800;-60.7900;-56.1100;-4.6800
1204.7790;-60.7100;-56.0600;-4.6500
1204.9780;-60.6900;-56.0100;-4.6800
1205.1770;-60.6100;-56.0000;-4.6100
1205.3760;-60.5500;-55.9800;-4.5700
1205.5750;-60.5200;-55.9600;-4.5600
1205.7740;-60.4700;-55.9300;-4.5400
1205.9740;-60.4200;-55.9100;-4.5100
1206.1730;-60.3400;-55.9200;-4.4200
1206.3720;-60.3000;-55.8800;-4.4200
1206.5710;-60.2700;-55.8700;-4.4000
1206.7700;-60.2000;-55.8300;-4.3700
1206.9690;-60.1500;-55.8100;-4.3400
1207.1680;-60.1200;-55.8300;-4.2900
1207.3670;-60.1100;-55.7800;-4.3300
1207.5660;-60.0600;-55.7300;-4.3300
1207.7660;-60.0000;-55.7100;-4.2900
1207.9650;-59.9900;-55.6900;-4.3000
1208.1640;-59.9500;-55.6500;-4.3000
1208.3630;-59.9200;-55.5800;-4.3400
1208.5620;-59.8600;-55.5500;-4.3100
1208.7610;-59.7900;-55.5300;-4.2600
1208.9600;-59.7800;-55.4700;-4.3100
1209.1590;-59.7400;-55.4200;-4.3200
1209.3580;-59.6500;-55.3500;-4.3000
1209.5580;-59.6100;-55.3200;-4.2900
1209.7570;-59.5800;-55.2900;-4.2900
1209.9560;-59.5500;-55.2200;-4.3300
1210.1550;-59.4800;-55.1700;-4.3100
1210.3540;-59.4100;-55.1200;-4.2900
1210.5530;-59.4000;-55.0900;-4.3100
1210.7520;-59.3800;-55.0300;-4.3500
1210.9510;-59.3200;-54.9700;-4.3500
1211.1500;-59.2700;-54.9500;-4.3200
1211.3500;-59.2300;-54.9100;-4.3200
1211.5490;-59.2500;-54.8600;-4.3900
1211.7480;-59.2300;-54.8200;-4.4100
1211.9470;-59.2000;-54.7900;-4.4100
1212.1460;-59.1600;-54.7700;-4.3900
1212.3450;-59.1700;-54.7300;-4.4400
1212.5440;-59.2000;-54.6800;-4.5200
1212.7430;-59.1400;-54.6700;-4.4700
1212.9430;-59.1500;-54.6400;-4.5100
1213.1420;-59.1600;-54.6200;-4.5400
1213.3410;-59.1900;-54.5800;-4.6100
1213.5400;-59.1800;-54.5600;-4.6200
1213.7390;-59.1700;-54.5500;-4.6200
1213.9380;-59.2000;-54.5200;-4.6800
1214.1370;-59.2200;-54.4700;-4.7500
1214.3360;-59.1800;-54.4200;-4.7600
1214.5350;-59.1700;-54.4100;-4.7600
1214.7350;-59.1600;-54.3900;-4.7700
1214.9340;-59.1600;-54.3300;-4.8300
1215.1330;-59.1200;-54.2800;-4.8400
1215.3320;-59.0400;-54.2400;-4.8000
1215.5310;-59.0200;-54.2100;-4.8100
1215.7300;-58.9900;-54.1500;-4.8400
1215.9290;-58.9600;-54.0900;-4.8700
1216.1280;-58.8700;-54.0500;-4.8200
1216.3270;-58.8100;-53.9900;-4.8200
1216.5270;-58.8100;-53.9400;-4.8700
1216.7260;-58.7500;-53.8800;-4.8700
1216.9250;-58.6700;-53.8200;-4.8500
1217.1240;-58.5800;-53.7900;-4.7900
1217.3230;-58.5400;-53.7100;-4.8300
1217.5220;-58.5000;-53.6500;-4.8500
1217.7210;-58.4000;-53.6100;-4.7900
1217.9200;-58.3300;-53.5600;-4.7700
1218.1200;-58.2800;-53.5200;-4.7600
1218.3190;-58.2200;-53.4500;-4.7700
1218.5180;-58.1300;-53.4300;-4.7000
1218.7170;-58.0300;-53.4000;-4.6300
1218.9160;-58.0000;-53.3500;-4.6500
1219.1150;-57.9300;-53.3100;-4.6200
1219.3140;-57.8300;-53.2700;-4.5600
1219.5130;-57.7400;-53.2500;-4.4900
1219.7120;-57.6500;-53.2200;-4.4300
1219.9120;-57.6000;-53.1700;-4.4300
1220.1110;-57.4900;-53.1600;-4.3300
1220.3100;-57.3800;-53.1200;-4.2600
1220.5090;-57.3200;-53.0900;-4.2300
1220.7080;-57.2500;-53.0400;-4.2100
1220.9070;-57.1500;-53.0000;-4.1500
1221.1060;-57.0300;-52.9700;-4.0600
1221.3050;-56.9400;-52.9200;-4.0200
1221.5040;-56.8700;-52.8600;-4.0100
1221.7040;-56.7700;-52.8100;-3.9600
1221.9030;-56.6700;-52.7700;-3.9000
1222.1020;-56.5600;-52.7100;-3.8500
1222.3010;-56.4900;-52.6400;-3.8500
1222.5000;-56.3900;-52.5700;-3.8200
1222.6990;-56.2700;-52.5100;-3.7600
1222.8980;-56.1900;-52.4500;-3.7400
1223.0970;-56.1200;-52.3900;-3.7300
1223.2970;-56.0300;-52.3000;-3.7300
1223.4960;-55.9200;-52.2300;-3.6900
1223.6950;-55.8400;-52.1700;-3.6700
1223.8940;-55.8100;-52.1000;-3.7100
1224.0930;-55.7400;-52.0400;-3.7000
1224.2920;-55.6700;-51.9700;-3.7000
1224.4910;-55.6000;-51.8900;-3.7100
1224.6900;-55.5800;-51.8400;-3.7400
1224.8890;-55.5500;-51.7600;-3.7900
1225.0890;-55.4800;-51.7200;-3.7600
1225.2880;-55.4400;-51.6500;-3.7900
1225.4870;-55.4100;-51.5800;-3.8300
1225.6860;-55.3700;-51.5300;-3.8400
1225.8850;-55.3300;-51.4900;-3.8400
1226.0840;-55.2800;-51.4400;-3.8400
1226.2830;-55.2600;-51.3800;-3.8800
1226.4820;-55.2000;-51.3200;-3.8800
1226.6810;-55.1400;-51.2900;-3.8500
1226.8810;-55.1000;-51.2400;-3.8600
1227.0800;-55.0600;-51.1900;-3.8700
1227.2790;-55.0300;-51.1300;-3.9000
1227.4780;-54.9500;-51.0800;-3.8700
1227.6770;-54.9200;-51.0300;-3.8900
1227.8760;-54.9100;-50.9700;-3.9400
1228.0750;-54.8700;-50.9200;-3.9500
1228.2740;-54.8600;-50.8600;-4.0000
1228.4740;-54.8400;-50.7900;-4.0500
1228.6730;-54.8500;-50.7300;-4.1200
1228.8720;-54.8700;-50.6700;-4.2000
1229.0710;-54.8500;-50.6100;-4.2400
1229.2700;-54.8800;-50.5200;-4.3600
1229.4690;-54.9100;-50.4400;-4.4700
1229.6680;-54.9500;-50.3800;-4.5700
1229.8670;-54.9700;-50.3000;-4.6700
1230.0660;-55.0100;-50.2300;-4.7800
1230.2660;-55.0800;-50.1400;-4.9400
1230.4650;-55.1100;-50.0500;-5.0600
1230.6640;-55.1300;-49.9900;-5.1400
1230.8630;-55.1900;-49.9200;-5.2700
1231.0620;-55.2200;-49.8500;-5.3700
1231.2610;-55.2500;-49.7800;-5.4700
1231.4600;-55.2400;-49.7200;-5.5200
1231.6590;-55.2300;-49.6600;-5.5700
1231.8580;-55.2200;-49.5900;-5.6300
1232.0580;-55.1700;-49.5400;-5.6300
1232.2570;-55.0900;-49.4700;-5.6200
1232.4560;-55.0000;-49.4200;-5.5800
1232.6550;-54.8900;-49.3600;-5.5300
1232.8540;-54.7600;-49.2900;-5.4700
1233.0530;-54.6100;-49.2600;-5.3500
1233.2520;-54.4700;-49.1900;-5.2800
1233.4510;-54.3000;-49.1300;-5.1700
1233.6500;-54.1400;-49.0800;-5.0600
1233.8500;-53.9700;-49.0100;-4.9600
1234.0490;-53.8100;-48.9700;-4.8400
1234.2480;-53.6600;-48.8900;-4.7700
1234.4470;-53.4700;-48.8300;-4.6400
1234.6460;-53.3200;-48.7700;-4.5500
1234.8450;-53.2100;-48.7000;-4.5100
1235.0440;-53.0800;-48.6300;-4.4500
1235.2430;-52.9600;-48.5500;-4.4100
1235.4430;-52.8400;-48.4800;-4.3600
1235.6420;-52.7600;-48.3900;-4.3700
1235.8410;-52.6700;-48.3000;-4.3700
1236.0400;-52.5900;-48.2300;-4.3600
1236.2390;-52.5300;-48.1300;-4.4000
1236.4380;-52.4700;-48.0600;-4.4100
1236.6370;-52.4300;-47.9700;-4.4600
1236.8360;-52.3800;-47.8700;-4.5100
1237.0350;-52.3600;-47.7900;-4.5700
1237.2350;-52.3500;-47.7000;-4.6500
1237.4340;-52.3000;-47.6200;-4.6800
1237.6330;-52.2700;-47.5300;-4.7400
1237.8320;-52.2700;-47.4600;-4.8100
1238.0310;-52.2500;-47.3700;-4.8800
1238.2300;-52.2300;-47.2900;-4.9400
1238.4290;-52.1800;-47.2200;-4.9600
1238.6280;-52.1600;-47.1400;-5.0200
1238.8270;-52.1100;-47.0600;-5.0500
1239.0270;-52.0400;-46.9800;-5.0600
1239.2260;-51.9800;-46.9000;-5.0800
1239.4250;-51.9000;-46.8300;-5.0700
1239.6240;-51.8200;-46.7400;-5.0800
1239.8230;-51.7000;-46.6600;-5.0400
1240.0220;-51.5900;-46.5700;-5.0200
1240.2210;-51.4900;-46.4800;-5.0100
1240.4200;-51.3400;-46.4000;-4.9400
1240.6200;-51.2100;-46.3000;-4.9100
1240.8190;-51.0800;-46.2000;-4.8800
1241.0180;-50.9400;-46.0800;-4.8600
1241.2170;-50.8100;-45.9700;-4.8400
1241.4160;-50.6800;-45.8400;-4.8400
1241.6150;-50.5700;-45.7400;-4.8300
1241.8140;-50.4800;-45.6300;-4.8500
1242.0130;-50.3700;-45.5000;-4.8700
1242.2120;-50.3100;-45.3900;-4.9200
1242.4120;-50.2500;-45.2600;-4.9900
1242.6110;-50.1900;-45.1300;-5.0600
1242.8100;-50.1300;-45.0100;-5.1200
1243.0090;-50.0900;-44.8600;-5.2300
1243.2080;-50.0800;-44.7500;-5.3300
1243.4070;-50.0300;-44.6100;-5.4200
1243.6060;-49.9900;-44.4700;-5.5200
1243.8050;-49.9600;-44.3600;-5.6000
1244.0040;-49.9000;-44.2200;-5.6800
1244.2040;-49.8400;-44.1000;-5.7400
1244.4030;-49.7600;-43.9700;-5.7900
1244.6020;-49.6800;-43.8300;-5.8500
1244.8010;-49.5700;-43.7200;-5.8500
1245.0000;-49.4500;-43.5900;-5.8600
1245.1990;-49.3400;-43.4700;-5.8700
1245.3980;-49.2000;-43.3300;-5.8700
1245.5970;-49.0600;-43.2000;-5.8600
1245.7970;-48.9100;-43.0700;-5.8400
1245.9960;-48.7600;-42.9300;-5.8300
1246.1950;-48.6300;-42.8000;-5.8300
1246.3940;-48.4800;-42.6500;-5.8300
1246.5930;-48.3600;-42.5000;-5.8600
1246.7920;-48.2400;-42.3700;-5.8700
1246.9910;-48.1200;-42.2000;-5.9200
1247.1900;-48.0300;-42.0600;-5.9700
1247.3890;-47.9500;-41.9100;-6.0400
1247.5890;-47.8800;-41.7400;-6.1400
1247.7880;-47.8100;-41.6000;-6.2100
1247.9870;-47.7500;-41.4300;-6.3200
1248.1860;-47.7400;-41.2800;-6.4600
1248.3850;-47.7000;-41.1100;-6.5900
1248.5840;-47.6800;-40.9400;-6.7400
1248.7830;-47.6800;-40.8000;-6.8800
1248.9820;-47.6700;-40.6400;-7.0300
1249.1810;-47.6800;-40.4900;-7.1900
1249.3810;-47.6700;-40.3300;-7.3400
1249.5800;-47.6700;-40.1700;-7.5000
1249.7790;-47.6600;-40.0300;-7.6300
1249.9780;-47.6400;-39.8600;-7.7800
1250.1770;-47.6300;-39.7200;-7.9100
1250.3760;-47.6000;-39.5700;-8.0300
1250.5750;-47.5600;-39.4100;-8.1500
1250.7740;-47.5100;-39.2700;-8.2400
1250.9740;-47.4800;-39.1200;-8.3600
1251.1730;-47.4400;-38.9800;-8.4600
1251.3720;-47.3900;-38.8100;-8.5800
1251.5710;-47.3600;-38.6600;-8.7000
1251.7700;-47.3100;-38.5100;-8.8000
1251.9690;-47.2600;-38.3400;-8.9200
1252.1680;-47.2100;-38.2000;-9.0100
1252.3670;-47.1400;-38.0200;-9.1200
1252.5660;-47.0800;-37.8700;-9.2100
1252.7660;-46.9500;-37.7000;-9.2500
1252.9650;-46.8000;-37.5400;-9.2600
1253.1640;-46.5900;-37.3800;-9.2100
1253.3630;-46.3000;-37.1900;-9.1100
1253.5620;-45.9600;-37.0300;-8.9300
1253.7610;-45.4700;-36.8600;-8.6100
1253.9600;-45.0700;-36.7000;-8.3700
1254.1590;-44.5200;-36.5500;-7.9700
1254.3580;-43.9300;-36.3700;-7.5600
1254.5580;-43.3200;-36.2200;-7.1000
1254.7570;-42.6700;-36.0500;-6.6200
1254.9560;-42.0300;-35.8700;-6.1600
1255.1550;-41.3800;-35.7500;-5.6300
1255.3540;-40.7600;-35.5900;-5.1700
1255.5530;-40.1400;-35.4700;-4.6700
1255.7520;-39.5400;-35.3100;-4.2300
1255.9510;-38.9900;-35.1600;-3.8300
1256.1500;-38.4500;-35.0200;-3.4300
1256.3500;-37.9600;-34.8700;-3.0900
1256.5490;-37.4900;-34.7500;-2.7400
1256.7480;-37.0600;-34.6000;-2.4600
1256.9470;-36.6600;-34.4600;-2.2000
1257.1460;-36.2900;-34.3100;-1.9800
1257.3450;-35.9800;-34.1600;-1.8200
1257.5440;-35.6400;-34.0300;-1.6100
1257.7430;-35.4500;-33.8700;-1.5800
1257.9430;-35.2200;-33.7300;-1.4900
1258.1420;-35.0400;-33.5700;-1.4700
1258.3410;-34.8800;-33.4200;-1.4600
1258.5400;-34.7600;-33.2800;-1.4800
1258.7390;-34.6700;-33.1100;-1.5600
1258.9380;-34.5800;-32.9600;-1.6200
1259.1370;-34.5400;-32.8000;-1.7400
1259.3360;-34.5200;-32.6400;-1.8800
1259.5350;-34.5200;-32.4900;-2.0300
1259.7350;-34.5400;-32.3200;-2.2200
1259.9340;-34.5500;-32.1700;-2.3800
1260.1330;-34.6000;-32.0200;-2.5800
1260.3320;-34.6300;-31.8600;-2.7700
1260.5310;-34.6800;-31.7200;-2.9600
1260.7300;-34.7100;-31.5600;-3.1500
1260.9290;-34.7200;-31.4100;-3.3100
1261.1280;-34.7000;-31.2500;-3.4500
1261.3270;-34.6600;-31.1100;-3.5500
1261.5270;-34.5900;-30.9800;-3.6100
1261.7260;-34.4900;-30.8300;-3.6600
1261.9250;-34.3300;-30.6900;-3.6400
1262.1240;-34.1500;-30.5400;-3.6100
1262.3230;-33.9400;-30.4000;-3.5400
1262.5220;-33.6900;-30.2700;-3.4200
1262.7210;-33.4400;-30.1300;-3.3100
1262.9200;-33.1400;-30.0000;-3.1400
1263.1200;-32.8600;-29.8500;-3.0100
1263.3190;-32.5600;-29.7100;-2.8500
1263.5180;-32.2800;-29.5800;-2.7000
1263.7170;-32.0100;-29.4400;-2.5700
1263.9160;-31.7300;-29.3000;-2.4300
1264.1150;-31.4800;-29.1500;-2.3300
1264.3140;-31.2400;-29.0100;-2.2300
1264.5130;-31.0200;-28.8800;-2.1400
1264.7120;-30.8400;-28.7300;-2.1100
1264.9120;-30.6600;-28.6100;-2.0500
1265.1110;-30.5300;-28.4600;-2.0700
1265.3100;-30.4200;-28.3200;-2.1000
1265.5090;-30.3500;-28.1900;-2.1600
1265.7080;-30.3100;-28.0500;-2.2600
1265.9070;-30.2900;-27.9300;-2.3600
1266.1060;-30.3200;-27.7800;-2.5400
1266.3050;-30.3700;-27.6600;-2.7100
1266.5040;-30.4700;-27.5400;-2.9300
1266.7040;-30.6100;-27.4100;-3.2000
1266.9030;-30.7600;-27.2900;-3.4700
1267.1020;-30.9600;-27.1600;-3.8000
1267.3010;-31.1700;-27.0400;-4.1300
1267.5000;-31.4300;-26.9300;-4.5000
1267.6990;-31.7100;-26.8000;-4.9100
1267.8980;-32.0000;-26.6900;-5.3100
1268.0970;-32.3300;-26.5700;-5.7600
1268.2970;-32.6500;-26.4600;-6.1900
1268.4960;-32.9900;-26.3500;-6.6400
1268.6950;-33.3400;-26.2300;-7.1100
1268.8940;-33.6600;-26.1200;-7.5400
1269.0930;-33.9900;-25.9700;-8.0200
1269.2920;-34.2900;-25.8800;-8.4100
1269.4910;-34.5800;-25.7600;-8.8200
1269.6900;-34.8300;-25.6600;-9.1700
1269.8890;-35.0200;-25.5300;-9.4900
1270.0890;-35.1800;-25.4100;-9.7700
1270.2880;-35.2600;-25.3100;-9.9500
1270.4870;-35.3100;-25.1900;-10.1200
1270.6860;-35.2800;-25.0800;-10.2000
1270.8850;-35.1800;-24.9600;-10.2200
1271.0840;-35.0300;-24.8500;-10.1800
1271.2830;-34.7900;-24.7400;-10.0500
1271.4820;-34.5100;-24.6200;-9.8900
1271.6810;-34.1600;-24.5200;-9.6400
1271.8810;-33.7600;-24.4100;-9.3500
1272.0800;-33.3200;-24.3000;-9.0200
1272.2790;-32.8100;-24.2000;-8.6100
1272.4780;-32.2900;-24.0800;-8.2100
1272.6770;-31.7400;-23.9900;-7.7500
1272.8760;-31.1700;-23.8700;-7.3000
1273.0750;-30.6200;-23.7700;-6.8500
1273.2740;-30.0400;-23.6700;-6.3700
1273.4740;-29.5000;-23.5600;-5.9400
1273.6730;-28.9700;-23.4600;-5.5100
1273.8720;-28.4500;-23.3500;-5.1000
1274.0710;-27.9800;-23.2400;-4.7400
1274.2700;-27.5100;-23.1400;-4.3700
1274.4690;-27.0900;-23.0300;-4.0600
1274.6680;-26.6800;-22.9400;-3.7400
1274.8670;-26.3100;-22.8300;-3.4800
1275.0660;-25.9300;-22.7300;-3.2000
1275.2660;-25.6900;-22.6300;-3.0600
1275.4650;-25.4300;-22.5300;-2.9000
1275.6640;-25.2100;-22.4400;-2.7700
1275.8630;-25.0400;-22.3400;-2.7000
1276.0620;-24.8900;-22.2500;-2.6400
1276.2610;-24.8000;-22.1600;-2.6400
1276.4600;-24.7600;-22.0700;-2.6900
1276.6590;-24.7400;-21.9900;-2.7500
1276.8580;-24.8000;-21.8900;-2.9100
1277.0580;-24.9000;-21.8200;-3.0800
1277.2570;-25.0500;-21.7300;-3.3200
1277.4560;-25.2500;-21.6500;-3.6000
1277.6550;-25.5000;-21.5900;-3.9100
1277.8540;-25.8200;-21.5000;-4.3200
1278.0530;-26.1600;-21.4300;-4.7300
1278.2520;-26.5400;-21.3400;-5.2000
1278.4510;-26.9300;-21.2700;-5.6600
1278.6500;-27.3200;-21.2000;-6.1200
1278.8500;-27.6700;-21.1100;-6.5600
1279.0490;-27.9200;-21.0400;-6.8800
1279.2480;-28.0700;-20.9500;-7.1200
1279.4470;-28.0400;-20.8800;-7.1600
1279.6460;-27.8400;-20.8000;-7.0400
1279.8450;-27.4800;-20.7100;-6.7700
1280.0440;-26.9800;-20.6500;-6.3300
1280.2430;-26.4100;-20.5500;-5.8600
1280.4430;-25.7700;-20.4700;-5.3000
1280.6420;-25.1200;-20.3900;-4.7300
1280.8410;-24.5100;-20.3000;-4.2100
1281.0400;-23.9000;-20.2400;-3.6600
1281.2390;-23.3600;-20.1500;-3.2100
1281.4380;-22.8500;-20.0700;-2.7800
1281.6370;-22.4100;-19.9900;-2.4200
1281.8360;-22.0300;-19.9100;-2.1200
1282.0350;-21.7000;-19.8400;-1.8600
1282.2350;-21.4400;-19.7500;-1.6900
1282.4340;-21.2200;-19.6900;-1.5300
1282.6330;-21.0900;-19.6200;-1.4700
1282.8320;-21.0000;-19.5400;-1.4600
1283.0310;-20.9700;-19.4900;-1.4800
1283.2300;-21.0200;-19.4100;-1.6100
1283.4290;-21.1000;-19.3500;-1.7500
1283.6280;-21.2700;-19.2700;-2.0000
1283.8270;-21.4800;-19.2000;-2.2800
1284.0270;-21.7600;-19.1500;-2.6100
1284.2260;-22.1100;-19.0800;-3.0300
1284.4250;-22.5100;-19.0300;-3.4800
1284.6240;-22.9800;-18.9500;-4.0300
1284.8230;-23.4900;-18.8900;-4.6000
1285.0220;-24.0300;-18.8400;-5.1900
1285.2210;-24.6000;-18.7700;-5.8300
1285.4200;-25.1200;-18.7200;-6.4000
1285.6200;-25.5700;-18.6400;-6.9300
1285.8190;-25.8600;-18.5900;-7.2700
1286.0180;-25.9700;-18.5300;-7.4400
1286.2170;-25.8600;-18.4700;-7.3900
1286.4160;-25.5300;-18.4200;-7.1100
1286.6150;-25.0700;-18.3600;-6.7100
1286.8140;-24.4800;-18.3100;-6.1700
1287.0130;-23.8700;-18.2600;-5.6100
1287.2120;-23.2600;-18.2000;-5.0600
1287.4120;-22.6700;-18.1700;-4.5000
1287.6110;-22.1600;-18.1100;-4.0500
1287.8100;-21.6700;-18.0700;-3.6000
1288.0090;-21.2700;-18.0200;-3.2500
1288.2080;-20.9300;-17.9700;-2.9600
1288.4070;-20.6400;-17.9400;-2.7000
1288.6060;-20.4500;-17.8900;-2.5600
1288.8050;-20.2900;-17.8600;-2.4300
1289.0040;-20.2100;-17.8100;-2.4000
1289.2040;-20.1800;-17.7700;-2.4100
1289.4030;-20.2100;-17.7400;-2.4700
1289.6020;-20.3300;-17.7000;-2.6300
1289.8010;-20.4700;-17.6700;-2.8000
1290.0000;-20.6900;-17.6200;-3.0700
1290.1990;-20.9500;-17.5800;-3.3700
1290.3980;-21.2800;-17.5500;-3.7300
1290.5970;-21.6900;-17.5200;-4.1700
1290.7970;-22.1300;-17.4900;-4.6400
1290.9960;-22.6200;-17.4300;-5.1900
1291.1950;-23.1500;-17.3900;-5.7600
1291.3940;-23.7200;-17.3500;-6.3700
1291.5930;-24.3000;-17.3000;-7.0000
1291.7920;-24.8800;-17.2700;-7.6100
1291.9910;-25.4500;-17.2100;-8.2400
1292.1900;-25.9300;-17.1800;-8.7500
1292.3890;-26.3200;-17.1300;-9.1900
1292.5890;-26.5600;-17.0800;-9.4800
1292.7880;-26.6700;-17.0500;-9.6200
1292.9870;-26.6400;-17.0000;-9.6400
1293.1860;-26.4600;-16.9700;-9.4900
1293.3850;-26.2100;-16.9200;-9.2900
1293.5840;-25.8500;-16.8700;-8.9800
1293.7830;-25.4700;-16.8400;-8.6300
1293.9820;-25.0900;-16.8000;-8.2900
1294.1810;-24.6900;-16.7900;-7.9000
1294.3810;-24.3200;-16.7400;-7.5800
1294.5800;-23.9200;-16.7000;-7.2200
1294.7790;-23.5500;-16.6700;-6.8800
1294.9780;-23.1900;-16.6400;-6.5500
1295.1770;-22.8400;-16.6200;-6.2200
1295.3760;-22.5100;-16.5900;-5.9200
1295.5750;-22.1400;-16.5600;-5.5800
1295.7740;-21.8200;-16.5200;-5.3000
1295.9740;-21.4900;-16.4900;-5.0000
1296.1730;-21.1700;-16.4700;-4.7000
1296.3720;-20.8800;-16.4400;-4.4400
1296.5710;-20.5800;-16.4100;-4.1700
1296.7700;-20.3300;-16.3800;-3.9500
1296.9690;-20.0700;-16.3600;-3.7100
1297.1680;-19.8500;-16.3400;-3.5100
1297.3670;-19.6600;-16.3100;-3.3500
1297.5660;-19.4900;-16.2900;-3.2000
1297.7660;-19.3700;-16.2600;-3.1100
1297.9650;-19.2700;-16.2400;-3.0300
1298.1640;-19.2200;-16.2100;-3.0100
1298.3630;-19.1900;-16.1900;-3.0000
1298.5620;-19.2000;-16.1800;-3.0200
1298.7610;-19.2800;-16.1500;-3.1300
1298.9600;-19.3700;-16.1400;-3.2300
1299.1590;-19.5300;-16.1200;-3.4100
1299.3580;-19.7100;-16.1100;-3.6000
1299.5580;-19.9200;-16.0900;-3.8300
1299.7570;-20.1800;-16.0800;-4.1000
1299.9560;-20.4600;-16.0800;-4.3800
1300.1550;-20.7800;-16.0700;-4.7100
1300.3540;-21.0800;-16.0700;-5.0100
1300.5530;-21.3700;-16.0400;-5.3300
1300.7520;-21.6300;-16.0400;-5.5900
1300.9510;-21.8300;-16.0400;-5.7900
1301.1500;-21.9800;-16.0400;-5.9400
1301.3500;-21.9900;-16.0500;-5.9400
1301.5490;-21.9300;-16.0400;-5.8900
1301.7480;-21.7400;-16.0400;-5.7000
1301.9470;-21.4600;-16.0400;-5.4200
1302.1460;-21.1400;-16.0400;-5.1000
1302.3450;-20.7400;-16.0500;-4.6900
1302.5440;-20.3600;-16.0500;-4.3100
1302.7430;-19.9500;-16.0600;-3.8900
1302.9430;-19.5600;-16.0500;-3.5100
1303.1420;-19.2100;-16.0600;-3.1500
1303.3410;-18.8800;-16.0800;-2.8000
1303.5400;-18.6200;-16.0800;-2.5400
1303.7390;-18.3700;-16.0900;-2.2800
1303.9380;-18.1800;-16.0900;-2.0900
1304.1370;-18.0400;-16.1000;-1.9400
1304.3360;-17.9300;-16.1200;-1.8100
1304.5350;-17.8900;-16.1300;-1.7600
1304.7350;-17.8700;-16.1500;-1.7200
1304.9340;-17.9000;-16.1500;-1.7500
1305.1330;-17.9600;-16.1700;-1.7900
1305.3320;-18.0500;-16.1900;-1.8600
1305.5310;-18.2000;-16.2100;-1.9900
1305.7300;-18.3500;-16.2300;-2.1200
1305.9290;-18.5300;-16.2400;-2.2900
1306.1280;-18.7100;-16.2600;-2.4500
1306.3270;-18.8900;-16.2800;-2.6100
1306.5270;-19.0700;-16.3000;-2.7700
1306.7260;-19.2100;-16.3400;-2.8700
1306.9250;-19.3400;-16.3500;-2.9900
1307.1240;-19.4200;-16.3800;-3.0400
1307.3230;-19.4600;-16.3900;-3.0700
1307.5220;-19.4600;-16.4200;-3.0400
1307.7210;-19.4000;-16.4600;-2.9400
1307.9200;-19.3200;-16.4700;-2.8500
1308.1200;-19.2000;-16.5100;-2.6900
1308.3190;-19.0700;-16.5200;-2.5500
1308.5180;-18.9200;-16.5500;-2.3700
1308.7170;-18.7800;-16.5700;-2.2100
1308.9160;-18.6500;-16.5900;-2.0600
1309.1150;-18.5300;-16.6200;-1.9100
1309.3140;-18.4500;-16.6300;-1.8200
1309.5130;-18.3900;-16.6700;-1.7200
1309.7120;-18.3600;-16.7000;-1.6600
1309.9120;-18.3600;-16.7100;-1.6500
1310.1110;-18.4100;-16.7500;-1.6600
1310.3100;-18.5000;-16.7700;-1.7300
1310.5090;-18.6200;-16.8100;-1.8100
1310.7080;-18.7800;-16.8400;-1.9400
1310.9070;-18.9700;-16.8600;-2.1100
1311.1060;-19.2100;-16.9200;-2.2900
1311.3050;-19.4800;-16.9400;-2.5400
1311.5040;-19.7800;-16.9800;-2.8000
1311.7040;-20.1100;-17.0200;-3.0900
1311.9030;-20.4300;-17.0600;-3.3700
1312.1020;-20.7600;-17.1200;-3.6400
1312.3010;-21.0900;-17.1600;-3.9300
1312.5000;-21.4100;-17.2300;-4.1800
1312.6990;-21.6900;-17.2700;-4.4200
1312.8980;-21.9100;-17.3200;-4.5900
1313.0970;-22.1000;-17.3800;-4.7200
1313.2970;-22.2200;-17.4300;-4.7900
1313.4960;-22.2900;-17.5100;-4.7800
1313.6950;-22.3000;-17.5500;-4.7500
1313.8940;-22.2600;-17.6000;-4.6600
1314.0930;-22.2100;-17.6800;-4.5300
1314.2920;-22.1000;-17.7200;-4.3800
1314.4910;-22.0100;-17.8000;-4.2100
1314.6900;-21.8900;-17.8500;-4.0400
1314.8890;-21.7800;-17.9100;-3.8700
1315.0890;-21.7000;-17.9500;-3.7500
1315.2880;-21.6200;-18.0100;-3.6100
1315.4870;-21.5900;-18.0900;-3.5000
1315.6860;-21.5500;-18.1300;-3.4200
1315.8850;-21.5400;-18.2000;-3.3400
1316.0840;-21.5500;-18.2500;-3.3000
1316.2830;-21.5800;-18.3100;-3.2700
1316.4820;-21.6500;-18.3800;-3.2700
1316.6810;-21.7000;-18.4600;-3.2400
1316.8810;-21.7800;-18.5100;-3.2700
1317.0800;-21.8600;-18.5800;-3.2800
1317.2790;-21.9400;-18.6600;-3.2800
1317.4780;-22.0300;-18.7200;-3.3100
1317.6770;-22.1000;-18.7900;-3.3100
1317.8760;-22.1800;-18.8600;-3.3200
1318.0750;-22.2300;-18.9200;-3.3100
1318.2740;-22.3000;-19.0000;-3.3000
1318.4740;-22.3400;-19.0600;-3.2800
1318.6730;-22.3900;-19.1600;-3.2300
1318.8720;-22.4300;-19.2200;-3.2100
1319.0710;-22.4700;-19.3100;-3.1600
1319.2700;-22.5300;-19.3800;-3.1500
1319.4690;-22.5700;-19.4600;-3.1100
1319.6680;-22.6400;-19.5500;-3.0900
1319.8670;-22.7100;-19.6200;-3.0900
1320.0660;-22.7900;-19.7100;-3.0800
1320.2660;-22.9000;-19.7900;-3.1100
1320.4650;-23.0100;-19.8700;-3.1400
1320.6640;-23.1700;-19.9700;-3.2000
1320.8630;-23.3200;-20.0500;-3.2700
1321.0620;-23.5000;-20.1500;-3.3500
1321.2610;-23.7100;-20.2300;-3.4800
1321.4600;-23.9300;-20.3200;-3.6100
1321.6590;-24.1800;-20.4200;-3.7600
1321.8580;-24.4300;-20.5000;-3.9300
1322.0580;-24.7200;-20.6100;-4.1100
1322.2570;-25.0000;-20.7000;-4.3000
1322.4560;-25.3000;-20.8000;-4.5000
1322.6550;-25.6200;-20.9000;-4.7200
1322.8540;-25.9400;-21.0000;-4.9400
1323.0530;-26.2900;-21.1200;-5.1700
1323.2520;-26.6100;-21.2100;-5.4000
1323.4510;-26.9500;-21.3300;-5.6200
1323.6500;-27.2900;-21.4300;-5.8600
1323.8500;-27.6400;-21.5400;-6.1000
1324.0490;-28.0100;-21.6700;-6.3400
1324.2480;-28.3800;-21.7700;-6.6100
1324.4470;-28.8400;-21.9000;-6.9400
1324.6460;-29.1600;-22.0000;-7.1600
1324.8450;-29.5800;-22.1200;-7.4600
1325.0440;-30.0000;-22.2500;-7.7500
1325.2430;-30.4600;-22.3600;-8.1000
1325.4430;-30.9200;-22.5000;-8.4200
1325.6420;-31.4200;-22.6200;-8.8000
1325.8410;-31.9100;-22.7500;-9.1600
1326.0400;-32.3900;-22.8800;-9.5100
1326.2390;-32.8600;-23.0100;-9.8500
1326.4380;-33.2600;-23.1500;-10.1100
1326.6370;-33.6000;-23.2800;-10.3200
1326.8360;-33.8500;-23.4200;-10.4300
1327.0350;-33.9700;-23.5500;-10.4200
1327.2350;-33.9900;-23.6900;-10.3000
1327.4340;-33.8800;-23.8400;-10.0400
1327.6330;-33.6800;-23.9700;-9.7100
1327.8320;-33.4200;-24.1200;-9.3000
1328.0310;-33.1000;-24.2500;-8.8500
1328.2300;-32.7800;-24.3900;-8.3900
1328.4290;-32.4300;-24.5400;-7.8900
1328.6280;-32.1200;-24.6800;-7.4400
1328.8270;-31.8200;-24.8300;-6.9900
1329.0270;-31.5500;-24.9700;-6.5800
1329.2260;-31.3200;-25.1200;-6.2000
1329.4250;-31.1100;-25.2600;-5.8500
1329.6240;-30.9400;-25.4000;-5.5400
1329.8230;-30.7800;-25.5600;-5.2200
1330.0220;-30.6600;-25.7000;-4.9600
1330.2210;-30.5600;-25.8500;-4.7100
1330.4200;-30.4800;-26.0000;-4.4800
1330.6200;-30.4200;-26.1400;-4.2800
1330.8190;-30.3500;-26.3000;-4.0500
1331.0180;-30.3000;-26.4500;-3.8500
1331.2170;-30.2600;-26.6200;-3.6400
1331.4160;-30.2000;-26.7600;-3.4400
1331.6150;-30.1700;-26.9300;-3.2400
1331.8140;-30.1000;-27.0800;-3.0200
1332.0130;-30.0600;-27.2300;-2.8300
1332.2120;-30.0000;-27.4000;-2.6000
1332.4120;-29.9500;-27.5600;-2.3900
1332.6110;-29.9200;-27.7300;-2.1900
1332.8100;-29.8800;-27.8800;-2.0000
1333.0090;-29.8600;-28.0400;-1.8200
1333.2080;-29.8400;-28.1900;-1.6500
1333.4070;-29.8600;-28.3500;-1.5100
1333.6060;-29.9000;-28.5500;-1.3500
1333.8050;-29.9700;-28.6800;-1.2900
1334.0040;-30.0900;-28.8500;-1.2400
1334.2040;-30.2300;-29.0000;-1.2300
1334.4030;-30.4200;-29.1700;-1.2500
1334.6020;-30.6400;-29.3200;-1.3200
1334.8010;-30.9200;-29.4900;-1.4300
1335.0000;-31.2700;-29.6600;-1.6100
1335.1990;-31.6600;-29.8200;-1.8400
1335.3980;-32.1400;-29.9900;-2.1500
1335.5970;-32.6600;-30.1500;-2.5100
1335.7970;-33.2800;-30.3300;-2.9500
1335.9960;-33.9900;-30.5000;-3.4900
1336.1950;-34.7900;-30.6700;-4.1200
1336.3940;-35.7200;-30.8500;-4.8700
1336.5930;-36.7700;-31.0100;-5.7600
1336.7920;-37.9900;-31.1900;-6.8000
1336.9910;-39.7100;-31.3600;-8.3500
1337.1900;-41.0600;-31.5400;-9.5200
1337.3890;-42.9600;-31.7300;-11.2300
1337.5890;-45.1300;-31.9100;-13.2200
1337.7880;-47.2700;-32.1000;-15.1700
1337.9870;-48.7200;-32.2700;-16.4500
1338.1860;-47.9900;-32.4600;-15.5300
1338.3850;-46.0100;-32.6300;-13.3800
1338.5840;-44.5200;-32.8100;-11.7100
1338.7830;-42.9700;-32.9900;-9.9800
1338.9820;-41.7100;-33.1700;-8.5400
1339.1810;-40.6600;-33.3600;-7.3000
1339.3810;-39.8400;-33.5300;-6.3100
1339.5800;-39.1900;-33.7100;-5.4800
1339.7790;-38.6900;-33.8800;-4.8100
1339.9780;-38.3300;-34.0600;-4.2700
1340.1770;-38.0800;-34.2500;-3.8300
1340.3760;-37.9600;-34.4200;-3.5400
1340.5750;-37.9200;-34.6100;-3.3100
1340.7740;-37.9800;-34.7800;-3.2000
1340.9740;-38.1200;-34.9600;-3.1600
1341.1730;-38.3600;-35.1400;-3.2200
1341.3720;-38.6900;-35.3100;-3.3800
1341.5710;-39.1000;-35.5000;-3.6000
1341.7700;-39.6200;-35.6700;-3.9500
1341.9690;-40.2300;-35.8600;-4.3700
1342.1680;-40.9300;-36.0400;-4.8900
1342.3670;-41.7500;-36.2200;-5.5300
1342.5660;-42.6600;-36.4200;-6.2400
1342.7660;-43.7000;-36.6000;-7.1000
1342.9650;-44.8100;-36.8000;-8.0100
1343.1640;-45.9900;-36.9900;-9.0000
1343.3630;-47.1300;-37.1700;-9.9600
1343.5620;-48.0700;-37.3800;-10.6900
1343.7610;-48.7500;-37.5600;-11.1900
1343.9600;-48.7100;-37.7800;-10.9300
1344.1590;-48.3000;-37.9700;-10.3300
1344.3580;-47.5700;-38.1600;-9.4100
1344.5580;-46.7800;-38.3700;-8.4100
1344.7570;-45.8400;-38.6000;-7.2400
1344.9560;-45.2500;-38.7500;-6.5000
1345.1550;-44.6200;-38.9300;-5.6900
1345.3540;-44.0900;-39.1200;-4.9700
1345.5530;-43.6800;-39.3000;-4.3800
1345.7520;-43.3500;-39.4900;-3.8600
1345.9510;-43.1200;-39.6800;-3.4400
1346.1500;-42.9500;-39.8600;-3.0900
1346.3500;-42.8800;-40.0600;-2.8200
1346.5490;-42.8900;-40.2500;-2.6400
1346.7480;-42.9400;-40.4400;-2.5000
1346.9470;-43.0700;-40.6100;-2.4600
1347.1460;-43.2400;-40.7900;-2.4500
1347.3450;-43.4700;-40.9600;-2.5100
1347.5440;-43.8100;-41.1800;-2.6300
1347.7430;-44.2100;-41.4200;-2.7900
1347.9430;-44.6500;-41.6200;-3.0300
1348.1420;-45.1000;-41.8100;-3.2900
1348.3410;-45.6200;-42.0000;-3.6200
1348.5400;-46.1200;-42.1500;-3.9700
1348.7390;-46.6600;-42.3300;-4.3300
1348.9380;-47.2500;-42.4900;-4.7600
1349.1370;-47.8400;-42.6700;-5.1700
1349.3360;-48.5300;-42.8200;-5.7100
1349.5350;-49.0000;-42.9900;-6.0100
1349.7350;-49.5300;-43.1600;-6.3700
1349.9340;-50.0100;-43.3400;-6.6700
1350.1330;-50.4400;-43.5500;-6.8900
1350.3320;-50.8300;-43.7900;-7.0400
1350.5310;-51.0700;-44.0100;-7.0600
1350.7300;-51.1900;-44.1900;-7.0000
1350.9290;-51.1700;-44.3400;-6.8300
1351.1280;-51.0600;-44.4900;-6.5700
1351.3270;-50.9300;-44.6400;-6.2900
1351.5270;-50.7800;-44.8400;-5.9400
1351.7260;-50.6800;-45.0700;-5.6100
1351.9250;-50.5000;-45.2700;-5.2300
1352.1240;-50.3200;-45.4500;-4.8700
1352.3230;-50.1600;-45.6400;-4.5200
1352.5220;-50.0400;-45.8600;-4.1800
1352.7210;-49.8800;-46.0100;-3.8700
1352.9200;-49.7500;-46.1900;-3.5600
1353.1200;-49.7600;-46.4500;-3.3100
1353.3190;-49.6100;-46.5800;-3.0300
1353.5180;-49.5700;-46.7700;-2.8000
1353.7170;-49.5600;-46.9500;-2.6100
1353.9160;-49.5000;-47.0800;-2.4200
1354.1150;-49.5200;-47.2400;-2.2800
1354.3140;-49.6400;-47.4600;-2.1800
1354.5130;-49.7700;-47.6700;-2.1000
1354.7120;-50.0300;-48.0000;-2.0300
1354.9120;-50.3100;-48.3000;-2.0100
1355.1110;-50.5200;-48.5100;-2.0100
1355.3100;-50.7200;-48.6200;-2.1000
1355.5090;-50.8400;-48.6200;-2.2200
1355.7080;-51.2200;-48.8900;-2.3300
1355.9070;-51.6800;-49.1800;-2.5000
1356.1060;-52.0700;-49.3500;-2.7200
1356.3050;-52.4500;-49.4600;-2.9900
1356.5040;-52.8900;-49.5400;-3.3500
1356.7040;-53.1100;-49.4800;-3.6300
1356.9030;-53.6300;-49.6300;-4.0000
1357.1020;-54.3300;-50.0100;-4.3200
1357.3010;-54.9600;-50.2500;-4.7100
1357.5000;-55.5200;-50.4300;-5.0900
1357.6990;-56.0400;-50.6100;-5.4300
1357.8980;-56.3500;-50.6700;-5.6800
1358.0970;-56.5400;-50.7400;-5.8000
1358.2970;-56.7500;-50.9200;-5.8300
1358.4960;-56.8700;-51.1500;-5.7200
1358.6950;-56.7900;-51.3100;-5.4800
1358.8940;-56.6200;-51.4500;-5.1700
1359.0930;-56.3800;-51.6000;-4.7800
1359.2920;-56.0500;-51.6600;-4.3900
1359.4910;-56.0200;-52.0200;-4.0000
1359.6900;-55.9100;-52.3300;-3.5800
1359.8890;-55.6900;-52.5200;-3.1700
1360.0890;-55.4000;-52.5800;-2.8200
1360.2880;-55.1500;-52.6000;-2.5500
1360.4870;-54.9200;-52.5800;-2.3400
1360.6860;-54.9200;-52.7500;-2.1700
1360.8850;-55.1300;-53.0900;-2.0400
1361.0840;-55.3800;-53.3900;-1.9900
1361.2830;-55.5600;-53.5400;-2.0200
1361.4820;-55.8200;-53.7200;-2.1000
1361.6810;-56.1800;-53.9300;-2.2500
1361.8810;-56.5400;-54.0500;-2.4900
1362.0800;-57.0900;-54.2800;-2.8100
1362.2790;-57.9100;-54.7100;-3.2000
1362.4780;-58.7200;-54.9500;-3.7700
1362.6770;-59.4500;-55.0900;-4.3600
1362.8760;-60.1300;-54.9800;-5.1500
1363.0750;-61.0100;-54.9500;-6.0600
1363.2740;-61.6200;-54.7200;-6.9000
1363.4740;-62.8100;-54.8300;-7.9800
1363.6730;-64.0700;-54.9200;-9.1500
1363.8720;-65.4800;-55.1000;-10.3800
1364.0710;-66.8400;-55.3300;-11.5100
1364.2700;-67.6900;-55.5400;-12.1500
1364.4690;-68.2300;-55.8700;-12.3600
1364.6680;-68.1900;-56.4000;-11.7900
1364.8670;-67.2100;-56.6600;-10.5500
1365.0660;-65.9300;-56.6700;-9.2600
1365.2660;-65.0300;-56.8300;-8.2000
1365.4650;-64.1100;-56.8000;-7.3100
1365.6640;-63.2700;-56.9000;-6.3700
1365.8630;-62.5900;-56.9700;-5.6200
1366.0620;-61.9700;-56.9800;-4.9900
1366.2610;-61.5500;-57.0100;-4.5400
1366.4600;-61.2300;-57.1000;-4.1300
1366.6590;-61.1400;-57.2800;-3.8600
1366.8580;-61.1700;-57.5400;-3.6300
1367.0580;-61.2200;-57.6900;-3.5300
1367.2570;-61.3300;-57.8300;-3.5000
1367.4560;-61.6300;-58.0800;-3.5500
1367.6550;-61.9400;-58.3000;-3.6400
1367.8540;-62.4200;-58.6400;-3.7800
1368.0530;-62.8800;-58.7400;-4.1400
1368.2520;-63.2600;-58.7300;-4.5300
1368.4510;-63.9500;-59.0800;-4.8700
1368.6500;-64.5200;-59.2000;-5.3200
1368.8500;-65.2100;-59.3200;-5.8900
1369.0490;-65.8600;-59.3300;-6.5300
1369.2480;-66.4700;-59.3100;-7.1600
1369.4470;-66.9300;-59.2700;-7.6600
1369.6460;-67.5000;-59.3900;-8.1100
1369.8450;-68.3000;-59.7400;-8.5600
1370.0440;-68.8400;-59.9700;-8.8700
1370.2430;-68.9500;-60.1300;-8.8200
1370.4430;-69.0800;-60.2200;-8.8600
1370.6420;-68.8300;-60.2700;-8.5600
1370.8410;-68.8100;-60.6000;-8.2100
1371.0400;-68.6900;-60.8800;-7.8100
1371.2390;-68.3900;-61.1000;-7.2900
1371.4380;-68.0400;-61.1700;-6.8700
1371.6370;-67.5900;-61.1800;-6.4100
1371.8360;-67.4000;-61.1900;-6.2100
1372.0350;-67.3100;-61.4100;-5.9000
1372.2350;-67.2900;-61.6500;-5.6400
1372.4340;-67.3300;-61.7800;-5.5500
1372.6330;-67.3800;-61.8700;-5.5100
1372.8320;-67.3400;-61.9900;-5.3500
1373.0310;-67.4200;-62.0600;-5.3600
1373.2300;-67.5600;-62.2600;-5.3000
1373.4290;-67.8600;-62.4300;-5.4300
1373.6280;-68.1000;-62.5900;-5.5100
1373.8270;-68.3700;-62.7200;-5.6500
1374.0270;-68.7000;-62.8600;-5.8400
1374.2260;-69.0000;-63.0100;-5.9900
1374.4250;-69.1800;-63.1800;-6.0000
1374.6240;-69.3900;-63.3700;-6.0200
1374.8230;-69.7500;-63.6100;-6.1400
1375.0220;-69.7100;-63.8200;-5.8900
1375.2210;-69.9200;-63.9600;-5.9600
1375.4200;-69.9200;-64.0900;-5.8300
1375.6200;-69.9200;-64.2400;-5.6800
1375.8190;-69.7800;-64.3500;-5.4300
1376.0180;-69.6600;-64.6300;-5.0300
1376.2170;-69.5600;-64.8400;-4.7200
1376.4160;-69.3500;-64.9500;-4.4000
1376.6150;-69.2300;-65.0900;-4.1400
1376.8140;-69.1100;-65.3600;-3.7500
1377.0130;-69.1600;-65.6500;-3.5100
1377.2120;-69.2600;-65.8200;-3.4400
1377.4120;-69.0000;-65.9800;-3.0200
1377.6110;-68.8900;-66.1200;-2.7700
1377.8100;-68.8900;-66.0800;-2.8100
1378.0090;-68.9000;-66.2400;-2.6600
1378.2080;-68.8600;-66.4500;-2.4100
1378.4070;-69.0100;-66.6500;-2.3600
1378.6060;-69.1400;-66.9600;-2.1800
1378.8050;-69.4000;-67.3100;-2.0900
1379.0040;-69.5000;-67.5800;-1.9200
1379.2040;-69.7000;-67.5800;-2.1200
1379.4030;-69.6100;-67.6700;-1.9400
1379.6020;-69.5300;-67.6000;-1.9300
1379.8010;-69.7000;-67.7800;-1.9200
1380.0000;-69.8000;-67.9000;-1.9000
1380.1990;-70.0300;-68.2200;-1.8100
1380.3980;-70.2000;-68.4500;-1.7500
1380.5970;-70.8200;-68.9800;-1.8400
1380.7970;-71.2800;-69.4000;-1.8800
1380.9960;-71.4500;-69.8200;-1.6300
1381.1950;-71.4400;-69.7300;-1.7100
1381.3940;-71.1400;-69.5500;-1.5900
1381.5930;-70.9900;-69.2500;-1.7400
1381.7920;-71.1100;-69.4100;-1.7000
1381.9910;-71.0700;-69.5600;-1.5100
1382.1900;-71.4500;-69.5600;-1.8900
1382.3890;-71.7000;-69.8100;-1.8900
1382.5890;-72.1600;-70.3700;-1.7900
1382.7880;-72.9300;-71.0100;-1.9200
1382.9870;-73.3200;-71.2100;-2.1100
1383.1860;-72.9300;-71.0200;-1.9100
1383.3850;-72.9800;-70.7200;-2.2600
1383.5840;-72.6900;-70.7300;-1.9600
1383.7830;-73.1500;-70.7900;-2.3600
1383.9820;-73.0900;-71.0800;-2.0100
1384.1810;-73.5400;-71.1900;-2.3500
1384.3810;-73.5300;-70.9600;-2.5700
1384.5800;-73.5200;-71.0900;-2.4300
1384.7790;-73.8000;-71.1500;-2.6500
1384.9780;-74.0000;-71.6000;-2.4000
1385.1770;-74.2900;-71.7200;-2.5700
1385.3760;-74.2700;-71.7600;-2.5100
1385.5750;-73.9300;-71.8100;-2.1200
1385.7740;-74.2700;-71.9300;-2.3400
1385.9740;-74.4100;-71.8800;-2.5300
1386.1730;-74.3700;-71.8100;-2.5600
1386.3720;-74.7200;-72.1600;-2.5600
1386.5710;-73.9900;-72.0500;-1.9400
1386.7700;-74.1800;-72.2900;-1.8900
1386.9690;-74.3300;-72.1600;-2.1700
1387.1680;-74.3500;-72.1900;-2.1600
1387.3670;-74.2100;-72.2700;-1.9400
1387.5660;-74.5500;-72.3600;-2.1900
1387.7660;-74.9100;-72.8700;-2.0400
1387.9650;-75.1300;-73.0200;-2.1100
1388.1640;-74.8300;-73.3700;-1.4600
1388.3630;-75.4400;-73.7700;-1.6700
1388.5620;-75.3900;-73.4300;-1.9600
1388.7610;-75.9700;-73.2400;-2.7300
1388.9600;-75.6500;-73.1600;-2.4900
1389.1590;-75.7900;-73.1100;-2.6800
1389.3580;-76.8700;-73.0000;-3.8700
1389.5580;-76.6700;-72.9300;-3.7400
1389.7570;-77.1200;-73.0200;-4.1000
1389.9560;-77.1500;-73.4700;-3.6800
1390.1550;-77.5500;-73.4300;-4.1200
1390.3540;-79.1300;-73.3000;-5.8300
1390.5530;-78.6300;-73.8100;-4.8200
1390.7520;-78.8300;-73.7500;-5.0800
1390.9510;-77.6400;-73.6000;-4.0400
1391.1500;-79.2900;-73.7500;-5.5400
1391.3500;-78.3800;-74.1300;-4.2500
1391.5490;-78.4700;-73.9000;-4.5700
1391.7480;-80.5700;-73.8400;-6.7300
1391.9470;-79.6400;-74.0200;-5.6200
1392.1460;-80.7000;-74.4400;-6.2600
1392.3450;-79.6700;-74.8600;-4.8100
1392.5440;-80.4800;-75.2400;-5.2400
1392.7430;-80.2400;-75.2500;-4.9900
1392.9430;-81.3800;-74.9900;-6.3900
1393.1420;-80.9300;-75.1000;-5.8300
1393.3410;-81.3300;-74.8600;-6.4700
1393.5400;-80.6100;-75.2700;-5.3400
1393.7390;-80.7500;-74.7100;-6.0400
1393.9380;-81.5400;-74.2900;-7.2500
1394.1370;-81.4800;-74.6900;-6.7900
1394.3360;-80.5700;-74.8400;-5.7300
1394.5350;-80.0400;-74.6800;-5.3600
1394.7350;-80.9800;-75.5700;-5.4100
1394.9340;-83.4900;-75.2700;-8.2200
1395.1330;-81.8800;-75.3100;-6.5700
1395.3320;-81.0300;-75.9000;-5.1300
1395.5310;-81.2200;-75.8400;-5.3800
1395.7300;-81.7600;-76.3200;-5.4400
1395.9290;-80.9300;-76.1900;-4.7400
1396.1280;-79.8500;-75.7100;-4.1400
1396.3270;-81.8200;-76.6800;-5.1400
1396.5270;-81.2800;-75.7100;-5.5700
1396.7260;-81.3300;-76.0400;-5.2900
1396.9250;-81.5400;-76.1100;-5.4300
1397.1240;-80.3200;-76.1900;-4.1300
1397.3230;-82.7900;-75.8100;-6.9800
1397.5220;-81.7000;-75.7800;-5.9200
1397.7210;-82.3100;-76.5900;-5.7200
1397.9200;-80.0000;-76.1900;-3.8100
1398.1200;-79.3300;-76.0400;-3.2900
1398.3190;-79.0500;-76.2200;-2.8300
1398.5180;-80.2100;-75.8700;-4.3400
1398.7170;-79.7200;-76.4600;-3.2600
1398.9160;-80.2900;-76.2200;-4.0700
1399.1150;-79.4700;-76.3600;-3.1100
1399.3140;-79.9700;-75.9700;-4.0000
1399.5130;-80.1700;-76.2000;-3.9700
1399.7120;-80.0500;-76.7800;-3.2700
1399.9120;-80.3300;-76.3800;-3.9500
1400.1110;-82.2500;-76.8900;-5.3600
1400.3100;-81.0900;-76.6200;-4.4700
1400.5090;-80.8900;-76.8900;-4.0000
1400.7080;-80.8900;-77.5300;-3.3600
1400.9070;-81.1800;-77.5300;-3.6500
1401.1060;-81.3400;-77.0800;-4.2600
1401.3050;-81.8300;-76.8900;-4.9400
1401.5040;-81.7700;-76.5000;-5.2700
1401.7040;-80.2500;-77.7900;-2.4600
1401.9030;-82.8700;-76.9600;-5.9100
1402.1020;-84.0500;-77.0200;-7.0300
1402.3010;-81.7700;-77.1400;-4.6300
1402.5000;-82.5200;-77.3400;-5.1800
1402.6990;-83.3400;-77.3200;-6.0200
1402.8980;-81.6600;-76.4000;-5.2600
1403.0970;-83.7700;-77.2300;-6.5400
1403.2970;-81.2900;-76.9200;-4.3700
1403.4960;-81.2300;-77.4600;-3.7700
1403.6950;-82.3800;-77.8400;-4.5400
1403.8940;-83.1000;-77.0400;-6.0600
1404.0930;-81.7100;-76.7100;-5.0000
1404.2920;-80.7600;-77.1600;-3.6000
1404.4910;-82.8000;-77.7200;-5.0800
1404.6900;-82.5200;-77.1700;-5.3500
1404.8890;-82.8700;-77.7000;-5.1700
1405.0890;-81.0400;-77.5700;-3.4700
1405.2880;-83.1000;-77.9100;-5.1900
1405.4870;-82.2500;-79.6800;-2.5700
1405.6860;-82.2500;-78.0000;-4.2500
1405.8850;-80.8500;-77.8800;-2.9700
1406.0840;-80.7600;-77.3800;-3.3800
1406.2830;-82.8000;-77.3600;-5.4400
1406.4820;-79.9000;-78.0300;-1.8700
1406.6810;-79.8700;-77.8700;-2.0000
1406.8810;-85.8200;-76.8200;-9.0000
1407.0800;-91.0500;-77.2000;-13.8500
1407.2790;-80.9000;-78.7100;-2.1900
1407.4780;-82.0200;-79.1900;-2.8300
1407.6770;-82.5300;-79.0100;-3.5200
1407.8760;-82.9600;-78.0900;-4.8700
1408.0750;-79.8000;-78.7700;-1.0300
1408.2740;-80.1800;-77.6200;-2.5600
1408.4740;-82.4600;-77.0500;-5.4100
1408.6730;-82.0800;-77.4100;-4.6700
1408.8720;-83.3500;-77.4500;-5.9000
1409.0710;-82.9600;-77.8500;-5.1100
1409.2700;-84.0600;-77.2400;-6.8200
1409.4690;-82.1400;-77.0700;-5.0700
1409.6680;-81.8400;-77.5800;-4.2600
1409.8670;-80.9500;-78.0100;-2.9400
1410.0660;-81.7800;-77.7600;-4.0200
1410.2660;-83.2700;-78.1800;-5.0900
1410.4650;-80.8600;-77.8200;-3.0400
1410.6640;-81.2400;-77.7600;-3.4800
1410.8630;-82.5300;-77.6700;-4.8600
1411.0620;-82.1400;-78.4400;-3.7000
1411.2610;-81.2400;-77.5100;-3.7300
1411.4600;-81.0000;-77.4100;-3.5900
1411.6590;-80.3800;-77.9900;-2.3900
1411.8580;-81.3500;-78.8300;-2.5200
1412.0580;-81.2400;-77.2200;-4.0200
1412.2570;-80.4600;-77.3700;-3.0900
1412.4560;-83.1100;-77.4100;-5.7000
1412.6550;-82.6700;-77.2700;-5.4000
1412.8540;-82.3900;-76.7000;-5.6900
1413.0530;-80.9500;-77.5400;-3.4100
1413.2520;-81.1900;-77.7100;-3.4800
1413.4510;-81.6700;-77.3700;-4.3000
1413.6500;-80.7800;-77.6800;-3.1000
1413.8500;-83.0400;-77.0600;-5.9800
1414.0490;-82.3400;-77.1400;-5.2000
1414.2480;-80.8700;-77.6800;-3.1900
1414.4470;-81.4600;-77.5000;-3.9600
1414.6460;-82.2100;-77.2800;-4.9300
1414.8450;-83.1200;-77.4200;-5.7000
1415.0440;-81.0100;-77.0000;-4.0100
1415.2430;-82.9700;-77.5500;-5.4200
1415.4430;-82.2700;-77.2100;-5.0600
1415.6420;-81.2000;-77.1000;-4.1000
1415.8410;-81.1500;-77.8100;-3.3400
1416.0400;-82.5400;-77.2800;-5.2600
1416.2390;-81.6800;-77.6100;-4.0700
1416.4380;-81.5100;-76.2900;-5.2200
1416.6370;-81.2000;-76.6700;-4.5300
1416.8360;-81.1500;-77.0200;-4.1300
1417.0350;-81.7300;-76.9800;-4.7500
1417.2350;-81.4100;-77.0200;-4.3900
1417.4340;-81.4100;-76.6500;-4.7600
1417.6330;-80.1100;-76.6700;-3.4400
1417.8320;-82.0900;-76.5900;-5.5000
1418.0310;-82.1500;-75.8900;-6.2600
1418.2300;-79.9500;-76.9300;-3.0200
1418.4290;-81.7300;-77.0200;-4.7100
1418.6280;-81.1100;-77.3000;-3.8100
1418.8270;-81.1100;-77.5700;-3.5400
1419.0270;-80.0700;-77.6500;-2.4200
1419.2260;-83.4400;-77.7400;-5.7000
1419.4250;-81.9100;-77.8300;-4.0800
1419.6240;-79.1400;-77.0200;-2.1200
1419.8230;-80.6900;-77.5700;-3.1200
1420.0220;-81.0600;-76.1700;-4.8900
1420.2210;-82.4000;-76.7100;-5.6900
1420.4200;-81.7300;-76.8900;-4.8400
1420.6200;-81.2500;-76.7100;-4.5400
1420.8190;-80.1100;-76.2900;-3.8200
1421.0180;-81.0100;-76.8500;-4.1600
1421.2170;-82.0300;-76.3200;-5.7100
1421.4160;-81.4100;-77.1200;-4.2900
1421.6150;-82.4100;-76.6000;-5.8100
1421.8140;-79.7100;-76.6300;-3.0800
1422.0130;-79.9300;-75.8400;-4.0900
1422.2120;-79.8500;-76.4900;-3.3600
1422.4120;-80.1200;-76.6100;-3.5100
1422.6110;-79.7100;-77.0700;-2.6400
1422.8100;-79.0600;-77.3300;-1.7300
1423.0090;-80.8800;-76.7400;-4.1400
1423.2080;-79.8200;-76.4400;-3.3800
1423.4070;-79.7500;-76.5300;-3.2200
1423.6060;-79.3400;-76.2300;-3.1100
1423.8050;-79.7500;-76.8600;-2.8900
1424.0040;-82.7600;-77.0100;-5.7500
1424.2040;-81.8600;-77.5100;-4.3500
1424.4030;-79.2700;-76.5300;-2.7400
1424.6020;-82.1600;-76.2500;-5.9100
1424.8010;-79.7100;-76.5300;-3.1800
1425.0000;-80.2400;-76.5300;-3.7100
