Wavelength;Intensity_Meas;Intensity_Ref;Difference_dB
1200.0000;-61.4700;-57.0400;-4.4300
1200.1990;-61.4300;-57.0100;-4.4200
1200.3980;-61.4000;-56.9700;-4.4300
1200.5970;-61.3900;-56.9600;-4.4300
1200.7970;-61.3400;-56.9200;-4.4200
1200.9960;-61.2900;-56.9000;-4.3900
1201.1950;-61.2500;-56.8600;-4.3900
1201.3940;-61.1900;-56.8000;-4.3900
1201.5930;-61.1800;-56.7800;-4.4000
1201.7920;-61.0800;-56.7400;-4.3400
1201.9910;-61.0200;-56.6800;-4.3400
1202.1900;-61.0000;-56.6500;-4.3500
1202.3890;-60.9100;-56.5600;-4.3500
1202.5890;-60.8200;-56.5200;-4.3000
1202.7880;-60.7700;-56.4800;-4.2900
1202.9870;-60.7300;-56.4300;-4.3000
1203.1860;-60.6700;-56.3600;-4.3100
1203.3850;-60.5900;-56.3000;-4.2900
1203.5840;-60.5100;-56.3000;-4.2100
1203.7830;-60.4900;-56.2500;-4.2400
1203.9820;-60.4500;-56.2000;-4.2500
1204.1810;-60.3800;-56.1500;-4.2300
1204.3810;-60.3200;-56.1100;-4.2100
1204.5800;-60.2900;-56.1100;-4.1800
1204.7790;-60.2500;-56.0600;-4.1900
1204.9780;-60.1900;-56.0100;-4.1800
1205.1770;-60.1700;-56.0000;-4.1700
1205.3760;-60.1000;-55.9800;-4.1200
1205.5750;-60.0600;-55.9600;-4.1000
1205.7740;-60.0400;-55.9300;-4.1100
1205.9740;-59.9900;-55.9100;-4.0800
1206.1730;-59.9400;-55.9200;-4.0200
1206.3720;-59.9500;-55.8800;-4.0700
1206.5710;-59.9500;-55.8700;-4.0800
1206.7700;-59.9300;-55.8300;-4.1000
1206.9690;-59.8700;-55.8100;-4.0600
1207.1680;-59.8800;-55.8300;-4.0500
1207.3670;-59.8800;-55.7800;-4.1000
1207.5660;-59.8600;-55.7300;-4.1300
1207.7660;-59.8400;-55.7100;-4.1300
1207.9650;-59.8400;-55.6900;-4.1500
1208.1640;-59.8200;-55.6500;-4.1700
1208.3630;-59.8100;-55.5800;-4.2300
1208.5620;-59.7800;-55.5500;-4.2300
1208.7610;-59.7500;-55.5300;-4.2200
1208.9600;-59.7400;-55.4700;-4.2700
1209.1590;-59.7000;-55.4200;-4.2800
1209.3580;-59.6400;-55.3500;-4.2900
1209.5580;-59.5700;-55.3200;-4.2500
1209.7570;-59.5600;-55.2900;-4.2700
1209.9560;-59.4900;-55.2200;-4.2700
1210.1550;-59.4200;-55.1700;-4.2500
1210.3540;-59.3200;-55.1200;-4.2000
1210.5530;-59.2700;-55.0900;-4.1800
1210.7520;-59.2400;-55.0300;-4.2100
1210.9510;-59.1600;-54.9700;-4.1900
1211.1500;-59.0500;-54.9500;-4.1000
1211.3500;-59.0000;-54.9100;-4.0900
1211.5490;-58.9700;-54.8600;-4.1100
1211.7480;-58.9100;-54.8200;-4.0900
1211.9470;-58.8300;-54.7900;-4.0400
1212.1460;-58.7700;-54.7700;-4.0000
1212.3450;-58.7400;-54.7300;-4.0100
1212.5440;-58.7000;-54.6800;-4.0200
1212.7430;-58.6700;-54.6700;-4.0000
1212.9430;-58.5900;-54.6400;-3.9500
1213.1420;-58.5800;-54.6200;-3.9600
1213.3410;-58.5800;-54.5800;-4.0000
1213.5400;-58.5500;-54.5600;-3.9900
1213.7390;-58.5200;-54.5500;-3.9700
1213.9380;-58.5000;-54.5200;-3.9800
1214.1370;-58.4900;-54.4700;-4.0200
1214.3360;-58.4500;-54.4200;-4.0300
1214.5350;-58.4100;-54.4100;-4.0000
1214.7350;-58.4100;-54.3900;-4.0200
1214.9340;-58.3700;-54.3300;-4.0400
1215.1330;-58.3400;-54.2800;-4.0600
1215.3320;-58.2700;-54.2400;-4.0300
1215.5310;-58.2400;-54.2100;-4.0300
1215.7300;-58.2200;-54.1500;-4.0700
1215.9290;-58.1600;-54.0900;-4.0700
1216.1280;-58.0800;-54.0500;-4.0300
1216.3270;-58.0300;-53.9900;-4.0400
1216.5270;-57.9900;-53.9400;-4.0500
1216.7260;-57.9300;-53.8800;-4.0500
1216.9250;-57.8300;-53.8200;-4.0100
1217.1240;-57.7600;-53.7900;-3.9700
1217.3230;-57.7100;-53.7100;-4.0000
1217.5220;-57.6400;-53.6500;-3.9900
1217.7210;-57.5600;-53.6100;-3.9500
1217.9200;-57.4600;-53.5600;-3.9000
1218.1200;-57.4100;-53.5200;-3.8900
1218.3190;-57.3600;-53.4500;-3.9100
1218.5180;-57.2800;-53.4300;-3.8500
1218.7170;-57.2100;-53.4000;-3.8100
1218.9160;-57.1500;-53.3500;-3.8000
1219.1150;-57.1100;-53.3100;-3.8000
1219.3140;-57.0400;-53.2700;-3.7700
1219.5130;-56.9800;-53.2500;-3.7300
1219.7120;-56.9700;-53.2200;-3.7500
1219.9120;-56.9500;-53.1700;-3.7800
1220.1110;-56.9100;-53.1600;-3.7500
1220.3100;-56.8700;-53.1200;-3.7500
1220.5090;-56.8700;-53.0900;-3.7800
1220.7080;-56.9100;-53.0400;-3.8700
1220.9070;-56.9000;-53.0000;-3.9000
1221.1060;-56.8800;-52.9700;-3.9100
1221.3050;-56.9100;-52.9200;-3.9900
1221.5040;-56.9400;-52.8600;-4.0800
1221.7040;-56.9600;-52.8100;-4.1500
1221.9030;-56.9700;-52.7700;-4.2000
1222.1020;-57.0100;-52.7100;-4.3000
1222.3010;-57.0500;-52.6400;-4.4100
1222.5000;-57.0500;-52.5700;-4.4800
1222.6990;-57.0600;-52.5100;-4.5500
1222.8980;-57.0800;-52.4500;-4.6300
1223.0970;-57.1000;-52.3900;-4.7100
1223.2970;-57.1000;-52.3000;-4.8000
1223.4960;-57.0700;-52.2300;-4.8400
1223.6950;-57.0900;-52.1700;-4.9200
1223.8940;-57.0900;-52.1000;-4.9900
1224.0930;-57.0700;-52.0400;-5.0300
1224.2920;-57.0400;-51.9700;-5.0700
1224.4910;-57.0000;-51.8900;-5.1100
1224.6900;-56.9900;-51.8400;-5.1500
1224.8890;-56.9500;-51.7600;-5.1900
1225.0890;-56.9300;-51.7200;-5.2100
1225.2880;-56.8900;-51.6500;-5.2400
1225.4870;-56.8600;-51.5800;-5.2800
1225.6860;-56.8500;-51.5300;-5.3200
1225.8850;-56.7900;-51.4900;-5.3000
1226.0840;-56.7400;-51.4400;-5.3000
1226.2830;-56.7200;-51.3800;-5.3400
1226.4820;-56.6700;-51.3200;-5.3500
1226.6810;-56.6300;-51.2900;-5.3400
1226.8810;-56.5700;-51.2400;-5.3300
1227.0800;-56.5200;-51.1900;-5.3300
1227.2790;-56.4500;-51.1300;-5.3200
1227.4780;-56.3400;-51.0800;-5.2600
1227.6770;-56.2700;-51.0300;-5.2400
1227.8760;-56.1800;-50.9700;-5.2100
1228.0750;-56.0600;-50.9200;-5.1400
1228.2740;-55.9200;-50.8600;-5.0600
1228.4740;-55.7300;-50.7900;-4.9400
1228.6730;-55.6200;-50.7300;-4.8900
1228.8720;-55.4500;-50.6700;-4.7800
1229.0710;-55.2600;-50.6100;-4.6500
1229.2700;-55.0800;-50.5200;-4.5600
1229.4690;-54.9000;-50.4400;-4.4600
1229.6680;-54.7200;-50.3800;-4.3400
1229.8670;-54.5100;-50.3000;-4.2100
1230.0660;-54.3500;-50.2300;-4.1200
1230.2660;-54.1800;-50.1400;-4.0400
1230.4650;-54.0300;-50.0500;-3.9800
1230.6640;-53.8800;-49.9900;-3.8900
1230.8630;-53.7700;-49.9200;-3.8500
1231.0620;-53.7000;-49.8500;-3.8500
1231.2610;-53.6200;-49.7800;-3.8400
1231.4600;-53.5700;-49.7200;-3.8500
1231.6590;-53.5400;-49.6600;-3.8800
1231.8580;-53.5400;-49.5900;-3.9500
1232.0580;-53.5700;-49.5400;-4.0300
1232.2570;-53.5700;-49.4700;-4.1000
1232.4560;-53.6400;-49.4200;-4.2200
1232.6550;-53.7000;-49.3600;-4.3400
1232.8540;-53.7600;-49.2900;-4.4700
1233.0530;-53.8300;-49.2600;-4.5700
1233.2520;-53.9200;-49.1900;-4.7300
1233.4510;-54.0100;-49.1300;-4.8800
1233.6500;-54.0800;-49.0800;-5.0000
1233.8500;-54.1300;-49.0100;-5.1200
1234.0490;-54.2100;-48.9700;-5.2400
1234.2480;-54.2400;-48.8900;-5.3500
1234.4470;-54.2400;-48.8300;-5.4100
1234.6460;-54.2200;-48.7700;-5.4500
1234.8450;-54.2000;-48.7000;-5.5000
1235.0440;-54.1400;-48.6300;-5.5100
1235.2430;-54.0200;-48.5500;-5.4700
1235.4430;-53.9100;-48.4800;-5.4300
1235.6420;-53.7700;-48.3900;-5.3800
1235.8410;-53.6000;-48.3000;-5.3000
1236.0400;-53.4200;-48.2300;-5.1900
1236.2390;-53.2300;-48.1300;-5.1000
1236.4380;-53.0500;-48.0600;-4.9900
1236.6370;-52.8500;-47.9700;-4.8800
1236.8360;-52.6500;-47.8700;-4.7800
1237.0350;-52.4900;-47.7900;-4.7000
1237.2350;-52.3300;-47.7000;-4.6300
1237.4340;-52.1800;-47.6200;-4.5600
1237.6330;-52.0300;-47.5300;-4.5000
1237.8320;-51.9200;-47.4600;-4.4600
1238.0310;-51.8200;-47.3700;-4.4500
1238.2300;-51.7300;-47.2900;-4.4400
1238.4290;-51.6600;-47.2200;-4.4400
1238.6280;-51.6100;-47.1400;-4.4700
1238.8270;-51.5600;-47.0600;-4.5000
1239.0270;-51.5100;-46.9800;-4.5300
1239.2260;-51.4600;-46.9000;-4.5600
1239.4250;-51.4500;-46.8300;-4.6200
1239.6240;-51.4100;-46.7400;-4.6700
1239.8230;-51.3400;-46.6600;-4.6800
1240.0220;-51.3000;-46.5700;-4.7300
1240.2210;-51.2400;-46.4800;-4.7600
1240.4200;-51.1600;-46.4000;-4.7600
1240.6200;-51.0500;-46.3000;-4.7500
1240.8190;-50.9500;-46.2000;-4.7500
1241.0180;-50.8200;-46.0800;-4.7400
1241.2170;-50.6700;-45.9700;-4.7000
1241.4160;-50.5300;-45.8400;-4.6900
1241.6150;-50.3600;-45.7400;-4.6200
1241.8140;-50.2100;-45.6300;-4.5800
1242.0130;-50.0300;-45.5000;-4.5300
1242.2120;-49.8600;-45.3900;-4.4700
1242.4120;-49.7200;-45.2600;-4.4600
1242.6110;-49.5400;-45.1300;-4.4100
1242.8100;-49.3900;-45.0100;-4.3800
1243.0090;-49.2400;-44.8600;-4.3800
1243.2080;-49.1100;-44.7500;-4.3600
1243.4070;-48.9900;-44.6100;-4.3800
1243.6060;-48.8600;-44.4700;-4.3900
1243.8050;-48.7700;-44.3600;-4.4100
1244.0040;-48.6800;-44.2200;-4.4600
1244.2040;-48.5900;-44.1000;-4.4900
1244.4030;-48.5500;-43.9700;-4.5800
1244.6020;-48.4900;-43.8300;-4.6600
1244.8010;-48.4500;-43.7200;-4.7300
1245.0000;-48.4100;-43.5900;-4.8200
1245.1990;-48.3900;-43.4700;-4.9200
1245.3980;-48.3900;-43.3300;-5.0600
1245.5970;-48.3500;-43.2000;-5.1500
1245.7970;-48.3200;-43.0700;-5.2500
1245.9960;-48.2900;-42.9300;-5.3600
1246.1950;-48.2400;-42.8000;-5.4400
1246.3940;-48.1900;-42.6500;-5.5400
1246.5930;-48.0900;-42.5000;-5.5900
1246.7920;-48.0000;-42.3700;-5.6300
1246.9910;-47.8500;-42.2000;-5.6500
1247.1900;-47.6900;-42.0600;-5.6300
1247.3890;-47.5300;-41.9100;-5.6200
1247.5890;-47.3000;-41.7400;-5.5600
1247.7880;-47.0800;-41.6000;-5.4800
1247.9870;-46.8200;-41.4300;-5.3900
1248.1860;-46.5700;-41.2800;-5.2900
1248.3850;-46.3200;-41.1100;-5.2100
1248.5840;-46.0300;-40.9400;-5.0900
1248.7830;-45.7300;-40.8000;-4.9300
1248.9820;-45.5200;-40.6400;-4.8800
1249.1810;-45.2700;-40.4900;-4.7800
1249.3810;-45.0200;-40.3300;-4.6900
1249.5800;-44.7800;-40.1700;-4.6100
1249.7790;-44.5800;-40.0300;-4.5500
1249.9780;-44.3500;-39.8600;-4.4900
1250.1770;-44.1600;-39.7200;-4.4400
1250.3760;-43.9600;-39.5700;-4.3900
1250.5750;-43.7600;-39.4100;-4.3500
1250.7740;-43.5800;-39.2700;-4.3100
1250.9740;-43.4100;-39.1200;-4.2900
1251.1730;-43.2300;-38.9800;-4.2500
1251.3720;-43.0400;-38.8100;-4.2300
1251.5710;-42.8600;-38.6600;-4.2000
1251.7700;-42.6700;-38.5100;-4.1600
1251.9690;-42.4600;-38.3400;-4.1200
1252.1680;-42.2600;-38.2000;-4.0600
1252.3670;-42.0300;-38.0200;-4.0100
1252.5660;-41.8200;-37.8700;-3.9500
1252.7660;-41.5900;-37.7000;-3.8900
1252.9650;-41.3700;-37.5400;-3.8300
1253.1640;-41.1600;-37.3800;-3.7800
1253.3630;-40.9200;-37.1900;-3.7300
1253.5620;-40.7200;-37.0300;-3.6900
1253.7610;-40.5300;-36.8600;-3.6700
1253.9600;-40.3600;-36.7000;-3.6600
1254.1590;-40.2000;-36.5500;-3.6500
1254.3580;-40.0600;-36.3700;-3.6900
1254.5580;-39.9600;-36.2200;-3.7400
1254.7570;-39.8800;-36.0500;-3.8300
1254.9560;-39.8200;-35.8700;-3.9500
1255.1550;-39.8200;-35.7500;-4.0700
1255.3540;-39.8200;-35.5900;-4.2300
1255.5530;-39.8700;-35.4700;-4.4000
1255.7520;-39.9400;-35.3100;-4.6300
1255.9510;-40.0300;-35.1600;-4.8700
1256.1500;-40.1700;-35.0200;-5.1500
1256.3500;-40.2900;-34.8700;-5.4200
1256.5490;-40.4500;-34.7500;-5.7000
1256.7480;-40.5700;-34.6000;-5.9700
1256.9470;-40.6700;-34.4600;-6.2100
1257.1460;-40.7400;-34.3100;-6.4300
1257.3450;-40.7400;-34.1600;-6.5800
1257.5440;-40.6900;-34.0300;-6.6600
1257.7430;-40.5400;-33.8700;-6.6700
1257.9430;-40.3200;-33.7300;-6.5900
1258.1420;-40.0400;-33.5700;-6.4700
1258.3410;-39.6800;-33.4200;-6.2600
1258.5400;-39.2900;-33.2800;-6.0100
1258.7390;-38.8500;-33.1100;-5.7400
1258.9380;-38.4000;-32.9600;-5.4400
1259.1370;-37.9700;-32.8000;-5.1700
1259.3360;-37.5300;-32.6400;-4.8900
1259.5350;-37.1300;-32.4900;-4.6400
1259.7350;-36.7300;-32.3200;-4.4100
1259.9340;-36.3700;-32.1700;-4.2000
1260.1330;-36.0500;-32.0200;-4.0300
1260.3320;-35.7000;-31.8600;-3.8400
1260.5310;-35.5000;-31.7200;-3.7800
1260.7300;-35.2600;-31.5600;-3.7000
1260.9290;-35.0600;-31.4100;-3.6500
1261.1280;-34.8700;-31.2500;-3.6200
1261.3270;-34.7100;-31.1100;-3.6000
1261.5270;-34.5900;-30.9800;-3.6100
1261.7260;-34.4500;-30.8300;-3.6200
1261.9250;-34.3300;-30.6900;-3.6400
1262.1240;-34.2000;-30.5400;-3.6600
1262.3230;-34.0600;-30.4000;-3.6600
1262.5220;-33.9300;-30.2700;-3.6600
1262.7210;-33.7600;-30.1300;-3.6300
1262.9200;-33.5800;-30.0000;-3.5800
1263.1200;-33.3600;-29.8500;-3.5100
1263.3190;-33.1300;-29.7100;-3.4200
1263.5180;-32.8900;-29.5800;-3.3100
1263.7170;-32.6000;-29.4400;-3.1600
1263.9160;-32.3300;-29.3000;-3.0300
1264.1150;-32.0200;-29.1500;-2.8700
1264.3140;-31.7200;-29.0100;-2.7100
1264.5130;-31.4300;-28.8800;-2.5500
1264.7120;-31.1400;-28.7300;-2.4100
1264.9120;-30.8700;-28.6100;-2.2600
1265.1110;-30.6000;-28.4600;-2.1400
1265.3100;-30.3600;-28.3200;-2.0400
1265.5090;-30.1500;-28.1900;-1.9600
1265.7080;-29.9500;-28.0500;-1.9000
1265.9070;-29.7900;-27.9300;-1.8600
1266.1060;-29.6400;-27.7800;-1.8600
1266.3050;-29.5300;-27.6600;-1.8700
1266.5040;-29.4600;-27.5400;-1.9200
1266.7040;-29.4000;-27.4100;-1.9900
1266.9030;-29.3700;-27.2900;-2.0800
1267.1020;-29.3500;-27.1600;-2.1900
1267.3010;-29.3500;-27.0400;-2.3100
1267.5000;-29.3800;-26.9300;-2.4500
1267.6990;-29.4000;-26.8000;-2.6000
1267.8980;-29.4500;-26.6900;-2.7600
1268.0970;-29.4800;-26.5700;-2.9100
1268.2970;-29.5200;-26.4600;-3.0600
1268.4960;-29.5500;-26.3500;-3.2000
1268.6950;-29.5600;-26.2300;-3.3300
1268.8940;-29.5800;-26.1200;-3.4600
1269.0930;-29.5500;-25.9700;-3.5800
1269.2920;-29.5400;-25.8800;-3.6600
1269.4910;-29.5200;-25.7600;-3.7600
1269.6900;-29.4800;-25.6600;-3.8200
1269.8890;-29.4500;-25.5300;-3.9200
1270.0890;-29.4100;-25.4100;-4.0000
1270.2880;-29.4000;-25.3100;-4.0900
1270.4870;-29.4000;-25.1900;-4.2100
1270.6860;-29.4100;-25.0800;-4.3300
1270.8850;-29.4700;-24.9600;-4.5100
1271.0840;-29.5400;-24.8500;-4.6900
1271.2830;-29.6600;-24.7400;-4.9200
1271.4820;-29.8000;-24.6200;-5.1800
1271.6810;-29.9900;-24.5200;-5.4700
1271.8810;-30.2300;-24.4100;-5.8200
1272.0800;-30.4900;-24.3000;-6.1900
1272.2790;-30.8000;-24.2000;-6.6000
1272.4780;-31.1000;-24.0800;-7.0200
1272.6770;-31.4100;-23.9900;-7.4200
1272.8760;-31.6900;-23.8700;-7.8200
1273.0750;-31.8900;-23.7700;-8.1200
1273.2740;-32.0000;-23.6700;-8.3300
1273.4740;-31.9400;-23.5600;-8.3800
1273.6730;-31.7400;-23.4600;-8.2800
1273.8720;-31.3800;-23.3500;-8.0300
1274.0710;-30.8800;-23.2400;-7.6400
1274.2700;-30.3100;-23.1400;-7.1700
1274.4690;-29.6500;-23.0300;-6.6200
1274.6680;-28.9900;-22.9400;-6.0500
1274.8670;-28.3200;-22.8300;-5.4900
1275.0660;-27.6800;-22.7300;-4.9500
1275.2660;-27.0800;-22.6300;-4.4500
1275.4650;-26.5000;-22.5300;-3.9700
1275.6640;-25.9000;-22.4400;-3.4600
1275.8630;-25.4800;-22.3400;-3.1400
1276.0620;-25.0500;-22.2500;-2.8000
1276.2610;-24.6400;-22.1600;-2.4800
1276.4600;-24.2800;-22.0700;-2.2100
1276.6590;-23.9600;-21.9900;-1.9700
1276.8580;-23.6700;-21.8900;-1.7800
1277.0580;-23.4300;-21.8200;-1.6100
1277.2570;-23.2100;-21.7300;-1.4800
1277.4560;-23.0200;-21.6500;-1.3700
1277.6550;-22.8600;-21.5900;-1.2700
1277.8540;-22.7200;-21.5000;-1.2200
1278.0530;-22.6200;-21.4300;-1.1900
1278.2520;-22.5000;-21.3400;-1.1600
1278.4510;-22.4200;-21.2700;-1.1500
1278.6500;-22.3600;-21.2000;-1.1600
1278.8500;-22.2900;-21.1100;-1.1800
1279.0490;-22.2400;-21.0400;-1.2000
1279.2480;-22.1800;-20.9500;-1.2300
1279.4470;-22.1200;-20.8800;-1.2400
1279.6460;-22.0800;-20.8000;-1.2800
1279.8450;-22.0200;-20.7100;-1.3100
1280.0440;-21.9900;-20.6500;-1.3400
1280.2430;-21.9400;-20.5500;-1.3900
1280.4430;-21.9100;-20.4700;-1.4400
1280.6420;-21.8800;-20.3900;-1.4900
1280.8410;-21.8500;-20.3000;-1.5500
1281.0400;-21.8600;-20.2400;-1.6200
1281.2390;-21.8500;-20.1500;-1.7000
1281.4380;-21.8900;-20.0700;-1.8200
1281.6370;-21.9400;-19.9900;-1.9500
1281.8360;-22.0200;-19.9100;-2.1100
1282.0350;-22.1400;-19.8400;-2.3000
1282.2350;-22.2800;-19.7500;-2.5300
1282.4340;-22.4700;-19.6900;-2.7800
1282.6330;-22.6900;-19.6200;-3.0700
1282.8320;-22.9500;-19.5400;-3.4100
1283.0310;-23.2700;-19.4900;-3.7800
1283.2300;-23.6100;-19.4100;-4.2000
1283.4290;-24.0100;-19.3500;-4.6600
1283.6280;-24.4400;-19.2700;-5.1700
1283.8270;-24.9000;-19.2000;-5.7000
1284.0270;-25.3900;-19.1500;-6.2400
1284.2260;-25.8800;-19.0800;-6.8000
1284.4250;-26.3500;-19.0300;-7.3200
1284.6240;-26.7500;-18.9500;-7.8000
1284.8230;-27.0600;-18.8900;-8.1700
1285.0220;-27.2200;-18.8400;-8.3800
1285.2210;-27.2100;-18.7700;-8.4400
1285.4200;-27.0300;-18.7200;-8.3100
1285.6200;-26.6700;-18.6400;-8.0300
1285.8190;-26.2000;-18.5900;-7.6100
1286.0180;-25.6600;-18.5300;-7.1300
1286.2170;-25.0700;-18.4700;-6.6000
1286.4160;-24.4900;-18.4200;-6.0700
1286.6150;-23.9100;-18.3600;-5.5500
1286.8140;-23.3600;-18.3100;-5.0500
1287.0130;-22.8300;-18.2600;-4.5700
1287.2120;-22.3300;-18.2000;-4.1300
1287.4120;-21.8900;-18.1700;-3.7200
1287.6110;-21.4600;-18.1100;-3.3500
1287.8100;-21.0900;-18.0700;-3.0200
1288.0090;-20.7300;-18.0200;-2.7100
1288.2080;-20.4100;-17.9700;-2.4400
1288.4070;-20.1300;-17.9400;-2.1900
1288.6060;-19.8500;-17.8900;-1.9600
1288.8050;-19.6200;-17.8600;-1.7600
1289.0040;-19.3900;-17.8100;-1.5800
1289.2040;-19.1900;-17.7700;-1.4200
1289.4030;-19.0100;-17.7400;-1.2700
1289.6020;-18.8400;-17.7000;-1.1400
1289.8010;-18.7100;-17.6700;-1.0400
1290.0000;-18.5700;-17.6200;-0.9500
1290.1990;-18.4600;-17.5800;-0.8800
1290.3980;-18.3700;-17.5500;-0.8200
1290.5970;-18.3000;-17.5200;-0.7800
1290.7970;-18.2600;-17.4900;-0.7700
1290.9960;-18.2100;-17.4300;-0.7800
1291.1950;-18.2100;-17.3900;-0.8200
1291.3940;-18.2400;-17.3500;-0.8900
1291.5930;-18.2700;-17.3000;-0.9700
1291.7920;-18.3600;-17.2700;-1.0900
1291.9910;-18.4600;-17.2100;-1.2500
1292.1900;-18.6200;-17.1800;-1.4400
1292.3890;-18.8000;-17.1300;-1.6700
1292.5890;-19.0000;-17.0800;-1.9200
1292.7880;-19.2700;-17.0500;-2.2200
1292.9870;-19.5600;-17.0000;-2.5600
1293.1860;-19.9200;-16.9700;-2.9500
1293.3850;-20.3100;-16.9200;-3.3900
1293.5840;-20.7400;-16.8700;-3.8700
1293.7830;-21.2300;-16.8400;-4.3900
1293.9820;-21.7600;-16.8000;-4.9600
1294.1810;-22.3500;-16.7900;-5.5600
1294.3810;-22.9700;-16.7400;-6.2300
1294.5800;-23.6400;-16.7000;-6.9400
1294.7790;-24.3500;-16.6700;-7.6800
1294.9780;-25.1000;-16.6400;-8.4600
1295.1770;-25.9000;-16.6200;-9.2800
1295.3760;-26.6700;-16.5900;-10.0800
1295.5750;-27.4600;-16.5600;-10.9000
1295.7740;-28.3700;-16.5200;-11.8500
1295.9740;-28.9500;-16.4900;-12.4600
1296.1730;-29.6100;-16.4700;-13.1400
1296.3720;-30.2200;-16.4400;-13.7800
1296.5710;-30.7700;-16.4100;-14.3600
1296.7700;-31.2800;-16.3800;-14.9000
1296.9690;-31.7800;-16.3600;-15.4200
1297.1680;-32.2800;-16.3400;-15.9400
1297.3670;-32.8200;-16.3100;-16.5100
1297.5660;-33.3500;-16.2900;-17.0600
1297.7660;-33.8500;-16.2600;-17.5900
1297.9650;-34.2100;-16.2400;-17.9700
1298.1640;-34.2300;-16.2100;-18.0200
1298.3630;-33.7900;-16.1900;-17.6000
1298.5620;-32.8700;-16.1800;-16.6900
1298.7610;-31.6100;-16.1500;-15.4600
1298.9600;-30.2300;-16.1400;-14.0900
1299.1590;-28.8200;-16.1200;-12.7000
1299.3580;-27.4800;-16.1100;-11.3700
1299.5580;-26.2100;-16.0900;-10.1200
1299.7570;-24.8800;-16.0800;-8.8000
1299.9560;-24.0100;-16.0800;-7.9300
1300.1550;-23.0600;-16.0700;-6.9900
1300.3540;-22.2200;-16.0700;-6.1500
1300.5530;-21.4200;-16.0400;-5.3800
1300.7520;-20.7500;-16.0400;-4.7100
1300.9510;-20.1200;-16.0400;-4.0800
1301.1500;-19.5800;-16.0400;-3.5400
1301.3500;-19.1100;-16.0500;-3.0600
1301.5490;-18.6900;-16.0400;-2.6500
1301.7480;-18.3500;-16.0400;-2.3100
1301.9470;-18.0400;-16.0400;-2.0000
1302.1460;-17.8200;-16.0400;-1.7800
1302.3450;-17.6300;-16.0500;-1.5800
1302.5440;-17.5100;-16.0500;-1.4600
1302.7430;-17.4400;-16.0600;-1.3800
1302.9430;-17.4000;-16.0500;-1.3500
1303.1420;-17.4400;-16.0600;-1.3800
1303.3410;-17.5100;-16.0800;-1.4300
1303.5400;-17.6400;-16.0800;-1.5600
1303.7390;-17.8200;-16.0900;-1.7300
1303.9380;-18.0200;-16.0900;-1.9300
1304.1370;-18.2900;-16.1000;-2.1900
1304.3360;-18.5800;-16.1200;-2.4600
1304.5350;-18.9000;-16.1300;-2.7700
1304.7350;-19.2500;-16.1500;-3.1000
1304.9340;-19.6000;-16.1500;-3.4500
1305.1330;-19.9700;-16.1700;-3.8000
1305.3320;-20.3000;-16.1900;-4.1100
1305.5310;-20.6200;-16.2100;-4.4100
1305.7300;-20.8900;-16.2300;-4.6600
1305.9290;-21.0900;-16.2400;-4.8500
1306.1280;-21.2400;-16.2600;-4.9800
1306.3270;-21.3000;-16.2800;-5.0200
1306.5270;-21.3200;-16.3000;-5.0200
1306.7260;-21.2800;-16.3400;-4.9400
1306.9250;-21.2000;-16.3500;-4.8500
1307.1240;-21.1200;-16.3800;-4.7400
1307.3230;-21.0200;-16.3900;-4.6300
1307.5220;-20.9600;-16.4200;-4.5400
1307.7210;-20.9100;-16.4600;-4.4500
1307.9200;-20.9000;-16.4700;-4.4300
1308.1200;-20.9600;-16.5100;-4.4500
1308.3190;-21.0500;-16.5200;-4.5300
1308.5180;-21.2300;-16.5500;-4.6800
1308.7170;-21.4600;-16.5700;-4.8900
1308.9160;-21.7600;-16.5900;-5.1700
1309.1150;-22.1700;-16.6200;-5.5500
1309.3140;-22.6500;-16.6300;-6.0200
1309.5130;-23.2400;-16.6700;-6.5700
1309.7120;-23.9100;-16.7000;-7.2100
1309.9120;-24.6900;-16.7100;-7.9800
1310.1110;-25.6000;-16.7500;-8.8500
1310.3100;-26.5800;-16.7700;-9.8100
1310.5090;-27.6300;-16.8100;-10.8200
1310.7080;-28.8300;-16.8400;-11.9900
1310.9070;-29.4200;-16.8600;-12.5600
1311.1060;-29.7100;-16.9200;-12.7900
1311.3050;-29.4100;-16.9400;-12.4700
1311.5040;-28.6300;-16.9800;-11.6500
1311.7040;-27.5800;-17.0200;-10.5600
1311.9030;-26.4800;-17.0600;-9.4200
1312.1020;-25.2300;-17.1200;-8.1100
1312.3010;-24.4400;-17.1600;-7.2800
1312.5000;-23.5800;-17.2300;-6.3500
1312.6990;-22.8300;-17.2700;-5.5600
1312.8980;-22.1500;-17.3200;-4.8300
1313.0970;-21.5700;-17.3800;-4.1900
1313.2970;-21.0800;-17.4300;-3.6500
1313.4960;-20.6700;-17.5100;-3.1600
1313.6950;-20.3200;-17.5500;-2.7700
1313.8940;-20.0100;-17.6000;-2.4100
1314.0930;-19.7700;-17.6800;-2.0900
1314.2920;-19.5800;-17.7200;-1.8600
1314.4910;-19.4300;-17.8000;-1.6300
1314.6900;-19.3300;-17.8500;-1.4800
1314.8890;-19.2300;-17.9100;-1.3200
1315.0890;-19.1900;-17.9500;-1.2400
1315.2880;-19.1500;-18.0100;-1.1400
1315.4870;-19.1500;-18.0900;-1.0600
1315.6860;-19.1800;-18.1300;-1.0500
1315.8850;-19.1900;-18.2000;-0.9900
1316.0840;-19.2500;-18.2500;-1.0000
1316.2830;-19.2800;-18.3100;-0.9700
1316.4820;-19.3400;-18.3800;-0.9600
1316.6810;-19.4000;-18.4600;-0.9400
1316.8810;-19.4600;-18.5100;-0.9500
1317.0800;-19.5500;-18.5800;-0.9700
1317.2790;-19.6100;-18.6600;-0.9500
1317.4780;-19.6900;-18.7200;-0.9700
1317.6770;-19.7700;-18.7900;-0.9800
1317.8760;-19.8500;-18.8600;-0.9900
1318.0750;-19.9600;-18.9200;-1.0400
1318.2740;-20.0600;-19.0000;-1.0600
1318.4740;-20.1900;-19.0600;-1.1300
1318.6730;-20.3200;-19.1600;-1.1600
1318.8720;-20.4700;-19.2200;-1.2500
1319.0710;-20.6600;-19.3100;-1.3500
1319.2700;-20.8400;-19.3800;-1.4600
1319.4690;-21.0600;-19.4600;-1.6000
1319.6680;-21.2900;-19.5500;-1.7400
1319.8670;-21.5400;-19.6200;-1.9200
1320.0660;-21.8200;-19.7100;-2.1100
1320.2660;-22.1100;-19.7900;-2.3200
1320.4650;-22.4400;-19.8700;-2.5700
1320.6640;-22.7700;-19.9700;-2.8000
1320.8630;-23.1300;-20.0500;-3.0800
1321.0620;-23.4900;-20.1500;-3.3400
1321.2610;-23.8700;-20.2300;-3.6400
1321.4600;-24.2700;-20.3200;-3.9500
1321.6590;-24.6400;-20.4200;-4.2200
1321.8580;-25.0400;-20.5000;-4.5400
1322.0580;-25.4200;-20.6100;-4.8100
1322.2570;-25.7900;-20.7000;-5.0900
1322.4560;-26.1600;-20.8000;-5.3600
1322.6550;-26.4800;-20.9000;-5.5800
1322.8540;-26.8000;-21.0000;-5.8000
1323.0530;-27.0700;-21.1200;-5.9500
1323.2520;-27.3200;-21.2100;-6.1100
1323.4510;-27.5200;-21.3300;-6.1900
1323.6500;-27.6700;-21.4300;-6.2400
1323.8500;-27.8100;-21.5400;-6.2700
1324.0490;-27.8800;-21.6700;-6.2100
1324.2480;-27.9200;-21.7700;-6.1500
1324.4470;-27.9100;-21.9000;-6.0100
1324.6460;-27.8600;-22.0000;-5.8600
1324.8450;-27.7900;-22.1200;-5.6700
1325.0440;-27.6800;-22.2500;-5.4300
1325.2430;-27.5600;-22.3600;-5.2000
1325.4430;-27.4000;-22.5000;-4.9000
1325.6420;-27.2500;-22.6200;-4.6300
1325.8410;-27.0900;-22.7500;-4.3400
1326.0400;-26.9200;-22.8800;-4.0400
1326.2390;-26.7600;-23.0100;-3.7500
1326.4380;-26.5900;-23.1500;-3.4400
1326.6370;-26.4600;-23.2800;-3.1800
1326.8360;-26.3200;-23.4200;-2.9000
1327.0350;-26.2100;-23.5500;-2.6600
1327.2350;-26.1300;-23.6900;-2.4400
1327.4340;-26.0500;-23.8400;-2.2100
1327.6330;-26.0100;-23.9700;-2.0400
1327.8320;-25.9900;-24.1200;-1.8700
1328.0310;-25.9800;-24.2500;-1.7300
1328.2300;-26.0100;-24.3900;-1.6200
1328.4290;-26.0500;-24.5400;-1.5100
1328.6280;-26.1300;-24.6800;-1.4500
1328.8270;-26.2100;-24.8300;-1.3800
1329.0270;-26.3200;-24.9700;-1.3500
1329.2260;-26.4400;-25.1200;-1.3200
1329.4250;-26.5800;-25.2600;-1.3200
1329.6240;-26.7400;-25.4000;-1.3400
1329.8230;-26.8900;-25.5600;-1.3300
1330.0220;-27.0600;-25.7000;-1.3600
1330.2210;-27.2300;-25.8500;-1.3800
1330.4200;-27.4000;-26.0000;-1.4000
1330.6200;-27.5800;-26.1400;-1.4400
1330.8190;-27.7600;-26.3000;-1.4600
1331.0180;-27.9400;-26.4500;-1.4900
1331.2170;-28.1000;-26.6200;-1.4800
1331.4160;-28.2900;-26.7600;-1.5300
1331.6150;-28.5000;-26.9300;-1.5700
1331.8140;-28.6500;-27.0800;-1.5700
1332.0130;-28.8300;-27.2300;-1.6000
1332.2120;-29.0300;-27.4000;-1.6300
1332.4120;-29.2500;-27.5600;-1.6900
1332.6110;-29.4700;-27.7300;-1.7400
1332.8100;-29.7300;-27.8800;-1.8500
1333.0090;-29.9900;-28.0400;-1.9500
1333.2080;-30.2800;-28.1900;-2.0900
1333.4070;-30.6100;-28.3500;-2.2600
1333.6060;-30.9700;-28.5500;-2.4200
1333.8050;-31.3700;-28.6800;-2.6900
1334.0040;-31.7900;-28.8500;-2.9400
1334.2040;-32.2500;-29.0000;-3.2500
1334.4030;-32.7500;-29.1700;-3.5800
1334.6020;-33.2600;-29.3200;-3.9400
1334.8010;-33.8100;-29.4900;-4.3200
1335.0000;-34.3600;-29.6600;-4.7000
1335.1990;-34.9100;-29.8200;-5.0900
1335.3980;-35.4200;-29.9900;-5.4300
1335.5970;-35.8900;-30.1500;-5.7400
1335.7970;-36.3000;-30.3300;-5.9700
1335.9960;-36.6000;-30.5000;-6.1000
1336.1950;-36.8200;-30.6700;-6.1500
1336.3940;-36.9000;-30.8500;-6.0500
1336.5930;-36.9000;-31.0100;-5.8900
1336.7920;-36.8100;-31.1900;-5.6200
1336.9910;-36.6900;-31.3600;-5.3300
1337.1900;-36.5500;-31.5400;-5.0100
1337.3890;-36.3900;-31.7300;-4.6600
1337.5890;-36.2700;-31.9100;-4.3600
1337.7880;-36.1700;-32.1000;-4.0700
1337.9870;-36.1100;-32.2700;-3.8400
1338.1860;-36.1200;-32.4600;-3.6600
1338.3850;-36.1600;-32.6300;-3.5300
1338.5840;-36.3000;-32.8100;-3.4900
1338.7830;-36.4700;-32.9900;-3.4800
1338.9820;-36.7300;-33.1700;-3.5600
1339.1810;-37.0800;-33.3600;-3.7200
1339.3810;-37.5000;-33.5300;-3.9700
1339.5800;-38.0200;-33.7100;-4.3100
1339.7790;-38.7700;-33.8800;-4.8900
1339.9780;-39.3800;-34.0600;-5.3200
1340.1770;-40.2300;-34.2500;-5.9800
1340.3760;-41.2400;-34.4200;-6.8200
1340.5750;-42.4400;-34.6100;-7.8300
1340.7740;-43.8100;-34.7800;-9.0300
1340.9740;-45.4300;-34.9600;-10.4700
1341.1730;-47.3000;-35.1400;-12.1600
1341.3720;-49.8900;-35.3100;-14.5800
1341.5710;-51.2800;-35.5000;-15.7800
1341.7700;-51.9500;-35.6700;-16.2800
1341.9690;-50.9700;-35.8600;-15.1100
1342.1680;-49.2100;-36.0400;-13.1700
1342.3670;-47.4500;-36.2200;-11.2300
1342.5660;-45.6700;-36.4200;-9.2500
1342.7660;-44.6600;-36.6000;-8.0600
1342.9650;-43.6200;-36.8000;-6.8200
1343.1640;-42.7800;-36.9900;-5.7900
1343.3630;-42.0800;-37.1700;-4.9100
1343.5620;-41.5100;-37.3800;-4.1300
1343.7610;-41.0700;-37.5600;-3.5100
1343.9600;-40.7300;-37.7800;-2.9500
1344.1590;-40.4900;-37.9700;-2.5200
1344.3580;-40.3000;-38.1600;-2.1400
1344.5580;-40.2100;-38.3700;-1.8400
1344.7570;-40.1800;-38.6000;-1.5800
1344.9560;-40.1900;-38.7500;-1.4400
1345.1550;-40.2700;-38.9300;-1.3400
1345.3540;-40.3800;-39.1200;-1.2600
1345.5530;-40.5600;-39.3000;-1.2600
1345.7520;-40.7700;-39.4900;-1.2800
1345.9510;-41.0200;-39.6800;-1.3400
1346.1500;-41.3100;-39.8600;-1.4500
1346.3500;-41.6200;-40.0600;-1.5600
1346.5490;-41.9800;-40.2500;-1.7300
1346.7480;-42.3200;-40.4400;-1.8800
1346.9470;-42.6800;-40.6100;-2.0700
1347.1460;-43.0500;-40.7900;-2.2600
1347.3450;-43.4100;-40.9600;-2.4500
1347.5440;-43.8300;-41.1800;-2.6500
1347.7430;-44.2300;-41.4200;-2.8100
1347.9430;-44.6400;-41.6200;-3.0200
1348.1420;-45.0000;-41.8100;-3.1900
1348.3410;-45.3600;-42.0000;-3.3600
1348.5400;-45.6900;-42.1500;-3.5400
1348.7390;-46.0200;-42.3300;-3.6900
1348.9380;-46.3600;-42.4900;-3.8700
1349.1370;-46.6900;-42.6700;-4.0200
1349.3360;-47.0300;-42.8200;-4.2100
1349.5350;-47.3900;-42.9900;-4.4000
1349.7350;-47.7500;-43.1600;-4.5900
1349.9340;-48.1500;-43.3400;-4.8100
1350.1330;-48.6600;-43.5500;-5.1100
1350.3320;-49.0500;-43.7900;-5.2600
1350.5310;-49.4700;-44.0100;-5.4600
1350.7300;-49.8600;-44.1900;-5.6700
1350.9290;-50.2100;-44.3400;-5.8700
1351.1280;-50.4600;-44.4900;-5.9700
1351.3270;-50.7000;-44.6400;-6.0600
1351.5270;-50.8700;-44.8400;-6.0300
1351.7260;-51.0300;-45.0700;-5.9600
1351.9250;-51.0500;-45.2700;-5.7800
1352.1240;-50.9800;-45.4500;-5.5300
1352.3230;-50.8800;-45.6400;-5.2400
1352.5220;-50.7400;-45.8600;-4.8800
1352.7210;-50.5500;-46.0100;-4.5400
1352.9200;-50.3200;-46.1900;-4.1300
1353.1200;-50.2300;-46.4500;-3.7800
1353.3190;-49.9900;-46.5800;-3.4100
1353.5180;-49.8400;-46.7700;-3.0700
1353.7170;-49.7600;-46.9500;-2.8100
1353.9160;-49.6000;-47.0800;-2.5200
1354.1150;-49.5600;-47.2400;-2.3200
1354.3140;-49.6100;-47.4600;-2.1500
1354.5130;-49.6800;-47.6700;-2.0100
1354.7120;-49.9100;-48.0000;-1.9100
1354.9120;-50.1400;-48.3000;-1.8400
1355.1110;-50.3200;-48.5100;-1.8100
1355.3100;-50.4800;-48.6200;-1.8600
1355.5090;-50.5400;-48.6200;-1.9200
1355.7080;-50.8600;-48.8900;-1.9700
1355.9070;-51.2300;-49.1800;-2.0500
1356.1060;-51.5200;-49.3500;-2.1700
1356.3050;-51.7300;-49.4600;-2.2700
1356.5040;-51.9700;-49.5400;-2.4300
1356.7040;-51.9600;-49.4800;-2.4800
1356.9030;-52.1800;-49.6300;-2.5500
1357.1020;-52.6000;-50.0100;-2.5900
1357.3010;-52.8300;-50.2500;-2.5800
1357.5000;-53.0000;-50.4300;-2.5700
1357.6990;-53.1100;-50.6100;-2.5000
1357.8980;-53.0900;-50.6700;-2.4200
1358.0970;-53.0300;-50.7400;-2.2900
1358.2970;-53.0900;-50.9200;-2.1700
1358.4960;-53.2000;-51.1500;-2.0500
1358.6950;-53.2100;-51.3100;-1.9000
1358.8940;-53.2600;-51.4500;-1.8100
1359.0930;-53.3300;-51.6000;-1.7300
1359.2920;-53.3300;-51.6600;-1.6700
1359.4910;-53.6800;-52.0200;-1.6600
1359.6900;-54.0200;-52.3300;-1.6900
1359.8890;-54.3200;-52.5200;-1.8000
1360.0890;-54.5500;-52.5800;-1.9700
1360.2880;-54.8100;-52.6000;-2.2100
1360.4870;-55.0600;-52.5800;-2.4800
1360.6860;-55.5700;-52.7500;-2.8200
1360.8850;-56.3600;-53.0900;-3.2700
1361.0840;-57.2000;-53.3900;-3.8100
1361.2830;-58.0900;-53.5400;-4.5500
1361.4820;-59.4000;-53.7200;-5.6800
1361.6810;-60.1800;-53.9300;-6.2500
1361.8810;-61.3900;-54.0500;-7.3400
1362.0800;-62.9100;-54.2800;-8.6300
1362.2790;-64.7700;-54.7100;-10.0600
1362.4780;-66.3300;-54.9500;-11.3800
1362.6770;-67.7800;-55.0900;-12.6900
1362.8760;-68.0400;-54.9800;-13.0600
1363.0750;-67.4600;-54.9500;-12.5100
1363.2740;-65.9800;-54.7200;-11.2600
1363.4740;-64.6000;-54.8300;-9.7700
1363.6730;-63.3200;-54.9200;-8.4000
1363.8720;-62.1900;-55.1000;-7.0900
1364.0710;-61.3600;-55.3300;-6.0300
1364.2700;-60.6300;-55.5400;-5.0900
1364.4690;-60.2000;-55.8700;-4.3300
1364.6680;-60.0800;-56.4000;-3.6800
1364.8670;-59.7100;-56.6600;-3.0500
1365.0660;-59.1900;-56.6700;-2.5200
1365.2660;-59.0100;-56.8300;-2.1800
1365.4650;-58.7200;-56.8000;-1.9200
1365.6640;-58.6100;-56.9000;-1.7100
1365.8630;-58.5400;-56.9700;-1.5700
1366.0620;-58.4700;-56.9800;-1.4900
1366.2610;-58.4900;-57.0100;-1.4800
1366.4600;-58.6300;-57.1000;-1.5300
1366.6590;-58.9100;-57.2800;-1.6300
1366.8580;-59.3200;-57.5400;-1.7800
1367.0580;-59.6400;-57.6900;-1.9500
1367.2570;-60.0000;-57.8300;-2.1700
1367.4560;-60.5000;-58.0800;-2.4200
1367.6550;-60.9100;-58.3000;-2.6100
1367.8540;-61.4700;-58.6400;-2.8300
1368.0530;-61.8200;-58.7400;-3.0800
1368.2520;-62.0500;-58.7300;-3.3200
1368.4510;-62.5200;-59.0800;-3.4400
1368.6500;-62.7400;-59.2000;-3.5400
1368.8500;-62.8900;-59.3200;-3.5700
1369.0490;-62.8800;-59.3300;-3.5500
1369.2480;-62.7900;-59.3100;-3.4800
1369.4470;-62.6500;-59.2700;-3.3800
1369.6460;-62.6200;-59.3900;-3.2300
1369.8450;-62.8300;-59.7400;-3.0900
1370.0440;-62.8900;-59.9700;-2.9200
1370.2430;-62.8400;-60.1300;-2.7100
1370.4430;-62.7400;-60.2200;-2.5200
1370.6420;-62.7000;-60.2700;-2.4300
1370.8410;-62.9400;-60.6000;-2.3400
1371.0400;-63.2000;-60.8800;-2.3200
1371.2390;-63.4200;-61.1000;-2.3200
1371.4380;-63.4900;-61.1700;-2.3200
1371.6370;-63.5600;-61.1800;-2.3800
1371.8360;-63.6700;-61.1900;-2.4800
1372.0350;-64.0600;-61.4100;-2.6500
1372.2350;-64.4800;-61.6500;-2.8300
1372.4340;-64.9000;-61.7800;-3.1200
1372.6330;-65.4200;-61.8700;-3.5500
1372.8320;-65.8300;-61.9900;-3.8400
1373.0310;-66.2700;-62.0600;-4.2100
1373.2300;-66.9000;-62.2600;-4.6400
1373.4290;-67.5600;-62.4300;-5.1300
1373.6280;-68.2600;-62.5900;-5.6700
1373.8270;-69.1400;-62.7200;-6.4200
1374.0270;-69.8900;-62.8600;-7.0300
1374.2260;-70.8000;-63.0100;-7.7900
1374.4250;-71.7500;-63.1800;-8.5700
1374.6240;-72.4400;-63.3700;-9.0700
1374.8230;-73.7700;-63.6100;-10.1600
1375.0220;-74.6800;-63.8200;-10.8600
1375.2210;-75.8900;-63.9600;-11.9300
1375.4200;-75.8000;-64.0900;-11.7100
1375.6200;-76.6700;-64.2400;-12.4300
1375.8190;-77.5700;-64.3500;-13.2200
1376.0180;-77.6600;-64.6300;-13.0300
1376.2170;-76.9600;-64.8400;-12.1200
1376.4160;-76.3700;-64.9500;-11.4200
1376.6150;-76.6900;-65.0900;-11.6000
1376.8140;-76.6600;-65.3600;-11.3000
1377.0130;-75.9300;-65.6500;-10.2800
1377.2120;-76.6600;-65.8200;-10.8400
1377.4120;-75.3600;-65.9800;-9.3800
1377.6110;-74.7900;-66.1200;-8.6700
1377.8100;-74.9500;-66.0800;-8.8700
1378.0090;-74.1000;-66.2400;-7.8600
1378.2080;-74.1400;-66.4500;-7.6900
1378.4070;-73.6300;-66.6500;-6.9800
1378.6060;-73.8100;-66.9600;-6.8500
1378.8050;-73.5500;-67.3100;-6.2400
1379.0040;-73.4100;-67.5800;-5.8300
1379.2040;-72.9500;-67.5800;-5.3700
1379.4030;-72.7500;-67.6700;-5.0800
1379.6020;-72.5200;-67.6000;-4.9200
1379.8010;-72.0700;-67.7800;-4.2900
1380.0000;-72.0700;-67.9000;-4.1700
1380.1990;-72.2600;-68.2200;-4.0400
1380.3980;-72.3400;-68.4500;-3.8900
1380.5970;-72.8600;-68.9800;-3.8800
1380.7970;-73.0700;-69.4000;-3.6700
1380.9960;-73.0400;-69.8200;-3.2200
1381.1950;-73.1100;-69.7300;-3.3800
1381.3940;-73.0000;-69.5500;-3.4500
1381.5930;-72.7700;-69.2500;-3.5200
1381.7920;-72.7900;-69.4100;-3.3800
1381.9910;-73.0100;-69.5600;-3.4500
1382.1900;-73.3600;-69.5600;-3.8000
1382.3890;-73.8100;-69.8100;-4.0000
1382.5890;-74.2100;-70.3700;-3.8400
1382.7880;-75.0600;-71.0100;-4.0500
1382.9870;-75.7800;-71.2100;-4.5700
1383.1860;-75.4700;-71.0200;-4.4500
1383.3850;-75.5400;-70.7200;-4.8200
1383.5840;-75.5000;-70.7300;-4.7700
1383.7830;-75.3400;-70.7900;-4.5500
1383.9820;-75.2600;-71.0800;-4.1800
1384.1810;-75.6600;-71.1900;-4.4700
1384.3810;-75.4700;-70.9600;-4.5100
1384.5800;-75.6600;-71.0900;-4.5700
1384.7790;-75.7200;-71.1500;-4.5700
1384.9780;-75.7700;-71.6000;-4.1700
1385.1770;-75.9500;-71.7200;-4.2300
1385.3760;-76.1300;-71.7600;-4.3700
1385.5750;-75.5800;-71.8100;-3.7700
1385.7740;-75.5600;-71.9300;-3.6300
1385.9740;-75.5600;-71.8800;-3.6800
1386.1730;-75.6700;-71.8100;-3.8600
1386.3720;-75.4300;-72.1600;-3.2700
1386.5710;-75.3900;-72.0500;-3.3400
1386.7700;-74.6600;-72.2900;-2.3700
1386.9690;-74.8900;-72.1600;-2.7300
1387.1680;-75.5800;-72.1900;-3.3900
1387.3670;-75.1700;-72.2700;-2.9000
1387.5660;-75.4800;-72.3600;-3.1200
1387.7660;-75.2200;-72.8700;-2.3500
1387.9650;-75.7700;-73.0200;-2.7500
1388.1640;-75.9200;-73.3700;-2.5500
1388.3630;-76.2800;-73.7700;-2.5100
1388.5620;-76.1300;-73.4300;-2.7000
1388.7610;-76.1800;-73.2400;-2.9400
1388.9600;-76.8300;-73.1600;-3.6700
1389.1590;-76.4600;-73.1100;-3.3500
1389.3580;-75.9400;-73.0000;-2.9400
1389.5580;-76.1700;-72.9300;-3.2400
1389.7570;-75.8200;-73.0200;-2.8000
1389.9560;-76.1300;-73.4700;-2.6600
1390.1550;-76.4100;-73.4300;-2.9800
1390.3540;-76.1800;-73.3000;-2.8800
1390.5530;-75.7300;-73.8100;-1.9200
1390.7520;-77.0200;-73.7500;-3.2700
1390.9510;-76.6500;-73.6000;-3.0500
1391.1500;-76.4400;-73.7500;-2.6900
1391.3500;-76.4800;-74.1300;-2.3500
1391.5490;-76.8600;-73.9000;-2.9600
1391.7480;-76.2100;-73.8400;-2.3700
1391.9470;-76.6400;-74.0200;-2.6200
1392.1460;-77.3900;-74.4400;-2.9500
1392.3450;-76.6200;-74.8600;-1.7600
1392.5440;-77.9900;-75.2400;-2.7500
1392.7430;-77.9200;-75.2500;-2.6700
1392.9430;-78.2600;-74.9900;-3.2700
1393.1420;-78.9600;-75.1000;-3.8600
1393.3410;-78.0200;-74.8600;-3.1600
1393.5400;-78.2900;-75.2700;-3.0200
1393.7390;-77.7100;-74.7100;-3.0000
1393.9380;-78.0200;-74.2900;-3.7300
1394.1370;-78.2400;-74.6900;-3.5500
1394.3360;-78.7200;-74.8400;-3.8800
1394.5350;-78.1100;-74.6800;-3.4300
1394.7350;-78.0900;-75.5700;-2.5200
1394.9340;-79.1100;-75.2700;-3.8400
1395.1330;-80.0400;-75.3100;-4.7300
1395.3320;-78.6700;-75.9000;-2.7700
1395.5310;-78.9000;-75.8400;-3.0600
1395.7300;-78.7200;-76.3200;-2.4000
1395.9290;-79.3000;-76.1900;-3.1100
1396.1280;-78.9300;-75.7100;-3.2200
1396.3270;-78.5800;-76.6800;-1.9000
1396.5270;-78.5000;-75.7100;-2.7900
1396.7260;-79.0800;-76.0400;-3.0400
1396.9250;-80.1200;-76.1100;-4.0100
1397.1240;-78.8700;-76.1900;-2.6800
1397.3230;-80.0000;-75.8100;-4.1900
1397.5220;-78.7800;-75.7800;-3.0000
1397.7210;-78.6700;-76.5900;-2.0800
1397.9200;-78.9900;-76.1900;-2.8000
1398.1200;-79.8500;-76.0400;-3.8100
1398.3190;-78.3900;-76.2200;-2.1700
1398.5180;-79.7200;-75.8700;-3.8500
1398.7170;-80.3300;-76.4600;-3.8700
1398.9160;-81.1300;-76.2200;-4.9100
1399.1150;-80.4100;-76.3600;-4.0500
1399.3140;-78.7000;-75.9700;-2.7300
1399.5130;-79.5100;-76.2000;-3.3100
1399.7120;-80.9400;-76.7800;-4.1600
1399.9120;-81.8300;-76.3800;-5.4500
1400.1110;-80.2500;-76.8900;-3.3600
1400.3100;-80.0100;-76.6200;-3.3900
1400.5090;-82.5200;-76.8900;-5.6300
1400.7080;-80.3700;-77.5300;-2.8400
1400.9070;-82.1900;-77.5300;-4.6600
1401.1060;-80.8000;-77.0800;-3.7200
1401.3050;-86.4300;-76.8900;-9.5400
1401.5040;-82.2500;-76.5000;-5.7500
1401.7040;-85.0200;-77.7900;-7.2300
1401.9030;-82.2500;-76.9600;-5.2900
1402.1020;-81.9500;-77.0200;-4.9300
1402.3010;-82.0100;-77.1400;-4.8700
1402.5000;-80.7600;-77.3400;-3.4200
1402.6990;-82.8700;-77.3200;-5.5500
1402.8980;-84.0500;-76.4000;-7.6500
1403.0970;-82.5200;-77.2300;-5.2900
1403.2970;-81.1300;-76.9200;-4.2100
1403.4960;-80.7600;-77.4600;-3.3000
1403.6950;-82.5200;-77.8400;-4.6800
1403.8940;-80.4900;-77.0400;-3.4500
1404.0930;-80.2500;-76.7100;-3.5400
1404.2920;-81.5500;-77.1600;-4.3900
1404.4910;-82.5200;-77.7200;-4.8000
1404.6900;-82.3800;-77.1700;-5.2100
1404.8890;-79.6100;-77.7000;-1.9100
1405.0890;-80.0500;-77.5700;-2.4800
1405.2880;-81.8300;-77.9100;-3.9200
1405.4870;-82.7300;-79.6800;-3.0500
1405.6860;-81.7700;-78.0000;-3.7700
1405.8850;-81.4400;-77.8800;-3.5600
1406.0840;-80.5400;-77.3800;-3.1600
1406.2830;-81.4900;-77.3600;-4.1300
1406.4820;-83.9500;-78.0300;-5.9200
1406.6810;-81.3500;-77.8700;-3.4800
1406.8810;-82.0200;-76.8200;-5.2000
1407.0800;-80.5900;-77.2000;-3.3900
1407.2790;-83.4300;-78.7100;-4.7200
1407.4780;-81.1000;-79.1900;-1.9100
1407.6770;-82.9600;-79.0100;-3.9500
1407.8760;-80.1800;-78.0900;-2.0900
1408.0750;-80.6300;-78.7700;-1.8600
1408.2740;-81.9600;-77.6200;-4.3400
1408.4740;-80.3400;-77.0500;-3.2900
1408.6730;-83.6000;-77.4100;-6.1900
1408.8720;-79.9400;-77.4500;-2.4900
1409.0710;-80.3000;-77.8500;-2.4500
1409.2700;-81.9000;-77.2400;-4.6600
1409.4690;-81.1400;-77.0700;-4.0700
1409.6680;-81.7200;-77.5800;-4.1400
1409.8670;-81.3500;-78.0100;-3.3400
1410.0660;-79.9800;-77.7600;-2.2200
1410.2660;-82.2600;-78.1800;-4.0800
1410.4650;-81.2400;-77.8200;-3.4200
1410.6640;-80.4200;-77.7600;-2.6600
1410.8630;-80.4200;-77.6700;-2.7500
1411.0620;-79.4800;-78.4400;-1.0400
1411.2610;-82.0800;-77.5100;-4.5700
1411.4600;-82.2600;-77.4100;-4.8500
1411.6590;-80.5500;-77.9900;-2.5600
1411.8580;-81.0500;-78.8300;-2.2200
1412.0580;-80.0200;-77.2200;-2.8000
1412.2570;-81.2400;-77.3700;-3.8700
1412.4560;-83.0300;-77.4100;-5.6200
1412.6550;-81.9600;-77.2700;-4.6900
1412.8540;-81.9600;-76.7000;-5.2600
1413.0530;-81.3000;-77.5400;-3.7600
1413.2520;-80.4600;-77.7100;-2.7500
1413.4510;-82.5300;-77.3700;-5.1600
1413.6500;-82.2100;-77.6800;-4.5300
1413.8500;-82.4000;-77.0600;-5.3400
1414.0490;-80.1100;-77.1400;-2.9700
1414.2480;-81.9700;-77.6800;-4.2900
1414.4470;-81.6800;-77.5000;-4.1800
1414.6460;-82.2700;-77.2800;-4.9900
1414.8450;-81.7300;-77.4200;-4.3100
1415.0440;-80.7800;-77.0000;-3.7800
1415.2430;-83.6100;-77.5500;-6.0600
1415.4430;-80.1500;-77.2100;-2.9400
1415.6420;-81.0600;-77.1000;-3.9600
1415.8410;-81.1500;-77.8100;-3.3400
1416.0400;-81.2500;-77.2800;-3.9700
1416.2390;-81.9700;-77.6100;-4.3600
1416.4380;-81.1500;-76.2900;-4.8600
1416.6370;-81.4100;-76.6700;-4.7400
1416.8360;-80.6000;-77.0200;-3.5800
1417.0350;-81.4600;-76.9800;-4.4800
1417.2350;-80.0700;-77.0200;-3.0500
1417.4340;-82.5400;-76.6500;-5.8900
1417.6330;-80.7800;-76.6700;-4.1100
1417.8320;-80.6000;-76.5900;-4.0100
1418.0310;-80.4300;-75.8900;-4.5400
1418.2300;-80.4300;-76.9300;-3.5000
1418.4290;-80.4300;-77.0200;-3.4100
1418.6280;-82.0300;-77.3000;-4.7300
1418.8270;-81.2500;-77.5700;-3.6800
1419.0270;-81.1500;-77.6500;-3.5000
1419.2260;-80.6000;-77.7400;-2.8600
1419.4250;-82.1500;-77.8300;-4.3200
1419.6240;-81.9700;-77.0200;-4.9500
1419.8230;-81.0600;-77.5700;-3.4900
1420.0220;-80.1500;-76.1700;-3.9800
1420.2210;-80.1500;-76.7100;-3.4400
1420.4200;-80.1900;-76.8900;-3.3000
1420.6200;-81.9100;-76.7100;-5.2000
1420.8190;-79.7400;-76.2900;-3.4500
1421.0180;-80.5600;-76.8500;-3.7100
1421.2170;-79.9500;-76.3200;-3.6300
1421.4160;-79.8800;-77.1200;-2.7600
1421.6150;-79.5400;-76.6000;-2.9400
1421.8140;-80.7900;-76.6300;-4.1600
1422.0130;-80.9700;-75.8400;-5.1300
1422.2120;-82.3500;-76.4900;-5.8600
1422.4120;-80.7400;-76.6100;-4.1300
1422.6110;-82.4100;-77.0700;-5.3400
1422.8100;-79.5400;-77.3300;-2.2100
1423.0090;-81.0200;-76.7400;-4.2800
1423.2080;-79.5400;-76.4400;-3.1000
1423.4070;-81.6900;-76.5300;-5.1600
1423.6060;-80.1200;-76.2300;-3.8900
1423.8050;-80.5700;-76.8600;-3.7100
1424.0040;-78.6200;-77.0100;-1.6100
1424.2040;-80.5700;-77.5100;-3.0600
1424.4030;-79.1200;-76.5300;-2.5900
1424.6020;-80.7000;-76.2500;-4.4500
1424.8010;-79.5000;-76.5300;-2.9700
1425.0000;-79.8900;-76.5300;-3.3600
